ENTRY            D0637   20101006   20110323   20110307       D074
SUBENT        D0637001   20101006   20110323   20110307       D074
BIB                 10         45
TITLE      18O(3He,p)20F reaction
AUTHOR     (M.S.Chowdhury,M.A.Zaman,H.M.Sen Gupta)
INSTITUTE  (3BANDAC) Department of Physics, University of Dhaka,
           Dhaka, Bangladesh
REFERENCE  (J,PR/C,46,(6),2273,1992)
FACILITY   (VDGT,2UK OXF) The experiment was carried out with a
           beam of 18 MeV  3He particles from the Tandem
           generator of the  Nuclear Physics Laboratory, Oxford.
SAMPLE     The target material was prepared by burning tungsten
           filament in  an atmosphere of oxygen enriched in 180.
           The oxide was then vacuum  deposited onto about
           10 mu-g/cm2 thick carbon foil and the target  was
           placed at the center of the Oxford multichannel
           magnetic spectrograph.
DETECTOR   (PLATE)The reaction products were momentum analyzed
           under a magnetic field of  strength 10.83 kHz and
           recorded simultaneously in Ilford L4 plates 25 mu-m
           thick over the angles 11.25-86.25 degr. in steps of
           7.5 degr. Particles other than protons were stopped in
           approximately 0.34-mm-thick Mylar foil placed on top
           of each plate. The total beam charge was 3530 mu-C.
           The plates were scanned  at the Nuclear Physics
           Laboratory of the University of Dhaka, Dhaka and the
           energy spectrum is obtained at each angle.
MONITOR    (8-O-18(HE3,EL)8-O-18,,DA)
           (8-O-16(HE3,EL)8-O-16,,DA) The target gas used in this
           experiment was an old sample and the abundance of 18O
           in the gas was rather uncertain. To obtain the
           absolute cross section scale, subsidiary short
           exposures were taken on the elastic scattering of 6
           MeV 3He particles from the same target as used in the
           main experiment. The yields of the elastic groups from
           16,18O at 78.75 and 86.25 degr. (lab.system) were
           measured and were assumed to be in the ratio of the
           abundances of the two isotopes. The yields of the
           levels leading to 18F at E-x =0.0, 0.937, and 1.120 MeV
           arising from the (3He,p) reaction on 160 in the
           main experiment were measured at several angles. The
           absolute cross sections for these levels are already
           known from a previous experiment at the same beam
           energy. Hence the absolute cross section was obtained
           for the 18O(3He,p)20F reaction.
ERR-ANALYS (DATA-ERR)The error in the absolute cross section was
           estimated to be 20%.
HISTORY    (20101006C)LV, SD.
ENDBIB              45
NOCOMMON             0          0
ENDSUBENT           48
SUBENT        D0637002   20101006   20110323   20110307       D074
BIB                  2          2
REACTION   (8-O-18(HE3,P)9-F-20,PAR,DA)
STATUS     (CURVE) data were digitized from figs. 2-6
ENDBIB               2
COMMON               3          3
EN         ANG-ERR-D  ERR-DIG
MEV        ADEG       PER-CENT
 18.0        0.5        0.5
ENDCOMMON            3
DATA                 4        196
E-LVL      ANG-CM     DATA-CM    DATA-ERR
MEV        ADEG       MB/SR      MB/SR
 1.3170     10.614    0.58556E-010.12468E-01
 1.3170     18.043    0.75738E-010.10121E-01
 1.3170     26.253    0.55958E-010.93457E-02
 1.3170     34.371    0.21043E-010.47281E-02
 1.3170     43.036    0.34624E-010.69693E-02
 1.3170     50.559    0.25589E-010.57496E-02
 1.3170     58.930    0.17333E-010.38929E-02
 1.3170     65.856    0.24695E-010.49685E-02
 1.3170     74.064    0.17897E-010.33944E-02
 1.3170     81.153    0.24063E-010.48435E-02
 1.9740     10.647    0.50072E-010.91765E-02
 1.9740     17.868    0.71998E-010.84837E-02
 1.9740     26.243    0.73859E-010.93232E-02
 1.9740     34.760    0.60705E-010.91774E-02
 1.9740     42.271    0.57675E-010.70680E-02
 1.9740     50.275    0.47414E-010.79014E-02
 1.9740     58.444    0.36786E-010.65429E-02
 1.9740     66.361    0.58227E-010.97035E-02
 1.9740     73.633    0.32570E-010.67249E-02
 1.9740     81.481    0.29770E-010.49828E-02
 2.8600     12.317    0.85345E-010.15528E-01
 2.8600     20.082    0.11442    0.81550E-02
 2.8600     28.461    0.49489E-010.67882E-02
 2.8600     37.065    0.39385E-010.63933E-02
 2.8600     46.064    0.54367E-010.74593E-02
 2.8600     53.284    0.58713E-010.10010E-01
 2.8600     61.708    0.44486E-010.70698E-02
 2.8600     69.085    0.37939E-010.64658E-02
 2.8600     77.460    0.15622E-010.39648E-02
 2.8600     85.738    0.17202E-010.33307E-02
 3.1760     11.934    0.12420    0.16614E-01
 3.1760     19.788    0.11838    0.15689E-01
 3.1760     27.468    0.68584E-010.90892E-02
 3.1760     36.343    0.36106E-010.47851E-02
 3.1760     43.346    0.50470E-010.61439E-02
 3.1760     51.202    0.67251E-010.89128E-02
 3.1760     58.885    0.64714E-010.92816E-02
 3.1760     66.907    0.40091E-010.70857E-02
 3.1760     74.248    0.33418E-010.62846E-02
 3.1760     81.756    0.17095E-010.38067E-02
 3.5870     11.985    0.58774
 3.5870     19.847    0.72678
 3.5870     28.370    0.48790
 3.5870     35.691    0.28051
 3.5870     44.230    0.29414
 3.5870     52.265    0.38178
 3.5870     59.761    0.24420
 3.5870     67.949    0.19519
 3.5870     75.277    0.13362
 3.5870     82.955    0.11655
 3.6800     11.920    0.11671    0.18515E-01
 3.6800     20.408    0.18074    0.24746E-01
 3.6800     27.935    0.23846    0.13116E-01
 3.6800     35.878    0.22813    0.15791E-01
 3.6800     43.798    0.18836    0.13063E-01
 3.6800     52.168    0.13969    0.14186E-01
 3.6800     60.009    0.70286E-010.11150E-01
 3.6800     68.270    0.11332    0.12809E-01
 3.6800     75.932    0.80761E-010.10118E-01
 3.6800     83.616    0.65803E-010.10510E-01
 3.7620     11.453    0.15464    0.19587E-01
 3.7620     19.811    0.14116    0.16692E-01
 3.7620     26.329    0.16747    0.11719E-01
 3.7620     35.131    0.97944E-010.13229E-01
 3.7620     43.007    0.10958    0.14684E-01
 3.7620     51.327    0.78538E-010.10525E-01
 3.7620     59.232    0.34710E-010.54171E-02
 3.7620     67.181    0.62382E-010.76787E-02
 3.7620     74.402    0.83900E-010.12168E-01
 3.7620     82.499    0.42867E-010.76624E-02
 4.0820     11.467    0.38562    0.31234E-01
 4.0820     19.850    0.14706    0.18224E-01
 4.0820     27.723    0.88624E-010.14938E-01
 4.0820     35.771    0.99587E-010.13436E-01
 4.0820     44.158    0.61793E-010.10416E-01
 4.0820     52.032    0.47965E-010.77101E-02
 4.0820     59.219    0.25970E-010.55825E-02
 4.0820     67.102    0.59398E-010.93393E-02
 4.0820     75.661    0.42651E-010.76765E-02
 4.2100     11.852    0.21214    0.23883E-01
 4.2100     19.525    0.16192    0.22448E-01
 4.2100     26.876    0.17686    0.24430E-01
 4.2100     35.770    0.21333    0.33207E-01
 4.2100     43.605    0.13611    0.16524E-01
 4.2100     50.773    0.11944    0.16568E-01
 4.2100     58.771    0.65636E-010.11309E-01
 4.2100     66.819    0.91933E-010.70337E-02
 4.2100     75.191    0.93638E-010.13783E-01
 4.2100     82.706    0.89859E-010.12460E-01
 4.2820     11.191    0.13098    0.18897E-01
 4.2820     19.393    0.13460    0.19410E-01
 4.2820     27.081    0.13435    0.15972E-01
 4.2820     35.611    0.11253    0.15293E-01
 4.2820     43.618    0.83052E-010.10579E-01
 4.2820     51.456    0.62507E-010.95322E-02
 4.2820     59.095    0.31871E-010.63939E-02
 4.2820     66.651    0.54345E-010.82857E-02
 4.2820     75.018    0.50664E-010.85576E-02
 4.2820     82.817    0.22322E-010.48005E-02
 4.5160     12.048    0.15038    0.20665E-01
 4.5160     20.125    0.12561    0.14295E-01
 4.5160     28.209    0.10777    0.14809E-01
 4.5160     36.087    0.10576    0.13582E-01
 4.5160     44.421    0.99663E-010.12799E-01
 4.5160     52.635    0.52026E-010.99199E-02
 4.5160     59.764    0.39054E-010.80749E-02
 4.5160     67.708    0.52897E-010.75998E-02
 4.5160     75.562    0.46004E-010.73206E-02
 4.5160     82.740    0.43973E-010.63177E-02
 4.7220     11.920    0.10658    0.16794E-01
 4.7220     19.870    0.76841E-010.98092E-02
 4.7220     27.624    0.11405    0.12599E-01
 4.7220     36.740    0.16750    0.19950E-01
 4.7220     44.516    0.11844    0.16014E-01
 4.7220     52.323    0.97898E-010.11660E-01
 4.7220     60.109    0.72686E-010.86572E-02
 4.7220     67.961    0.75191E-010.10235E-01
 4.7220     76.001    0.84911E-010.87006E-02
 4.7220     83.308    0.74440E-010.92445E-02
 4.7440     12.018    0.24230E-010.55485E-02
 4.7440     27.272    0.35278E-010.64602E-02
 4.7440     36.503    0.39370E-010.43955E-02
 4.7440     44.031    0.44410E-010.70851E-02
 4.7440     51.609    0.27304E-010.45493E-02
 4.7440     59.936    0.23506E-010.39352E-02
 4.7440     67.798    0.25508E-010.46710E-02
 4.7440     75.683    0.13183E-010.22047E-02
 5.2230     10.846    0.48627
 5.2230     19.201    0.31376
 5.2230     27.764    0.25395
 5.2230     35.324    0.24558
 5.2230     43.162    0.15694
 5.2230     52.213    0.10634
 5.2230     59.596    0.99852E-01
 5.2230     67.592    0.58389E-010.93117E-02
 5.2230     75.190    0.72248E-010.12352E-01
 5.2230     82.948    0.82608E-010.10374E-01
 5.4040     10.768    0.21613    0.33012E-01
 5.4040     18.811    0.25205
 5.4040     26.494    0.23718
 5.4040     35.226    0.29321
 5.4040     42.882    0.20391
 5.4040     51.081    0.20145
 5.4040     58.917    0.15595
 5.4040     66.581    0.11841    0.19075E-01
 5.4040     74.801    0.14640    0.19930E-01
 5.4040     82.125    0.11447    0.16533E-01
 5.4450     12.464     1.4403
 5.4450     20.410     2.0059
 5.4450     29.099     1.0740
 5.4450     36.878    0.63219
 5.4450     44.580    0.24854
 5.4450     52.094    0.40692
 5.4450     61.001    0.20366    0.25613E-01
 5.4450     67.919    0.16792    0.17160E-01
 5.4450     75.630    0.69667E-010.10388E-01
 5.4450     82.918    0.11719    0.14754E-01
 5.5430     12.167    0.90153
 5.5430     20.341    0.57507
 5.5430     28.510    0.35980
 5.5430     37.067    0.28664
 5.5430     44.590    0.22630
 5.5430     53.459    0.15145
 5.5430     61.098    0.86878E-010.10266E-01
 5.5430     68.538    0.11343    0.16464E-01
 5.5430     77.119    0.10348    0.13866E-01
 5.5430     83.954    0.81723E-010.10068E-01
 5.6150     12.734    0.41977
 5.6150     21.231    0.26050
 5.6150     29.090    0.20471
 5.6150     38.115    0.13470
 5.6150     45.321    0.12514
 5.6150     53.132    0.78463E-010.98100E-02
 5.6150     61.407    0.86920E-010.10879E-01
 5.6150     69.257    0.65675E-010.10428E-01
 5.6150     77.861    0.67906E-010.10005E-01
 5.6150     85.409    0.62454E-010.74765E-02
 5.7500     12.106     2.7034
 5.7500     28.127     1.6093
 5.7500     36.795    0.79245
 5.7500     43.941    0.51001
 5.7500     51.282    0.49495
 5.7500     59.297    0.41221
 5.7500     67.482    0.34329
 5.7500     75.157    0.29423
 5.7500     82.462    0.15201
 5.7970     11.910     1.9084
 5.7970     19.698    0.39914
 5.7970     27.802     1.0665
 5.7970     35.696     1.4503
 5.7970     44.044    0.68880
 5.7970     52.552    0.26972
 5.7970     60.429    0.26933
 5.7970     67.448    0.26641
 5.7970     75.654    0.20899
 5.7970     83.206    0.28697
ENDDATA            198
ENDSUBENT          209
ENDENTRY             2
