ENTRY            F0928   20080425   20080710   20080516       F031
SUBENT        F0928001   20080425   20080710   20080516       F031
BIB                 11         18
TITLE      A study of some 3He induced reactions on 13C and the
           structure of 16O.
AUTHOR     (H.R.Weller,N.R,Roberson,D.R.Tilley)
INSTITUTE  (1USADKE,1USANCS)
REFERENCE  (J,NP/A,122,529,1968)
FACILITY   (VDG,1USADKE) 4 MeV Van de Graaff accelerator.
INC-SOURCE The doubly ionized 3He beam was used which provided
           0.2 mu-A of 3He particles on target with energies up
           to 8.2 MeV.
MONITOR    The absolute cross sections were obtained from a
           normalization to the data of Holmgren.
MONIT-REF  (,H.D.Holmgren,J,PR,106,100,1957)
SAMPLE     The technique of cracking 60% enriched 13C methyl
           iodide on a thin nickel foil and dissolving the foil in
           acid was used to obtain self-supporting targets of
           about 75 mu-g/cm2 thickness.
ERR-ANALYS (ERR-DIG) Data digitizing error
HISTORY    (20080425C)
ENDBIB              18
NOCOMMON             0          0
ENDSUBENT           21
SUBENT        F0928002   20080425   20080710   20080516       F031
BIB                  4          9
REACTION   (6-C-13(HE3,A)6-C-12,PAR,DA)
DETECTOR   (SIBAR) Four 300 mu-m surface barrier detectors
           mounted in a 30 cm scattering chamber were used.
ERR-ANALYS Carbon build-up on the target introduced an uncertainty
           in the percentage of 13C in the target and resulted in
           an over-all error of approximately 50%
           (ANG-ERR-D) Angle digitizing error
           (ERR-S)     Statistical error
STATUS     (CURVE) Fig.3-5,18
ENDBIB               9
COMMON               2          3
ANG-ERR-D  ERR-DIG
ADEG       PER-CENT
 0.142      0.2
ENDCOMMON            3
DATA                 5        577
E-LVL      EN         ANG-CM     DATA-CM    ERR-S
MEV        MEV        ADEG       MU-B/SR    MU-B/SR
         0.         5.      6.474     550.23     43.595
         0.         5.      11.12      542.1     36.106
         0.         5.     17.688     900.89     71.441
         0.         5.     23.225     646.49     34.646
         0.         5.     23.551     741.88     39.758
         0.         5.     30.682     771.84     41.364
         0.         5.     34.688     644.71     42.895
         0.         5.     39.622     531.03     42.111
         0.         5.     45.801     462.03     36.639
         0.         5.     57.179     228.28     20.977
         0.         5.     67.956     131.26     12.053
         0.         5.      77.81     79.762     8.3254
         0.         5.     87.684     57.179     8.7126
         0.         5.     93.735     220.13     14.647
         0.         5.     98.901     96.232     7.6312
         0.         5.     104.28     238.49     18.896
         0.         5.     107.95     164.29      19.15
         0.         5.     113.56     216.09     32.886
         0.         5.     117.91     234.46     18.593
         0.         5.     128.12     203.79     21.244
         0.         5.     137.01     94.049     10.962
         0.         5.     142.45      29.95     11.197
         0.         5.     146.74     20.915     7.4527
         0.         5.     151.72     25.332     9.6864
         0.         5.     155.61      103.1     14.485
         0.         6.     6.8181     401.05     37.953
         0.         6.     11.166     436.22     35.632
         0.         6.     17.442     813.53     107.71
         0.         6.     23.619     694.72     56.747
         0.         6.     23.975      1005.     55.576
         0.         6.     28.905     811.06     76.692
         0.         6.     29.235     948.12     77.445
         0.         6.       35.1      798.3     65.208
         0.         6.     40.956     626.08     90.463
         0.         6.     46.466     369.64     39.672
         0.         6.     52.049     385.15     60.324
         0.         6.     56.907     176.13     14.387
         0.         6.     63.354     110.04     17.234
         0.         6.     67.918     57.184     6.8655
         0.         6.     72.918     80.302      11.62
         0.         6.     79.176     129.93      15.59
         0.         6.     83.885     210.33      17.18
         0.         6.     89.202      312.6     33.573
         0.         6.     94.505      414.7     33.905
         0.         6.      99.44     349.26     28.502
         0.         6.      104.4     343.88     36.932
         0.         6.     109.32     269.76     28.972
         0.         6.     114.55     199.91     23.973
         0.         6.     119.78     152.42     14.413
         0.         6.     128.38     83.751     11.094
         0.         6.      133.6       55.4       5.95
         0.         6.     142.61     69.368     7.4501
         0.         6.     147.04       137.     16.448
         0.         6.     151.14      259.3     24.558
         0.         6.     156.17     444.23     36.253
         0.         6.     160.82       463.     31.702
         0.         6.     163.34     614.68     58.169
         0.         7.      9.836     58.468     5.3694
         0.         7.     16.705     102.68     13.209
         0.         7.     23.287     218.66     25.489
         0.         7.     28.854      215.4     19.795
         0.         7.     33.791     192.72      17.71
         0.         7.     39.378     227.07     18.008
         0.         7.     44.325     223.71     20.559
         0.         7.     44.653     263.89     17.542
         0.         7.     49.848     282.31     18.766
         0.         7.     50.831     242.63     12.988
         0.         7.     56.054     176.55     11.748
         0.         7.     61.913     149.46     13.745
         0.         7.     66.792     80.338     7.3828
         0.         7.     72.901     40.298     3.7033
         0.         7.     77.919     73.782     6.7804
         0.         7.     82.325     142.76     18.366
         0.         7.     88.232     185.21      17.02
         0.         7.     93.509     218.23     14.507
         0.         7.     99.087     236.74     21.755
         0.         7.     103.71     197.73      18.17
         0.         7.     107.08     150.01     11.896
         0.         7.     112.68     197.33     20.585
         0.         7.     117.61      169.4     15.568
         0.         7.     122.85     145.42     13.364
         0.         7.     127.83     183.57     14.558
         0.         7.     131.83     149.18     13.709
         0.         7.     137.31     73.816     5.8493
         0.         7.     140.94     33.643     1.8031
         0.         7.     145.33     57.506     5.2847
         0.         7.     149.43     119.21     10.955
         0.         7.     154.15     227.48     23.744
         0.         7.     157.94     484.76     38.444
         0.         8.     6.1643     48.431     9.7721
         0.         8.     7.3439     147.39     6.0981
         0.         8.     11.171      87.42     14.627
         0.         8.     16.787     142.96     25.586
         0.         8.     22.404     237.11     16.125
         0.         8.     22.679     166.73     17.767
         0.         8.     27.945      178.7     16.779
         0.         8.     29.186     186.37     15.114
         0.         8.     34.451     196.96     13.417
         0.         8.     35.019     116.95     9.4707
         0.         8.     40.022     202.36     13.761
         0.         8.     44.701     304.18     12.585
         0.         8.      50.58     308.13     20.954
         0.         8.     56.455     299.22     16.392
         0.         8.     61.993     219.24     9.0581
         0.         8.     68.135     137.57     7.5364
         0.         8.     73.335     74.994     9.8448
         0.         8.     77.978     77.065     9.1754
         0.         8.     82.979     131.48     17.268
         0.         8.     88.261     166.88     11.358
         0.         8.     93.564     261.64     14.333
         0.         8.     98.494      214.6     20.149
         0.         8.     103.73     176.01     23.115
         0.         8.     109.26     112.02     10.511
         0.         8.     113.23     69.337     7.3889
         0.         8.     117.94      134.3     12.609
         0.         8.       122.     204.75     11.217
         0.         8.      127.6     271.07     25.436
         0.         8.     132.25     316.21     29.671
         0.         8.     136.25     241.77     22.713
         0.         8.     140.23     169.87     13.766
         0.         8.     146.66     79.292     8.4453
         0.         8.     149.74     71.802     8.5449
         0.         8.     153.91     337.81     31.717
         0.         8.     157.97     500.72      34.08
         0.         8.     161.13     943.19     135.43
       4.43         5.     5.6673     648.04     85.245
       4.43         5.     10.695     858.73      58.47
       4.43         5.     17.271     834.21     67.687
       4.43         5.     22.891     611.28     41.601
       4.43         5.     34.186      856.4     58.311
       4.43         5.     40.144     958.02     65.231
       4.43         5.     45.453     722.12     39.634
       4.43         5.     57.655     567.37     46.036
       4.43         5.     67.973     415.52     22.792
       4.43         5.     78.917     300.03     20.429
       4.43         5.     89.262     349.97     19.196
       4.43         5.     95.503     232.32     24.772
       4.43         5.     99.924     431.88     35.057
       4.43         5.     105.21     235.35     9.7501
       4.43         5.     110.28      588.3      32.27
       4.43         5.     114.98     658.21     44.794
       4.43         5.     119.37     696.05      38.18
       4.43         5.     128.78     811.98     55.259
       4.43         5.     137.22     684.89     55.594
       4.43         5.     142.55     684.47     28.356
       4.43         5.     147.23     530.72     29.093
       4.43         5.       151.     577.33     39.329
       4.43         5.       156.     522.76     28.674
       4.43         5.     162.27     593.08     48.122
       4.43         6.     7.0377     555.35     105.88
       4.43         6.      11.73     990.17     165.85
       4.43         6.     17.679      1173.     196.45
       4.43         6.     24.256      1277.     167.91
       4.43         6.     30.521      1224.     326.46
       4.43         6.      35.85     790.59     141.64
       4.43         6.       41.8     923.38     143.75
       4.43         6.     47.127      768.8     91.635
       4.43         6.     52.455     571.81     128.18
       4.43         6.     59.041     263.32     34.633
       4.43         6.     63.731     580.08     103.93
       4.43         6.     69.368     631.38     98.292
       4.43         6.     74.692     649.52     77.417
       4.43         6.     80.643     677.67      105.5
       4.43         6.     86.282     631.62     90.759
       4.43         6.     91.296     490.08     82.091
       4.43         6.     95.684     374.93     67.169
       4.43         6.     101.32     364.55     61.066
       4.43         6.     105.71     375.01     62.814
       4.43         6.     110.72     450.51     75.461
       4.43         6.     115.41     533.64     107.78
       4.43         6.     121.36     678.29     97.461
       4.43         6.     125.12     748.73     125.41
       4.43         6.     129.82     727.98     104.61
       4.43         6.     134.52      697.9     125.04
       4.43         6.     138.91      450.8     75.506
       4.43         6.     143.92     450.85     64.781
       4.43         6.     147.68      490.7     76.393
       4.43         6.     152.38     483.88     81.049
       4.43         6.     156.76     526.65     88.214
       4.43         6.     160.83     815.48     155.48
       4.43         7.     11.687      336.2     31.212
       4.43         7.      12.93     469.58     37.624
       4.43         7.     16.682     586.85     61.841
       4.43         7.     23.255      693.8     55.612
       4.43         7.     27.334     547.74     29.663
       4.43         7.     34.853     511.14     34.363
       4.43         7.     39.559     397.96     26.755
       4.43         7.     45.828     346.38     27.759
       4.43         7.     51.777     381.96     25.686
       4.43         7.     57.098     427.08     11.733
       4.43         7.     62.733     484.24     51.028
       4.43         7.     67.431     477.68     38.265
       4.43         7.     73.068     505.19      27.35
       4.43         7.      78.71     445.86     12.241
       4.43         7.     83.411     404.58     27.192
       4.43         7.     89.046     458.72     42.594
       4.43         7.     94.688     399.25     21.628
       4.43         7.     99.384     434.14     23.518
       4.43         7.     104.71     377.84     15.453
       4.43         7.     109.71     527.86     35.488
       4.43         7.     113.47     527.98     35.505
       4.43         7.     119.74     543.08     29.411
       4.43         7.      123.8     633.09     34.285
       4.43         7.     128.82     624.52      33.81
       4.43         7.     132.57     748.56     40.538
       4.43         7.     136.64     759.23     31.051
       4.43         7.     141.02     897.48      24.64
       4.43         7.      145.4      1061.     43.388
       4.43         7.      150.1      1203.     16.648
       4.43         7.     154.48      1345.     54.954
       4.43         7.     157.92      1504.     61.491
       4.43         8.     6.0221      1544.     147.48
       4.43         8.      11.03      1210.     83.731
       4.43         8.     16.349     764.48     42.615
       4.43         8.     22.917     373.13      25.82
       4.43         8.     28.862      232.4     9.7871
       4.43         8.     34.495     160.04     17.348
       4.43         8.     40.443     125.39     13.591
       4.43         8.     46.408     332.46     27.409
       4.43         8.     52.045      309.4     25.506
       4.43         8.     57.687     430.24     23.979
       4.43         8.     62.697      372.7     15.699
       4.43         8.     74.597     296.18     16.513
       4.43         8.     79.918     228.76     24.793
       4.43         8.     83.989     203.94     14.112
       4.43         8.     89.627     215.95      9.094
       4.43         8.     94.954     252.81     14.092
       4.43         8.      99.03     331.96      31.71
       4.43         8.     104.67     372.25     30.693
       4.43         8.     109.68     327.13     18.238
       4.43         8.     114.06     228.54     15.814
       4.43         8.     118.45     249.04     13.882
       4.43         8.     122.52     215.74     9.0891
       4.43         8.     127.22     317.72     21.988
       4.43         8.     131.92     429.32     29.712
       4.43         8.     136.94     660.05     63.035
       4.43         8.     140.39     772.77      53.48
       4.43         8.     145.09     931.02     64.424
       4.43         8.     149.79      1000.     55.758
       4.43         8.     154.17      1000.     42.103
       4.43         8.     157.93     891.49     25.216
       4.43         8.     162.63     806.23     55.782
       7.66       5.27     21.685      458.5
       7.66       5.27     33.813      353.5
       7.66       5.27     44.666      303.7
       7.66       5.27     56.796      290.8
       7.66       5.27     67.971      349.5
       7.66       5.27     77.874      613.8
       7.66       5.27     89.684      544.8
       7.66       5.27     98.942      550.6
       7.66       5.27      99.26      510.4
       7.66       5.27     109.47       468.
       7.66       5.27     137.88      296.9
       7.66       5.27     147.78      550.3
       7.66       5.27     155.77      574.6
       7.66       5.27     165.03      713.5
       7.66      5.388     32.907      375.9
       7.66      5.388     44.118      295.2
       7.66      5.388     56.282      264.7
       7.66      5.388     67.142      406.7
       7.66      5.388     77.051      518.4
       7.66      5.388     88.565       579.
       7.66      5.388     98.476      706.2
       7.66      5.388     119.63      353.5
       7.66      5.388     136.91      310.1
       7.66      5.388     145.53      492.5
       7.66      5.388     154.81      514.9
       7.66      5.388     164.05     1242.3
       7.66      5.505     34.489      429.4
       7.66      5.505      45.39      328.7
       7.66      5.505      57.52      329.5
       7.66      5.505     68.382      313.5
       7.66      5.505     78.804      596.6
       7.66      5.505     89.315      683.8
       7.66      5.505     99.883      562.8
       7.66      5.505     110.44      487.9
       7.66      5.505     120.07      354.6
       7.66      5.505     138.29      320.8
       7.66      5.505     146.21      461.5
       7.66      5.505     155.43      551.2
       7.66      5.505     165.33       558.
       7.66       5.62     24.389      963.4
       7.66       5.62     35.708      384.2
       7.66       5.62     46.928      329.5
       7.66       5.62     58.146      285.5
       7.66       5.62     69.964      337.4
       7.66       5.62     80.154      495.5
       7.66       5.62     91.332      585.6
       7.66       5.62      100.9      767.3
       7.66       5.62     101.23      684.8
       7.66       5.62     111.49      618.3
       7.66       5.62     122.74      409.4
       7.66       5.62     130.47      265.4
       7.66       5.62     140.03      366.2
       7.66       5.62     150.21      608.9
       7.66       5.62     158.85      609.6
       7.66       5.62     167.18      544.6
       7.66       5.86     21.554     1101.3
       7.66       5.86     33.438      705.3
       7.66       5.86     45.693      331.5
       7.66       5.86     57.513       315.
       7.66       5.86     68.043      322.4
       7.66       5.86     78.788      625.7
       7.66       5.86     88.989      682.7
       7.66       5.86     98.846      864.8
       7.66       5.86     99.195      721.5
       7.66       5.86     109.44       603.
       7.66       5.86      119.7      467.7
       7.66       5.86     128.72      274.9
       7.66       5.86     137.92      404.2
       7.66       5.86     146.79      613.6
       7.66       5.86      156.9      1117.
       7.66       5.86     163.93     1094.8
       7.66      5.975     21.971     1762.5
       7.66      5.975     34.274       621.
       7.66      5.975     46.184      372.9
       7.66      5.975      57.09      308.3
       7.66      5.975     68.913      347.3
       7.66      5.975     79.109      478.9
       7.66      5.975     88.983      667.6
       7.66      5.975     98.857      930.5
       7.66      5.975     99.518      801.5
       7.66      5.975     109.81      552.7
       7.66      5.975     119.76      433.2
       7.66      5.975     129.11      271.3
       7.66      5.975     137.66      493.6
       7.66      5.975     146.94      510.4
       7.66      5.975     156.43     1089.9
       7.66      5.975     164.93     3037.7
       7.66         6.      23.05     145.59
       7.66         6.     28.617     165.45
       7.66         6.     34.162     261.66     28.278
       7.66         6.     40.859     236.58
       7.66         6.     45.906      149.8
       7.66         6.     51.799     81.447
       7.66         6.     57.132        46.
       7.66         6.     63.066     13.415     4.3696
       7.66         6.     68.579     34.832
       7.66         6.     73.559     61.759
       7.66         6.     77.976     119.68
       7.66         6.     84.113     110.99
       7.66         6.     88.823     173.29
       7.66         6.     93.818     241.32
       7.66         6.     98.838     232.45
       7.66         6.     103.31     199.69
       7.66         6.     108.36     121.71
       7.66         6.      113.4     87.518
       7.66         6.     117.88     61.345
       7.66         6.     122.62     60.609
       7.66         6.     126.79     70.637
       7.66         6.     132.06      110.3
       7.66         6.     136.51     123.74     11.965
       7.66       6.09     22.927     1430.6
       7.66       6.09      34.54      636.1
       7.66       6.09     46.701      518.9
       7.66       6.09     58.243      371.6
       7.66       6.09     68.484       313.
       7.66       6.09     79.929      429.4
       7.66       6.09     90.369      806.3
       7.66       6.09     99.918       971.
       7.66       6.09     99.933      880.8
       7.66       6.09     110.83      651.6
       7.66       6.09     120.46      461.5
       7.66       6.09     138.37      380.9
       7.66       6.09     147.87      621.2
       7.66       6.09     156.46       724.
       7.66       6.09      164.7     1094.2
       7.66       6.21     24.531     1128.8
       7.66       6.21     33.212       888.
       7.66       6.21     46.444      459.2
       7.66       6.21     58.997      299.2
       7.66       6.21     68.293      272.7
       7.66       6.21     80.077      378.5
       7.66       6.21      91.21      559.4
       7.66       6.21     99.794       776.
       7.66       6.21     99.794       776.
       7.66       6.21     99.803      736.3
       7.66       6.21     111.04       598.
       7.66       6.21     120.08      377.3
       7.66       6.21     129.73      270.1
       7.66       6.21     138.01      359.2
       7.66       6.21     147.85      565.3
       7.66       6.21     156.82      537.3
       7.66       6.21       165.     1170.7
       7.66       6.33     34.221      712.9
       7.66       6.33     45.725      652.3
       7.66       6.33     57.925      387.5
       7.66       6.33     68.484      323.7
       7.66       6.33     79.328      347.2
       7.66       6.33     89.177      494.6
       7.66       6.33     99.337      745.8
       7.66       6.33     99.366       601.
       7.66       6.33     110.56      496.4
       7.66       6.33     119.21      405.2
       7.66       6.33     138.04      406.5
       7.66       6.33     147.31      393.5
       7.66       6.33     156.18      642.3
       7.66       6.33     163.86      554.8
       7.66       6.56     22.023     1681.7
       7.66       6.56     33.281     1018.5
       7.66       6.56     45.218      436.2
       7.66       6.56     57.714      377.8
       7.66       6.56     67.974      316.4
       7.66       6.56     79.155      374.8
       7.66       6.56     89.324      694.1
       7.66       6.56      101.5       608.
       7.66       6.56     109.85      465.5
       7.66       6.56     119.48      356.4
       7.66       6.56     129.07      385.9
       7.66       6.56     138.05      337.9
       7.66       6.56     146.33      473.1
       7.66       6.56     155.92      512.3
       7.66       6.56     164.19      784.4
       7.66       6.68     23.636     1287.6
       7.66       6.68     34.854      895.4
       7.66       6.68     57.311      362.9
       7.66       6.68     69.143      308.8
       7.66       6.68     79.337      364.5
       7.66       6.68     89.183      546.5
       7.66       6.68     100.65      678.6
       7.66       6.68       101.      527.5
       7.66       6.68     111.86      477.9
       7.66       6.68     120.54      296.5
       7.66       6.68     129.16      308.5
       7.66       6.68     139.04      350.6
       7.66       6.68     147.64      403.4
       7.66       6.68     156.58      379.4
       7.66       6.68     163.86       629.
       7.66      6.797     24.016      1808.
       7.66      6.797     33.963     1265.1
       7.66      6.797     46.792      865.2
       7.66      6.797     57.087      423.2
       7.66      6.797     69.585      336.3
       7.66      6.797     79.809      409.7
       7.66      6.797     90.972      666.3
       7.66      6.797     101.21      706.6
       7.66      6.797     101.53      659.3
       7.66      6.797      111.8      477.6
       7.66      6.797     121.43      326.6
       7.66      6.797     130.39      323.1
       7.66      6.797     138.35      501.6
       7.66      6.797     148.27      550.7
       7.66      6.797      156.9      577.2
       7.66      6.797     165.87      508.8
       7.66      6.915     22.951     1806.8
       7.66      6.915      33.89      925.7
       7.66      6.915     45.421      682.4
       7.66      6.915     70.085      354.4
       7.66      6.915     79.639      425.7
       7.66      6.915     89.489      606.5
       7.66      6.915     100.33      650.4
       7.66      6.915     101.01      500.9
       7.66      6.915     111.22      519.1
       7.66      6.915     119.25      333.7
       7.66      6.915     129.13      387.4
       7.66      6.915     138.08      358.3
       7.66      6.915      147.3      493.3
       7.66      6.915     150.17      493.5
       7.66      6.915     155.64      351.3
       7.66      6.915     164.87      431.7
       7.66         7.      11.92     177.25     29.583
       7.66         7.     14.717     159.78     21.357
       7.66         7.     17.486     196.95     21.799
       7.66         7.     23.601     236.68     14.938
       7.66         7.     23.894     202.41
       7.66         7.     29.205     171.02      16.95
       7.66         7.     30.569     240.11     23.785
       7.66         7.     35.029     240.32     12.226
       7.66         7.     35.881     200.25     17.469
       7.66         7.      41.45     213.98     18.666
       7.66         7.     47.325     169.41      18.75
       7.66         7.     52.374     119.25     10.409
       7.66         7.     58.586     48.556     6.4904
       7.66         7.     64.187     36.487     9.0993
       7.66         7.     69.746     43.274     5.7823
       7.66         7.     75.328     40.061     4.4379
       7.66         7.     80.249     118.35     17.143
       7.66         7.     85.535      131.5     14.555
       7.66         7.     91.087     170.87     20.897
       7.66         7.      95.54     184.93     26.778
       7.66         7.     100.84     182.73     13.751
       7.66         7.     105.87     160.55     17.777
       7.66         7.     111.19     117.53     11.648
       7.66         7.     114.86     68.908     9.2043
       7.66         7.     119.67     31.957      3.537
       7.66         7.       125.     20.534     3.2008
       7.66         7.     128.88     26.327     2.9152
       7.66         7.     133.82     68.268     6.7659
       7.66         7.     137.96     110.69     10.965
       7.66         7.     142.39     149.53      18.28
       7.66       7.03     32.899     1236.5
       7.66       7.03     46.757      626.2
       7.66       7.03     57.703      395.1
       7.66       7.03     68.287      334.6
       7.66       7.03     79.759      464.1
       7.66       7.03     90.598      617.3
       7.66       7.03      100.5      686.7
       7.66       7.03     101.17      562.6
       7.66       7.03     111.74      512.7
       7.66       7.03     120.44      355.5
       7.66       7.03     130.69      334.3
       7.66       7.03     146.28      622.7
       7.66       7.03     155.87      636.9
       7.66       7.03     156.24      450.4
       7.66       7.03     164.23      506.1
       7.66       7.15     33.312     2163.9
       7.66       7.15      46.27       784.
       7.66       7.15      57.89      397.2
       7.66       7.15     69.105      317.2
       7.66       7.15     79.899      435.2
       7.66       7.15     90.738      470.6
       7.66       7.15     100.58      631.8
       7.66       7.15     100.91      592.1
       7.66       7.15     111.49      472.7
       7.66       7.15     120.46      389.8
       7.66       7.15      130.7       343.
       7.66       7.15     139.57      496.7
       7.66       7.15     148.16      572.8
       7.66       7.15     156.11       675.
       7.66       7.15      164.8      467.9
       7.66      7.267     47.866      693.7
       7.66      7.267     57.893      363.8
       7.66      7.267      69.76      307.5
       7.66      7.267     80.308      329.9
       7.66      7.267     92.402      492.3
       7.66      7.267     101.66      565.3
       7.66      7.267     101.99      528.1
       7.66      7.267     111.92      488.7
       7.66      7.267     131.52      311.5
       7.66      7.267     139.83      322.9
       7.66      7.267     147.78      429.6
       7.66      7.267     157.64      626.4
       7.66      7.267     166.02      451.3
       7.66      7.385     46.319      580.8
       7.66      7.385     56.299      354.1
       7.66      7.385     67.477       344.
       7.66      7.385     79.287      344.7
       7.66      7.385     90.406       476.
       7.66      7.385     99.975      496.9
       7.66      7.385      100.3      467.1
       7.66      7.385     109.55      508.2
       7.66      7.385      119.8      418.3
       7.66      7.385     129.75      297.9
       7.66      7.385     138.32      390.4
       7.66      7.385     145.95       466.
       7.66      7.385     155.53      481.5
       7.66      7.385     163.84      439.4
       7.66         8.     8.0566     645.49     93.307
       7.66         8.     12.805     582.24     43.724
       7.66         8.     19.249     404.99     35.255
       7.66         8.     23.973     473.87     18.165
       7.66         8.     24.834     365.36     27.437
       7.66         8.     30.977     325.39     28.342
       7.66         8.     31.737     211.79     20.936
       7.66         8.     36.878     193.59     19.147
       7.66         8.     37.191     132.75      13.13
       7.66         8.      42.52     93.528     11.415
       7.66         8.     53.759     35.328     7.0118
       7.66         8.     59.032     45.284      6.548
       7.66         8.     64.918     31.907     7.6297
       7.66         8.     70.537     19.738     4.9131
       7.66         8.     75.828     20.814     5.9747
       7.66         8.     80.854     19.022     5.8084
       7.66         8.     86.647     36.977     8.1003
       7.66         8.     91.748     14.888     5.1975
       7.66         8.     97.352     10.766     3.5746
       7.66         8.     101.68     45.081     7.9929
       7.66         8.     106.66     67.546     13.406
       7.66         8.     111.35     115.26     17.936
       7.66         8.     117.21      113.9     13.902
       7.66         8.      121.4     102.73     13.694
       7.66         8.     125.87     89.111     14.839
       7.66         8.     130.98     31.501
       7.66         8.     131.23     42.493     7.9896
       7.66         8.     134.93      19.48     6.4658
       7.66         8.     139.94     19.755     5.8519
       7.66         8.     143.82     27.729     7.9595
ENDDATA            579
ENDSUBENT          597
SUBENT        F0928003   20080425   20080710   20080516       F031
BIB                  4          9
REACTION   (6-C-13(HE3,A)6-C-12,PAR,DA,,REL)
DETECTOR   (SIBAR) Four 300 mu-m surface barrier detectors
           mounted in a 30 cm scattering chamber were used.
ERR-ANALYS Carbon build-up on the target introduced an uncertainty
           in the percentage of 13C in the target and resulted in
           an over-all error of approximately 50%
           (EN-ERR-DIG) Energy digitizing error
           (DATA-ERR)   Error from the graphic bars
STATUS     (CURVE) Fig.6,11,12
ENDBIB               9
COMMON               2          3
EN-ERR-DIG ERR-DIG
MEV        ARB-UNITS
 0.001      0.526
ENDCOMMON            3
DATA                 5        464
E-LVL      ANG        EN         DATA       DATA-ERR
MEV        ADEG       MEV        ARB-UNITS  ARB-UNITS
         0.        30.     4.4819     291.94
         0.        30.     4.5113     299.63
         0.        30.     4.5332     313.05
         0.        30.     4.5775     307.35
         0.        30.     4.6068     315.04
         0.        30.     4.6288      320.8
         0.        30.     4.6581     338.06
         0.        30.     4.6871     364.88
         0.        30.     4.7387     364.93
         0.        30.     4.8039     435.81
         0.        30.     4.8335     426.27
         0.        30.     4.8775     443.54     22.964
         0.        30.     4.9439     437.87
         0.        30.     4.9578     457.05
         0.        30.     4.9651      495.3
         0.        30.     5.0466      468.6
         0.        30.     5.0836     459.07
         0.        30.     5.0928     476.32
         0.        30.     5.1115     459.19
         0.        30.     5.1222     443.85
         0.        30.     5.1361     397.89
         0.        30.     5.2245     397.98
         0.        30.     5.2537     417.15
         0.        30.     5.2831     426.75
         0.        30.     5.3131     357.92
         0.        30.     5.3287     336.85
         0.        30.     5.3622     350.32
         0.        30.     5.3693     333.14
         0.        30.     5.3739     275.66
         0.        30.      5.462     292.98
         0.        30.     5.5063     285.37
         0.        30.      5.514     266.24
         0.        30.     5.5651     298.83
         0.        30.     5.5941     331.39
         0.        30.     5.6095     283.56
         0.        30.     5.6538     277.87
         0.        30.     5.6762      264.5
         0.        30.     5.6985     251.13
         0.        30.     5.7421     287.53
         0.        30.     5.7509     299.08
         0.        30.      5.764     302.86
         0.        30.     5.8216     387.13
         0.        30.     5.8652     425.45
         0.        30.     5.8862     496.28
         0.        30.     5.9228     517.37
         0.        30.     5.9524     509.74
         0.        30.     5.9893     505.96
         0.        30.     6.0035     536.59
         0.        30.     6.0766     576.85
         0.        30.     6.0838     588.34
         0.        30.     6.1224     611.37
         0.        30.     6.1345     641.98     11.482
         0.        30.     6.1937     624.82
         0.        30.     6.2086     615.27
         0.        30.     6.2528     617.23     24.878
         0.        30.     6.2973     601.97
         0.        30.     6.3015     602.01
         0.        30.     6.3228     584.73
         0.        30.     6.3714     573.34
         0.        30.     6.4011     559.97
         0.        30.     6.4137     496.88
         0.        30.     6.4243     491.11
         0.        30.     6.4907     483.52
         0.        30.     6.5129      477.8
         0.        30.     6.5507     420.43
         0.        30.     6.6322     387.99
         0.        30.     6.6543     357.42
         0.        30.     6.6851     340.17
         0.        30.     6.7103     344.13
         0.        30.     6.7219      307.7
         0.        30.     6.8109     271.44
         0.        30.     6.8405     263.81
         0.        30.     6.8597     250.48
         0.        30.     6.8703     244.71
         0.        30.     6.9664     227.59
         0.        30.     6.9705     229.55
         0.        30.     6.9798     208.41
         0.        30.     6.9887     210.39
         0.        30.     7.0405     200.87
         0.        30.     7.0846     206.66     22.964
         0.        30.     7.1363     199.06
         0.        30.     7.1659     193.35
         0.        30.     7.1881     185.72
         0.        30.      7.225     181.93
         0.        30.     7.2473     166.65
         0.        30.     7.3067     143.74
         0.        30.      7.336     155.26
         0.        30.     7.3651     176.34
         0.        30.     7.3948     164.89
         0.        30.     7.4244     155.35
         0.        30.     7.4834      153.5
         0.        30.     7.5124     184.15
         0.        30.     7.5347     170.78
         0.        30.      7.579     165.08
         0.        30.     7.6084     170.85
         0.        30.     7.6376     190.02
         0.        30.     7.6594     203.44
         0.        30.     7.6892     184.34
         0.        30.     7.7118     155.65
         0.        30.     7.7413     155.69
         0.        30.     7.7855     155.73
         0.        30.     7.8077     146.19
         0.        30.     7.8448     134.74
         0.        30.     7.8665     155.82
         0.        30.     7.8962     144.37
         0.        30.     7.9332     132.92
         0.        30.     7.9774      136.8
         0.        30.      8.007     125.35
         0.       150.     4.8251     3.6536
         0.       150.     4.8428     5.9771
         0.       150.      4.891     8.6444
         0.       150.     4.9056     10.179
         0.       150.     5.0166     5.2285
         0.       150.     5.0234     5.2369
         0.       150.      5.031     9.0593     6.1239
         0.       150.     5.0357     15.945
         0.       150.     5.0415     15.935
         0.       150.     5.0531     21.649
         0.       150.     5.0741     22.083
         0.       150.     5.0971     11.754
         0.       150.     5.1265     12.526
         0.       150.     5.1484     15.593
         0.       150.     5.1852     15.601
         0.       150.     5.2036     15.622
         0.       150.     5.2126      14.87
         0.       150.     5.2226     20.987
         0.       150.     5.2241      22.88
         0.       150.     5.2435     22.887
         0.       150.     5.3759     26.362
         0.       150.      5.386     25.246
         0.       150.     5.3903     30.576
         0.       150.     5.4271     30.584
         0.       150.      5.436     31.363
         0.       150.     5.4464     32.888
         0.       150.     5.4563     34.036
         0.       150.     5.4918     37.535
         0.       150.     5.5442     39.797
         0.       150.     5.6027     45.552
         0.       150.     5.6176     50.174
         0.       150.     5.6214     52.457
         0.       150.     5.6225     53.966
         0.       150.     5.6387     55.894
         0.       150.      5.749     57.834
         0.       150.     5.7852      54.06
         0.       150.     5.8037       59.4
         0.       150.      5.818     63.964
         0.       150.     5.8442      65.51
         0.       150.     5.8737     65.517
         0.       150.     5.9208      68.23
         0.       150.     5.9322     70.124
         0.       150.     5.9438      76.22
         0.       150.     5.9609     79.316
         0.       150.     6.0791     76.281
         0.       150.     6.1678     72.857
         0.       150.     6.1765     81.667
         0.       150.     6.1807      82.41     10.717
         0.       150.     6.1889     84.312
         0.       150.     6.2323     93.923
         0.       150.      6.254     99.287     10.334
         0.       150.      6.284     93.552
         0.       150.     6.3208     93.561
         0.       150.     6.3514     80.554
         0.       150.     6.4096     89.753
         0.       150.     6.4616     84.024
         0.       150.     6.4978     91.687     9.9514
         0.       150.     6.5212     77.148
         0.       150.     6.5425     86.722
         0.       150.     6.5792     88.261
         0.       150.     6.6465     76.794
         0.       150.     6.6983      74.51
         0.       150.      6.786      82.95
         0.       150.     6.8378     79.517
         0.       150.     6.8538     71.859
         0.       150.     6.9049     70.729
         0.       150.     6.9635     75.336
         0.       150.     6.9945     57.354
         0.       150.     7.0193     68.858
         0.       150.     7.0319     51.238
         0.       150.      7.112     61.974
         0.       150.     7.1422     53.943
         0.       150.     7.1645     51.269
         0.       150.      7.194      50.51
         0.       150.      7.231      49.37
         0.       150.     7.2608     45.167
         0.       150.     7.3189     55.897
         0.       150.     7.3415     49.396
         0.       150.     7.3858     49.023
         0.       150.     7.4074     54.004
         0.       150.     7.4155     58.617
         0.       150.      7.438      41.38
         0.       150.     7.4672     45.214
         0.       150.     7.5334     46.378
         0.       150.     7.5924     46.008
         0.       150.     7.6221     42.953
         0.       150.     7.6401     48.332
         0.       150.     7.6727     54.447
         0.       150.     7.7019     57.899
         0.       150.     7.7469     49.106
         0.       150.     7.7554     47.212
         0.       150.     7.7679     56.007
         0.       150.     7.7882     58.297
         0.       150.     7.8491     59.846
         0.       150.     7.8865     53.731
         0.       150.     7.9151     51.837
         0.       150.     7.9302     59.099
         0.       150.     7.9375     60.249
         0.       150.     7.9818     59.877
         0.       150.     8.0036     62.944
       4.44        90.     2.2603      107.6
       4.44        90.     2.2966     101.96
       4.44        90.       2.34     115.18
       4.44        90.     2.3761     132.17
       4.44        90.     2.4195     154.83
       4.44        90.     2.4628      190.7
       4.44        90.     2.4918     175.61
       4.44        90.     2.5425     192.61
       4.44        90.     2.5786     205.83
       4.44        90.     2.5911     194.54
       4.44        90.     2.6147     234.15
       4.44        90.     2.7018     215.31
       4.44        90.     2.7308       204.
       4.44        90.      2.767     209.68
       4.44        90.     2.8104     221.01
       4.44        90.     2.8538     232.35
       4.44        90.     2.8972     260.67
       4.44        90.     2.9262     255.02
       4.44        90.     2.9769      260.7
       4.44        90.     3.0203     273.92
       4.44        90.     3.0563     306.01
       4.44        90.     3.0927     281.49
       4.44        90.     3.1434      283.4
       4.44        90.     3.1796     302.28
       4.44        90.     3.2156      343.8
       4.44        90.     3.2591     340.05
       4.44        90.     3.2879     364.58
       4.44        90.     3.3387     355.17
       4.44        90.     3.3747     404.24     22.642
       4.44        90.     3.4252     430.67
       4.44        90.     3.4545     381.63
       4.44        90.     3.5415       376.
       4.44        90.      3.585     366.58
       4.44        90.     3.6213      351.5
       4.44        90.     3.6722     326.99
       4.44        90.     3.6992     319.47
       4.44        90.     3.7027     306.28
       4.44        90.     3.7158     294.93
       4.44        90.     3.7594     279.85
       4.44        90.     3.8029     279.87
       4.44        90.     3.8318     289.31
       4.44        90.     3.8392     266.67
       4.44        90.     3.8826     272.35
       4.44        90.     3.9189     253.49
       4.44        90.     3.9552     255.39
       4.44        90.     3.9915     244.09
       4.44        90.      4.014     230.91
       4.44        90.     4.0351      215.8
       4.44        90.      4.122     217.72
       4.44        90.      4.151     223.39
       4.44        90.     4.1944     230.95
       4.44        90.     4.2236     198.89
       4.44        90.     4.2599     181.92
       4.44        90.     4.3108     161.19
       4.44        90.     4.3468     185.73
       4.44        90.     4.3903     187.63
       4.44        90.     4.4265      193.3
       4.44        90.     4.4702     157.47
       4.44        90.     4.5062     195.22
       4.44        90.     4.5569     202.79
       4.44        90.     4.5642     197.13
       4.44        90.     4.5858     217.89
       4.44        90.     4.6292     234.89
       4.44        90.     4.6654     238.67
       4.44        90.     4.7016      236.8
       4.44        90.     4.7452     217.95
       4.44        90.     4.7886     242.49
       4.44        90.     4.8466     233.08
       4.44        90.      4.861     246.29
       4.44        90.     4.9045     238.76
       4.44        90.     4.9408     240.66
       4.44        90.      4.977     235.01
       4.44        90.     5.0113     221.84
       4.44        90.     5.0204     257.67
       4.44        90.        5.1     269.02
       4.44        90.     5.1507     284.14
       4.44        90.     5.1942     265.28
       4.44        90.     5.2232     269.07
       4.44        90.     5.2522     269.08
       4.44        90.     5.3101     286.08     22.642
       4.44        90.     5.3392     265.34
       4.44        90.     5.3899     269.13
       4.44        90.     5.4264      218.2
       4.44        90.     5.4625      248.4
       4.44        90.     5.4913     276.71
       4.44        90.     5.5493     272.96
       4.44        90.     5.5784     242.78
       4.44        90.     5.6146     254.12
       4.44        90.     5.6581     248.47
       4.44        90.     5.7017     227.73
       4.44        90.      5.745     257.94
       4.44        90.     5.7814     233.42
       4.44        90.     5.8248     244.76
       4.44        90.     5.8537     265.53
       4.44        90.     5.8974     225.92
       4.44        90.     5.9337      201.4
       4.44        90.     5.9842     248.59
       4.44        90.     5.9988     227.84
       4.44        90.     6.0568     227.86
       4.44        90.      6.093     225.99
       4.44        90.     6.1294     188.27
       4.44        90.     6.1656     210.92
       4.44        90.     6.2164     186.41
       4.44        90.     6.2525     212.84
       4.44        90.     6.2888     199.65
       4.44        90.     6.3323       194.
       4.44        90.     6.3829     220.44
       4.44        90.     6.4045     237.43
       4.44        90.      6.448     246.88
       4.44        90.     6.4914     256.33
       4.44        90.     6.5205     241.24
       4.44        90.     6.5784      250.7
       4.44        90.     6.6145     279.01
       4.44        90.     6.6433     299.78
       4.44        90.     6.7305     267.73
       4.44        90.      6.744     316.78
       4.44        90.     6.7737     318.69
       4.44        90.       6.81     299.84
       4.44        90.     6.8413      324.4
       4.44        90.     6.8569     303.64
       4.44        90.      6.868     290.43
       4.44        90.      6.926     288.56
       4.44        90.      6.955     288.57
       4.44        90.     6.9839      299.9
       4.44        90.     7.0056     305.57
       4.44        90.     7.0113     277.26
       4.44        90.     7.0274     294.26
       4.44        90.     7.0564     288.61
       4.44        90.     7.0565     271.63
       4.44        90.     7.0927     290.51
       4.44        90.     7.1072     279.19
       4.44        90.     7.1151     294.31
       4.44        90.     7.1208       266.
       4.44        90.      7.129     262.22
       4.44        90.     7.1871     241.49
       4.44        90.     7.2234     230.18
       7.65        30.     4.0599     119.84
       7.65        30.     4.1005     111.38
       7.65        30.     4.1343     130.02
       7.65        30.     4.1484     114.78
       7.65        30.     4.1613     143.58
       7.65        30.     4.2493     140.21
       7.65        30.     4.2763     162.24
       7.65        30.     4.3101     155.47
       7.65        30.      4.344     119.88
       7.65        30.      4.362     101.25
       7.65        30.     4.3982      87.69
       7.65        30.     4.4321      50.41
       7.65        30.     4.4659     77.531
       7.65        30.     4.4997     72.451
       7.65        30.     4.5268     80.929
       7.65        30.     4.5877     69.074
       7.65        30.     4.6486     89.419
       7.65        30.     4.6756     75.865
       7.65        30.     4.7298     47.062
       7.65        30.     4.7636     65.709
       7.65        30.     4.7907     69.102
       7.65        30.     4.8245     67.412
       7.65        30.     4.8516     47.079
       7.65        30.     4.8854     65.726
       7.65        30.     4.9192     58.951
       7.65        30.     4.9464     40.313
       7.65        30.      4.987     38.624
       7.65        30.     4.9937     47.098
       7.65        30.     5.0343     53.883
       7.65        30.     5.0614     38.634
       7.65        30.     5.0885     31.859
       7.65        30.     5.1155     19.999
       7.65        30.     5.1493     48.815
       7.65        30.     5.1832     36.956
       7.65        30.     5.2102     47.128
       7.65        30.     5.2349     48.836
       7.65        30.      5.244      67.47
       7.65        30.      5.271     79.337
       7.65        30.     5.3319     86.125
       7.65        30.     5.3657     87.824
       7.65        30.     5.3928     77.659
       7.65        30.     5.4131     62.409
       7.65        30.     5.4537     65.804
       7.65        30.     5.4808     45.471
       7.65        30.     5.5146     79.371
       7.65        30.     5.5417     47.174
       7.65        30.     5.5552     60.734
       7.65        30.     5.6026      64.13
       7.65        30.     5.6296     79.387
       7.65        30.     5.6905     76.006
       7.65        30.     5.7081     84.489
       7.65        30.     5.7101      108.2
       7.65        30.     5.7243      111.6
       7.65        30.     5.7919     98.052
       7.65        30.      5.819     109.92
       7.65        30.     5.8392     133.65
       7.65        30.     5.8798     133.65
       7.65        30.     5.9069     143.83
       7.65        30.     5.9339     137.05
       7.65        30.     5.9745     142.14
       7.65        30.     6.0286     148.93
       7.65        30.     6.0692     162.49
       7.65        30.     6.1166     150.63
       7.65        30.     6.1436     177.75
       7.65        30.     6.1841      196.4     13.558
       7.65        30.      6.191     169.29
       7.65        30.     6.2315     179.46
       7.65        30.     6.2722     165.91
       7.65        30.     6.2992     179.47
       7.65        30.     6.3262     194.73
       7.65        30.     6.3533     208.29
       7.65        30.     6.3803     201.51
       7.65        30.     6.4209     203.21
       7.65        30.      6.448     193.05
       7.65        30.     6.4886     206.61
       7.65        30.     6.5089     201.53
       7.65        30.     6.5968     201.54
       7.65        30.     6.6171     211.72
       7.65        30.     6.6645     216.81
       7.65        30.     6.7051     218.51
       7.65        30.     6.7457     216.82
       7.65        30.     6.7863     186.32
       7.65        30.     6.8201     223.61
       7.65        30.     6.8539       227.
       7.65        30.     6.8742     216.84     10.169
       7.65        30.     6.9013      196.5
       7.65        30.     6.9352     181.25
       7.65        30.     6.9622     216.85
       7.65        30.     6.9893     198.21
       7.65        30.     7.0163     188.04
       7.65        30.     7.0569     194.83
       7.65        30.     7.0839     213.47
       7.65        30.     7.1245     225.34
       7.65        30.     7.1381     210.09
       7.65        30.     7.1719     218.57
       7.65        30.     7.2328     230.44
       7.65        30.     7.2599     208.41
       7.65        30.     7.3005     194.86
       7.65        30.      7.341     213.51
       7.65        30.     7.3546     191.48
       7.65        30.     7.3817     176.23
       7.65        30.     7.4291     172.85
       7.65        30.     7.4493     227.08
       7.65        30.     7.4832     188.11
       7.65        30.     7.5012     169.48
       7.65        30.     7.5374     138.97
       7.65        30.     7.5983     155.92
       7.65        30.     7.6389     161.01
       7.65        30.     7.6727      133.9
       7.65        30.      7.693     166.11
       7.65        30.     7.7336     150.86
       7.65        30.     7.7471     167.81
       7.65        30.     7.7809     161.03
       7.65        30.     7.8216     132.23
       7.65        30.     7.8419     145.79
       7.65        30.     7.8825      145.8
       7.65        30.     7.9028     135.63
       7.65        30.     7.9704     135.64
       7.65        30.     7.9907     142.42
       7.65        30.     8.0246     139.04
ENDDATA            466
ENDSUBENT          484
SUBENT        F0928004   20080425   20080710   20080516       F031
BIB                  4          8
REACTION   (6-C-13(HE3,P)7-N-15,PAR,DA,,REL)
DETECTOR   (SILI) 2 mm lithium-drifted silicon detectors were used
ERR-ANALYS Carbon build-up on the target introduced an uncertainty
           in the percentage of 13C in the target and resulted in
           an over-all error of approximately 50%
           (EN-ERR-DIG) Energy digitizing error
           (DATA-ERR) Error from the graphic bars
STATUS     (CURVE) Fig.11
ENDBIB               8
COMMON               3          3
E-LVL      EN-ERR-DIG ERR-DIG
MEV        MEV        ARB-UNITS
 0.         0.003       1.597
ENDCOMMON            3
DATA                 4        231
ANG        EN         DATA       DATA-ERR
ADEG       MEV        ARB-UNITS  ARB-UNITS
        30.     4.0609     668.82
        30.      4.088     658.68
        30.     4.1286     662.07
        30.     4.1488     682.38
        30.     4.1826     726.38
        30.     4.2096     790.69
        30.     4.2367     814.38
        30.     4.2636     885.45
        30.     4.2907     895.61
        30.     4.3313     926.08
        30.     4.3921  1.011E+03
        30.     4.4123  1.051E+03
        30.      4.427  1.092E+03
        30.     4.4461  1.099E+03
        30.     4.4799  1.143E+03
        30.     4.5339  1.200E+03
        30.     4.5677  1.214E+03
        30.     4.5881  1.150E+03
        30.      4.622  1.129E+03
        30.     4.6558  1.112E+03
        30.     4.7574  1.051E+03
        30.     4.7953  1.068E+03
        30.     4.8047  1.079E+03
        30.     4.8276  1.092E+03
        30.     4.8723  1.133E+03
        30.     4.9061  1.160E+03
        30.     4.9332  1.150E+03
        30.     4.9549  1.153E+03
        30.     4.9676  1.126E+03
        30.     4.9867  1.109E+03
        30.     5.0009  1.099E+03
        30.     5.0753  1.055E+03
        30.     5.1159  1.075E+03
        30.     5.1701  1.055E+03
        30.     5.1972  1.018E+03
        30.     5.2081  1.004E+03
        30.      5.231     994.01
        30.     5.2853     895.88
        30.     5.3191     895.89
        30.       5.38     899.29
        30.     5.4138     912.84
        30.     5.4341     872.24
        30.     5.5018     892.56
        30.     5.5288     875.64
        30.     5.5628     797.82
        30.     5.5966     774.14
        30.     5.6237     767.38
        30.     5.6508     760.62
        30.     5.6778     804.62
        30.     5.7116     804.63
        30.     5.7454     831.71
        30.     5.7792     831.72
        30.     5.7996      794.5
        30.     5.8335     713.29
        30.     5.8673     696.38
        30.     5.8944      672.7
        30.     5.9215      652.4
        30.     5.9553     682.87      33.84
        30.     6.0094     716.72
        30.     6.0297     699.81
        30.     6.0703     693.05
        30.     6.0906     706.59
        30.     6.1312     730.29     30.456
        30.     6.1718     679.54
        30.     6.1989      649.1
        30.     6.2098     649.11
        30.      6.226     615.26     30.456
        30.     6.2801     594.97
        30.      6.314     605.13
        30.     6.3545      615.3
        30.     6.3749     598.38
        30.      6.402     561.17
        30.     6.4358     540.87
        30.     6.4764      537.5
        30.     6.5035     510.43
        30.     6.5306     490.14
        30.     6.5576     513.83
        30.     6.5847     530.76
        30.     6.6186     473.24
        30.     6.6457     449.56
        30.     6.6794     480.02
        30.     6.7065     449.57
        30.     6.7268      466.5
        30.      6.781     463.13
        30.     6.8012     476.67
        30.     6.8351     486.83
        30.     6.8554       453.
        30.     6.8892     446.24
        30.     6.9298     446.25
        30.     6.9568      480.1
        30.     7.0178     436.12
        30.     7.0516     453.05
        30.     7.0719     419.22
        30.      7.099     419.22
        30.     7.1328       426.
        30.     7.1531      449.7
        30.     7.2072     432.79
        30.     7.2343     436.18
        30.     7.2817     412.51
        30.     7.3155     395.59
        30.     7.3155     412.51
        30.     7.3493     419.29
        30.     7.3832     412.53
        30.     7.4034     426.07
        30.     7.4441     412.55
        30.     7.4779     409.17
        30.     7.4982     392.26
        30.     7.5523     412.58
        30.     7.5929     382.13
        30.       7.62     399.06
        30.     7.6309     395.69
        30.     7.6471     338.16
        30.      7.708     328.02
        30.     7.7418      355.1
        30.     7.7689     368.64
        30.     7.8095     334.82
        30.     7.8366     324.67
        30.     7.8569     287.45
        30.     7.8839       301.
        30.     7.9043     294.23
        30.     7.9313     284.09
        30.     7.9449     267.17
        30.     7.9787     287.48
        30.     8.0057     311.18
       150.     4.6027     235.83
       150.     4.6365     251.09
       150.     4.6507     223.99
       150.     4.6769     218.89
       150.     4.7246     196.88
       150.     4.8125     205.37
       150.     4.8397     169.78
       150.     4.8735     183.35
       150.     4.8944     190.15
       150.     4.9006     179.97
       150.     4.9548     149.47
       150.     4.9954     156.26
       150.     5.0293     144.41
       150.     5.0496     134.24
       150.     5.0833     181.71
       150.     5.1172     146.12
       150.     5.1511     132.57
       150.     5.1713      156.3
       150.     5.1916     149.53
       150.     5.2255     147.84
       150.     5.2661     142.77
       150.     5.2932     135.99
       150.     5.3134     163.12
       150.      5.354     154.65
       150.     5.3878     164.83
       150.     5.4148     169.92
       150.     5.4352     141.11
       150.     5.4598     112.32
       150.     5.4826     144.51
       150.     5.5299     163.17
       150.     5.5637      156.4
       150.     5.5908     161.49
       150.     5.6314     153.02
       150.     5.6518     137.77
       150.     5.6855     149.65
       150.     5.6932     151.36
       150.     5.7193     175.08
       150.     5.7734     176.79
       150.      5.814     171.71
       150.     5.8276     151.37
       150.     5.8682      146.3
       150.     5.9292     129.36
       150.     5.9562     151.41
       150.      5.962     159.87
       150.     5.9763     181.92
       150.     6.0102     168.37
       150.      6.044     173.46
       150.     6.0778     176.86     20.339
       150.     6.0982     168.39
       150.      6.132     171.79
       150.     6.1659     153.15
       150.     6.1929     166.72
       150.     6.2334     181.98
       150.     6.2477     151.48
       150.     6.2671     144.69
       150.     6.3081     127.76
       150.     6.3419     122.68
       150.     6.3757     122.69
       150.     6.4028     112.53
       150.     6.4434     112.54
       150.     6.4638     87.119
       150.     6.4842     75.259
       150.     6.5248     76.964
       150.     6.5856     83.758
       150.     6.6262     80.378
       150.     6.6398     65.127
       150.     6.6871     75.307
       150.     6.7074     80.397
       150.     6.7413     80.405
       150.     6.7547     102.44
       150.     6.7953     99.062
       150.     6.8359     107.55
       150.      6.863     82.129
       150.       6.89     104.17
       150.     6.9239     94.008
       150.     6.9509     94.014
       150.      6.978      102.5
       150.     7.0051     95.722
       150.     7.0456     97.427
       150.     7.0728     85.569
       150.     7.1066     92.356
       150.     7.1268     109.31
       150.     7.1509     105.93
       150.     7.1607     87.284
       150.     7.1946     78.818
       150.     7.2284     88.995
       150.     7.2419     95.778
       150.     7.2825     95.788
       150.     7.3163     87.321
       150.     7.3501     87.329
       150.     7.3705     77.165
       150.     7.4043     80.563
       150.     7.4381     95.825
       150.     7.4922     83.973
       150.     7.5464     83.986
       150.     7.5735     63.654
       150.     7.6073     85.696
       150.     7.6479     77.231
       150.     7.6615     60.285
       150.     7.6885     58.596
       150.     7.7224     58.604
       150.     7.7562     67.087
       150.     7.7832     65.398
       150.     7.8171     68.796
       150.     7.8509     65.414
       150.     7.8847     68.812
       150.     7.9118     72.209
ENDDATA            233
ENDSUBENT          250
SUBENT        F0928005   20080425   20080710   20080516       F031
BIB                  4          7
REACTION   (6-C-13(HE3,P)7-N-15,PAR,DA,,REL)
DETECTOR   (SILI) 2 mm lithium-drifted silicon detectors were used
ERR-ANALYS Carbon build-up on the target introduced an uncertainty
           in the percentage of 13C in the target and resulted in
           an over-all error of approximately 50%
           (EN-ERR-DIG) Energy digitizing error
STATUS     (CURVE) Fig.12
ENDBIB               7
COMMON               5          3
ANG        E-LVL      E-LVL      EN-ERR-DIG ERR-DIG
ADEG       MEV        MEV        MEV        ARB-UNITS
  30.        5.27       5.298     0.003       1.597
ENDCOMMON            3
DATA                 2        114
EN         DATA
MEV        ARB-UNITS
     4.4941  1.059E+03
     4.5305  1.178E+03
     4.5455  1.114E+03
     4.5823  1.133E+03
     4.6485  1.169E+03
     4.6703  1.242E+03
     4.7072  1.224E+03
     4.7292  1.279E+03
     4.7868  1.352E+03
     4.8169  1.488E+03
      4.876  1.443E+03
     4.9203  1.425E+03
      4.942  1.562E+03
     4.9788  1.553E+03
      5.001  1.535E+03
     5.0229  1.598E+03
     5.0523  1.635E+03
     5.0892  1.608E+03
      5.126  1.626E+03
     5.1484  1.526E+03
     5.1851  1.563E+03
      5.222  1.545E+03
     5.2514  1.572E+03
     5.2733  1.645E+03
     5.2826  1.536E+03
     5.2961  1.427E+03
     5.3701  1.346E+03
     5.3942  1.373E+03
     5.4023  1.300E+03
     5.4811  1.201E+03
     5.5028  1.337E+03
     5.5342  1.374E+03
     5.5466  1.465E+03
     5.5984  1.392E+03
     5.6202  1.465E+03
     5.6493  1.447E+03
     5.6642  1.529E+03
     5.7232  1.520E+03
     5.7348  1.539E+03
     5.7451  1.602E+03
     5.8039  1.648E+03
     5.8326  1.866E+03
     5.8769  1.866E+03
     5.8988  1.921E+03
     5.9283  1.903E+03
     5.9451  1.912E+03
     5.9503  1.939E+03
     5.9868  2.058E+03
      6.016  2.140E+03
     6.0825  2.086E+03
     6.1047  2.040E+03
     6.1411  2.186E+03
     6.1487  2.122E+03
     6.1782  2.113E+03
     6.1931  2.059E+03
     6.2228  1.977E+03
     6.2593  2.086E+03
     6.2709  2.087E+03
     6.2818  1.978E+03
     6.3335  1.950E+03
     6.3774  2.033E+03
     6.3997  1.978E+03
     6.4434  2.142E+03
     6.4587  1.960E+03
      6.488  2.006E+03
     6.5255  1.833E+03
     6.5621  1.897E+03
     6.6356  1.943E+03
      6.673  1.789E+03
     6.6875  1.852E+03
     6.7318  1.843E+03
     6.7579  1.898E+03
      6.797  1.853E+03
     6.8278  1.762E+03
     6.8796  1.708E+03
      6.909  1.726E+03
     6.9151  1.645E+03
      6.939  1.581E+03
     6.9686  1.526E+03
     7.0201  1.545E+03
     7.0569  1.563E+03
      7.072  1.463E+03
     7.1014  1.482E+03
     7.1455  1.518E+03
      7.168  1.391E+03
     7.1841  1.482E+03
     7.2125  1.319E+03
     7.2638  1.391E+03
     7.3157  1.292E+03
     7.3304  1.319E+03
     7.3451  1.337E+03
     7.3895  1.274E+03
     7.4047  1.119E+03
     7.4414  1.183E+03
     7.4633  1.247E+03
     7.4928  1.220E+03
     7.5224  1.184E+03
      7.552  1.157E+03
     7.5887  1.202E+03
     7.6107  1.248E+03
     7.6331  1.148E+03
     7.6699  1.148E+03
     7.6994  1.157E+03
     7.7288  1.185E+03
     7.7585  1.112E+03
     7.7805  1.130E+03
     7.8245  1.212E+03
      7.847  1.094E+03
     7.8837  1.122E+03
     7.9133  1.104E+03
     7.9428  1.086E+03
     7.9718  1.222E+03
     7.9869  1.131E+03
     8.0162  1.168E+03
ENDDATA            116
ENDSUBENT          132
SUBENT        F0928006   20080425   20080710   20080516       F031
BIB                  4         10
REACTION   (6-C-13(HE3,EL)6-C-13,,DA,,REL)
DETECTOR   (TELES,PROPC,SIBAR) A mass telescope composed of a
           proportional counter and a surface barrier detector
           was used.
ERR-ANALYS Carbon build-up on the target introduced an uncertainty
           in the percentage of 13C in the target and resulted in
           an over-all error of approximately 50%
           (EN-ERR-DIG) Energy digitizing error
           (DATA-ERR) Error from the graphic bars
STATUS     (CURVE) Fig.12
ENDBIB              10
COMMON               3          3
ANG        EN-ERR-DIG ERR-DIG
ADEG       MEV        ARB-UNITS
  110.      0.007       2.889
ENDCOMMON            3
DATA                 3         46
EN         DATA       DATA-ERR
MEV        ARB-UNITS  ARB-UNITS
     5.3873  2.635E+03
      5.513  2.199E+03     75.828
     5.5498  2.313E+03
     5.6161  2.256E+03
     5.6829  1.811E+03
      5.771  2.105E+03
      5.808  1.963E+03
     5.8595  2.057E+03
     5.9083  2.209E+03
     5.9182  2.304E+03
     5.9819  2.285E+03
     5.9918  2.380E+03
     5.9997  2.409E+03
     6.1001  2.560E+03
     6.1169  2.617E+03     75.828
     6.1685  2.598E+03     85.306
     6.1757  2.807E+03
     6.2274  2.665E+03
      6.279  2.598E+03
     6.3235  2.371E+03
     6.3898  2.400E+03
     6.4709  2.333E+03
     6.5078  2.220E+03
     6.5594  2.220E+03
     6.6258  2.134E+03
     6.6775  2.068E+03     75.828
     6.7365  2.021E+03
     6.7954  2.012E+03
     6.8546  1.813E+03
     6.9281  1.964E+03
     6.9798  1.879E+03
     7.0461  1.917E+03
     7.0903  1.917E+03
     7.1419  1.879E+03
     7.2008  1.889E+03
     7.2673  1.728E+03
     7.3335  1.880E+03
     7.3779  1.700E+03
     7.4516  1.719E+03
     7.5032  1.652E+03
     7.5549  1.586E+03     94.785
      7.673  1.378E+03
     7.7466  1.463E+03
     7.8057  1.255E+03
     7.8868  1.236E+03
     7.9457  1.293E+03
ENDDATA             48
ENDSUBENT           67
SUBENT        F0928007   20080425   20080710   20080516       F031
BIB                  4         10
REACTION   (6-C-13(HE3,EL)6-C-13,,DA,,RTH)
DETECTOR   (TELES,PROPC,SIBAR) A mass telescope composed of a
           proportional counter and a surface barrier detector
           was used.
ERR-ANALYS Carbon build-up on the target introduced an uncertainty
           in the percentage of 13C in the target and resulted in
           an over-all error of approximately 50%
           (ANG-ERR-D) Angle digitizing error
           (DATA-ERR)  Error from the graphic bars
STATUS     (CURVE) Fig.13
ENDBIB              10
COMMON               2          3
ANG-ERR-D  ERR-DIG
ADEG       PER-CENT
 0.274      0.2
ENDCOMMON            3
DATA                 4         70
EN         ANG-CM     DATA-CM    DATA-ERR
MEV        ADEG       ARB-UNITS  ARB-UNITS
         6.     35.876     0.6072  4.888E-02
         6.     42.349     0.4607  3.710E-02
         6.     48.723     0.5453  5.637E-02
         6.     54.091     0.4852  5.015E-02
         6.      59.82     0.4245  4.706E-02
         6.     65.547     0.3745  3.588E-02
         6.     71.572     0.4287  3.451E-02
         6.     76.982     0.3171  3.752E-02
         6.     81.992     0.2845  3.154E-02
         6.     87.741      0.227  2.347E-02
         6.     92.067     0.1795  1.721E-02
         6.     98.087     0.2107  2.178E-02
         6.     102.36     0.2073  1.986E-02
         6.     108.65     0.3672  3.238E-02
         6.     113.23     0.4608  4.417E-02
         6.     118.18     0.5546  6.967E-02
         6.     122.07     0.6035  6.238E-02
         6.     127.03     0.7023  7.259E-02
         6.     132.02     0.6795  5.995E-02
         6.     135.61     0.5894  4.743E-02
         6.     139.91     0.5288  5.466E-02
         6.      144.6     0.4148  3.977E-02
         6.     148.55     0.3538  3.657E-02
         6.     152.51      0.287  2.533E-02
         6.     155.76     0.2448  2.896E-02
         7.     35.812     0.1702  1.221E-02
         7.      41.89     0.1193  1.565E-02
         7.     48.257      0.235  2.221E-02
         7.     53.591     0.2706  2.557E-02
         7.     60.324     0.4633  3.678E-02
         7.     66.019     0.4951  3.932E-02
         7.     71.702     0.6347  5.997E-02
         7.     83.119     0.4714  4.455E-02
         7.     87.404     0.3996  3.476E-02
         7.     93.456     0.4166  4.556E-02
         7.     98.449     0.3773  3.565E-02
         7.     103.08       0.39  3.685E-02
         7.     108.05     0.4959  3.937E-02
         7.     113.38       0.59  5.575E-02
         7.       118.     0.6681  8.281E-02
         7.     122.62     0.7755  8.480E-02
         7.      126.9     0.7259  5.763E-02
         7.     130.82     0.6909  5.484E-02
         7.     135.81     0.6468  4.641E-02
         7.     139.75     0.4842  3.844E-02
         7.     144.05     0.3203  3.027E-02
         7.     148.69       0.29  3.172E-02
         8.     36.245     0.4117  4.552E-02
         8.     42.345     0.3232  3.573E-02
         8.     48.312     0.5211  4.979E-02
         8.     54.003     0.5437  4.365E-02
         8.      60.72     0.7171  7.395E-02
         8.     66.081      0.649  4.203E-02
         8.     71.467     0.5137  4.124E-02
         8.     76.892     0.3298  2.137E-02
         8.     82.045     0.1336  1.277E-02
         8.     86.965     0.1916  1.686E-02
         8.     93.025      0.187  1.928E-02
         8.     98.369     0.1855  1.912E-02
         8.     102.94     0.2594  2.868E-02
         8.     108.21      0.372  3.557E-02
         8.     113.17     0.4327  5.105E-02
         8.     117.42     0.5075  3.682E-02
         8.     122.04     0.5384  3.487E-02
         8.     126.67     0.5386  3.908E-02
         8.     130.96     0.4833  3.132E-02
         8.     134.89     0.4447  3.911E-02
         8.     139.58     0.3237  2.349E-02
         8.     143.89     0.2672  2.146E-02
         8.     148.28     0.1451  1.496E-02
ENDDATA             72
ENDSUBENT           91
SUBENT        F0928008   20080425   20080710   20080516       F031
BIB                  4          9
REACTION   (6-C-12(HE3,EL)6-C-12,,DA,,RTH)
DETECTOR   (TELES,PROPC,SIBAR) A mass telescope composed of a
           proportional counter and a surface barrier detector
           was used.
ERR-ANALYS An error of less than 20% is estimated for the 12C
           absolute cross section measurement
           (ANG-ERR-D) Angle digitizing error
           (DATA-ERR)  Error from the graphic bars
STATUS     (CURVE) Fig.13
ENDBIB               9
COMMON               2          3
ANG-ERR-D  ERR-DIG
ADEG       PER-CENT
 0.249      0.2
ENDCOMMON            3
DATA                 4         73
EN         ANG-CM     DATA-CM    DATA-ERR
MEV        ADEG       ARB-UNITS  ARB-UNITS
         6.     35.462     0.6958  7.252E-02
         6.     41.532      0.702  7.319E-02
         6.     47.257     0.6453  6.234E-02
         6.     53.333     0.6241  5.552E-02
         6.     59.415     0.5737  5.103E-02
         6.     70.131     0.5693  5.932E-02
         6.     75.841     0.5842  5.643E-02
         6.     81.203     0.5649  4.588E-02
         6.     86.561     0.5604  6.263E-02
         6.     91.923     0.5374  3.943E-02
         6.      97.29     0.4981  4.044E-02
         6.      102.3     0.4618  3.749E-02
         6.     107.66     0.4542  4.039E-02
         6.     111.96     0.3968  4.136E-02
         6.     116.98     0.3525  3.942E-02
         6.     121.29     0.2854  2.537E-02
         6.     125.96      0.241  2.143E-02
         6.     130.63     0.1935  2.162E-02
         6.     134.22     0.1634  1.453E-02
         6.     138.88     0.1489  1.776E-02
         6.     143.51     0.1541  1.606E-02
         6.      146.7     0.1987  2.070E-02
         6.      150.6     0.2414  2.147E-02
         6.     155.19     0.3476  3.624E-02
         7.     36.126     0.8382  9.113E-02
         7.     41.835     0.7052  7.148E-02
         7.     46.829      0.551  5.177E-02
         7.     52.899     0.5288  5.360E-02
         7.      59.33     0.6031  5.666E-02
         7.     64.691      0.705  7.147E-02
         7.     70.765     0.7845  6.784E-02
         7.     75.764     0.7909  8.017E-02
         7.     81.833     0.7107  7.726E-02
         7.     87.185     0.6029  5.213E-02
         7.      93.25     0.4789  5.556E-02
         7.      97.53     0.3804  3.002E-02
         7.     102.17     0.2924  3.392E-02
         7.     107.51     0.2122  1.835E-02
         7.     113.23      0.207  1.633E-02
         7.     117.88     0.2737  2.571E-02
         7.     121.81      0.371  2.928E-02
         7.     126.47     0.6761  7.351E-02
         7.     130.41     1.0197     0.1183
         7.     135.77     1.3709     0.1288
         7.     139.71     1.7543     0.1385
         7.     143.64      2.034     0.1911
         7.     147.57     2.2082      0.191
         7.     152.21     2.1366      0.136
         7.     155.43     2.0674     0.2248
         8.      34.79     0.5499  5.304E-02
         8.     41.255     0.3604  2.923E-02
         8.     46.995     0.2705  3.019E-02
         8.     51.982     0.3124  3.250E-02
         8.     58.387     0.4061  2.975E-02
         8.     64.068     0.5892  3.852E-02
         8.     70.128     0.6691  5.423E-02
         8.     75.128     0.6692  5.942E-02
         8.     81.208     0.6049  6.295E-02
         8.     86.588     0.4656  5.195E-02
         8.     93.093     0.1966  2.047E-02
         8.     97.388     0.1762  1.833E-02
         8.     101.36     0.1107  1.400E-02
         8.      107.4     0.1606  1.550E-02
         8.     112.69     0.3296  3.431E-02
         8.     116.58     0.5248  5.858E-02
         8.     121.19     0.7117  5.767E-02
         8.     126.18     0.8013  7.729E-02
         8.     130.12      0.749  5.488E-02
         8.     134.07     0.5913  4.792E-02
         8.     138.02     0.4289  4.463E-02
         8.     141.97     0.3473  3.082E-02
         8.     146.93     0.5483  4.444E-02
         8.     150.81      0.942  6.903E-02
ENDDATA             75
ENDSUBENT           93
SUBENT        F0928009   20080425   20080710   20080516       F031
BIB                  4          8
REACTION   (6-C-12(HE3,EL)6-C-12,,DA)
DETECTOR   (TELES,PROPC,SIBAR) A mass telescope composed of a
           proportional counter and a surface barrier detector
           was used.
ERR-ANALYS An error of less than 20% is estimated for the 12C
           absolute cross section measurement
           (EN-ERR-DIG) Energy digitizing error
STATUS     (CURVE) Fig.14
ENDBIB               8
COMMON               3          3
ANG        EN-ERR-DIG ERR-DIG
ADEG       MEV        MB/SR
  140.      0.009      0.016
ENDCOMMON            3
DATA                 2        116
EN         DATA
MEV        MB/SR
     4.4014     6.1175
     4.4399     6.0855
     4.4656     5.9891
     4.4913     5.8604
     4.5043     5.0873
     4.5364     5.0553
     4.5813     5.0234
     4.6134     4.8947
     4.6647     4.6374
     4.6907     3.6389
     4.7291     3.9291
     4.7604     6.4421
     4.8115     7.2479
     4.8497     8.3113
     4.8688     8.7302
     4.9522     8.6986
     5.0035     8.5056
     5.0357     8.1192
     5.0551     7.6361
     5.0937     7.1854
     5.1131      6.509
     5.1453     5.9293
     5.1711     5.5107
     5.2033     4.8666
     5.2227     4.4802
     5.2612     4.3516
     5.2932     4.4807
     5.3317     4.4165
     5.3574     4.2556
     5.3958     4.4492
     5.4085     4.9003
     5.4341     5.1904
     5.4726     5.1906
     5.4982     5.4163
     5.5237      5.642
     5.5493     5.9966
     5.5813     6.2545
     5.6262     6.1582
      5.652     5.6429
     5.6969     5.5466
     5.7227     5.1924
     5.7548     4.7738
     5.7742     4.2263
     5.8064     3.9688
     5.8321     3.5501
     5.8643     3.2604
     5.8963     3.4217
     5.9348     3.2609
     5.9732     3.5833
     6.0053     3.4225
     6.0373     3.5193
     6.0886     3.5841
     6.1013     4.0997
     6.1333     4.2288
     6.1654     4.3578
     6.2038     4.3903
     6.2292     5.3248
     6.2547     6.0337
      6.293     6.5494
     6.3122     6.7106
     6.3441     7.2585
     6.3633     7.5486
     6.4079     8.3221
     6.4334     8.8699
     6.4654     9.0956
      6.491     9.4502
      6.523     9.6759
     6.5421      10.03
     6.5802     11.352
     6.6187     11.513
     6.6439     12.995
     6.7914     12.899
     6.8234     13.093
     6.8375     13.222
     6.8425     13.705
     6.8938     13.738
     6.9076     14.542
     6.9385     14.318
     6.9642     14.189
     6.9962     14.447
     7.0284     13.964
     7.0603     14.641
     7.0858     14.995
     7.1179     14.835
     7.1501     14.352
     7.1615     14.223
     7.1795     14.062
     7.2595     13.031
     7.2981     12.774
      7.343     12.484
     7.3878     12.742
     7.4262     13.258
     7.4389     13.741
     7.4837     13.838
     7.4965     14.225
     7.5349     14.322
     7.5608     13.549
     7.5993     13.292
      7.625      12.97
     7.6576     11.359
       7.69     10.135
     7.7162     8.0734
     7.7487     6.5595
     7.7876      4.659
     7.8136     3.4995
     7.8331     2.7264
      7.878     2.5979
     7.9165     2.5981
     7.9228     2.8881
     7.9741     2.9529
     7.9868     3.2751
     8.0188     3.5975
     8.0572     3.8555
     8.0763       4.21
     8.1403     4.8226
     8.1849     5.6927
ENDDATA            118
ENDSUBENT          135
SUBENT        F0928010   20080507   20080710   20080516       F031
BIB                  4          9
REACTION   (6-C-13(HE3,A)6-C-12,PAR,SIG)
DETECTOR   (SIBAR) Four 300 mu-m surface barrier detectors
           mounted in a 30 cm scattering chamber were used.
ERR-ANALYS Carbon build-up on the target introduced an uncertainty
           in the percentage of 13C in the target and resulted in
           an over-all error of approximately 50%
           (EN-ERR-DIG) Energy digitizing error
           (DATA-ERR)   Error from the graphic bars
STATUS     (CURVE) Fig.19
ENDBIB               9
COMMON               3          3
E-LVL      EN-ERR-DIG ERR-DIG
MEV        MEV        MB
 7.66       0.002      0.027
ENDCOMMON            3
DATA                 3         16
EN         DATA       DATA-ERR
MEV        MB         MB
     5.2622     4.6214
     5.3771     4.4918
     5.4956     4.8569
     5.6146     4.8309
     5.7369     5.4437
     5.8547     6.3443     0.5766
     5.9679     5.9673
     6.0885     6.3121
     6.2087     5.2976
     6.3234     5.3945
     6.4401     5.5123
     6.5529     5.4648
     6.6783     5.2954
      6.792     6.1542     0.5766
     6.9114     5.7575
     7.0039     5.2955
ENDDATA             18
ENDSUBENT           36
ENDENTRY            10
