ENTRY            F0939   20081113   20090323   20090318       F034
SUBENT        F0939001   20081113   20090323   20090318       F034
BIB                  8         14
TITLE      Level structure of 46Ti.
AUTHOR     (L.Broman,D.J.Pullen)
INSTITUTE  (1USAPEN)
REFERENCE  (J,NP/A,110,161,1968)
FACILITY   (VDGT)
DETECTOR   (MAGSP) The charged reaction products were momentum
           analysed in a broad-range magnetic spectrograph and
           detected in nuclear emulsions.
           (PLATE)
SAMPLE     Self-supporting targets of 45Sc were prepared by an
           evaporation technique from scandium metal. The target
           thicknesses were estimated (to within+-25%) to be
           120 mu-g/cm2 by a differential weighing procedure.
HISTORY    (20081027C)
ENDBIB              14
COMMON               2          3
EN         EN-RSL-FW
MEV        KEV
  15.        30.
ENDCOMMON            3
ENDSUBENT           21
SUBENT        F0939002   20081113   20090323   20090318       F034
BIB                  3          5
REACTION   (21-SC-45(HE3,D)22-TI-46,PAR,DA,,REL)
ERR-ANALYS (ANG-ERR-D) Angle digitizing error
           (ERR-DIG)   Data digitizing error
           (DATA-ERR)  Error from the graphic bars
STATUS     (CURVE) Fig.2(a-d)
ENDBIB               5
COMMON               2          3
ANG-ERR-D  ERR-DIG
ADEG       PER-CENT
 0.078      0.2
ENDCOMMON            3
DATA                 4        494
E-LVL      ANG-CM     DATA-CM    DATA-ERR
KEV        ADEG       ARB-UNITS  ARB-UNITS
         0.     6.8322       13.2     2.3136
         0.     11.742      17.27     1.9636
         0.     15.522     26.204     1.8241
         0.     20.621     34.749      1.922
         0.     25.524     30.361     3.4515
         0.     31.741     15.693     1.0919
         0.     36.639     9.7939     1.5629
         0.     41.737     12.307     1.7732
         0.     51.922     10.049     1.4475
         0.     62.853     4.3587     1.0286
       891.     7.7867     65.989
       891.      12.65     74.375
       891.     16.751     51.113
       891.     21.598     32.851     2.7447
       891.     26.642     30.295
       891.     32.438     31.932
       891.     37.277     15.498     1.7495
       891.     42.313     10.792      0.902
       891.     52.035     11.834      0.818
       891.      62.84     3.4986      0.395
  2.014E+03      6.865     45.523
  2.014E+03     11.748      61.11
  2.014E+03     15.879     37.236
  2.014E+03      20.76     20.938
  2.014E+03      25.83     21.505
  2.014E+03     32.027     23.615
  2.014E+03     37.097     14.198     0.9193
  2.014E+03     42.166      9.375      0.649
  2.014E+03     52.119     9.7578     0.8161
  2.014E+03     63.008     3.6717      0.415
  2.974E+03     6.7925     20.391     2.0032
  2.974E+03     11.887     23.944     1.6576
  2.974E+03     15.849     22.096     1.8481
  2.974E+03     20.943     27.374      1.895
  2.974E+03     25.849     42.013     3.5139
  2.974E+03     31.698     23.312     1.2823
  2.974E+03     36.792     14.017     1.1723
  2.974E+03     41.698     9.0112     1.5704
  2.974E+03     51.698     10.724     1.2123
  2.974E+03     62.642     3.9823     0.6806
  3.074E+03     6.9159     25.947     4.1166
  3.074E+03     11.963     21.802     2.9854
  3.074E+03     15.888     27.743     3.5523
  3.074E+03     20.935     42.013     4.7493
  3.074E+03     25.607     29.664     3.3533
  3.074E+03     31.589     10.441     2.4939
  3.074E+03     36.449     8.7732     2.2421
  3.074E+03     41.495     11.164     3.0419
  3.074E+03     51.589     7.0816     2.0511
  3.074E+03      62.43     6.0307     1.7467
  3.247E+03     6.9811     27.648     2.3264
  3.247E+03     12.075     24.824     2.4537
  3.247E+03     16.038     31.633     2.2031
  3.247E+03     21.132     33.383     3.2997
  3.247E+03     26.038     36.193     2.0028
  3.247E+03     32.075     23.208
  3.247E+03     36.981     17.258     1.7058
  3.247E+03     42.075     11.216      1.413
  3.247E+03     52.075     11.216     1.4451
  3.247E+03     63.208     5.7207     1.1088
  3.310E+03     6.3772     16.454     1.3762
  3.310E+03     11.685     16.896     1.1699
  3.310E+03     15.483     30.856
  3.310E+03     20.603     36.713
  3.310E+03     25.537     61.045
  3.310E+03       31.6     46.071
  3.310E+03     36.522     22.058      2.167
  3.310E+03      41.64      20.08     1.9729
  3.310E+03     51.687      19.54     1.9194
  3.310E+03     62.865     9.9998     1.2804
  3.455E+03     10.605     17.953     1.5109
  3.455E+03     15.704     24.794
  3.455E+03       20.8      27.98
  3.455E+03       25.7     18.927     1.5929
  3.455E+03     31.727       8.78     0.6117
  3.455E+03     36.632     8.4294      0.959
  3.455E+03     41.726     8.2025     0.8379
  3.455E+03      51.91     5.4723      0.789
  3.455E+03     62.841      2.218     0.4244
  3.598E+03     6.7035     17.029     1.6835
  3.598E+03      11.63     21.415     1.8021
  3.598E+03     15.802     20.024     1.6851
  3.598E+03     20.728     27.301     1.9018
  3.598E+03     25.845     30.415     2.5595
  3.598E+03     31.725      22.02      2.177
  3.598E+03     36.657     14.904     1.4736
  3.598E+03     41.588      12.18     1.0251
  3.598E+03     51.639     8.0269     0.7936
  3.598E+03     62.828     5.3617      0.773
  3.737E+03     6.7242     49.015
  3.737E+03     11.832     75.279
  3.737E+03     15.969      48.29
  3.737E+03     20.847     19.882     2.2557
  3.737E+03     25.932     14.783     1.4576
  3.737E+03     31.604     21.227     1.7818
  3.737E+03     36.697     20.372     1.4153
  3.737E+03     41.583     10.973     1.2449
  3.737E+03     51.569     7.1274     0.8086
  3.737E+03     62.695     5.7387     1.0038
  3.861E+03     11.709     49.962
  3.861E+03      15.31     46.095
  3.861E+03     20.615      35.73
  3.861E+03     25.539     25.559     2.1377
  3.861E+03     31.605     23.577     1.6322
  3.861E+03     36.717     14.752     1.0212
  3.861E+03     41.645     14.167     1.3918
  3.861E+03     51.876     8.9806     1.0152
  3.861E+03     62.865     5.1835     0.8224
  3.955E+03     6.7299     36.261
  3.955E+03     11.848     57.933
  3.955E+03      15.64     38.771
  3.955E+03     20.758     30.469
  3.955E+03     25.687      28.88
  3.955E+03     31.754     29.664
  3.955E+03     36.872     21.226     1.4694
  3.955E+03     41.801     13.465     0.9321
  3.955E+03     51.848     11.314     0.7832
  3.955E+03     63.033     7.0816     0.4902
  4.049E+03     7.6173     55.359
  4.049E+03     12.434     79.551
  4.049E+03     16.506     53.157
  4.049E+03     21.686     23.738     1.6492
  4.049E+03     26.498     14.831      1.906
  4.049E+03     32.426       21.6     2.1297
  4.049E+03     37.426     21.888      1.695
  4.049E+03     42.237      11.18     1.6074
  4.049E+03     52.233     6.0244     0.9594
  4.049E+03     63.158     5.2653     0.8385
  4.158E+03     7.3116     29.979     2.0386
  4.158E+03     12.152     45.131     3.7073
  4.158E+03     16.278     33.821     2.7783
  4.158E+03     21.523     26.723     2.5782
  4.158E+03     26.383     26.405     2.5475
  4.158E+03     32.363     27.148     2.6192
  4.158E+03     37.422     21.449     2.3809
  4.158E+03     42.323     9.1304     1.4219
  4.158E+03     52.393     14.893     2.0943
  4.158E+03     63.454     7.5335     1.2885
  4.206E+03     7.3574     7.9539
  4.206E+03      12.58     26.659     2.5681
  4.206E+03      16.35     16.622     2.0863
  4.206E+03     21.594     27.047     2.6054
  4.206E+03     26.472     32.107     3.0928
  4.206E+03     32.305     21.666     3.3688
  4.206E+03     37.382     17.116     1.8969
  4.206E+03     42.282     9.3589     1.4549
  4.206E+03     52.239     8.2184     1.1059
  4.206E+03     63.162     2.8398     0.9517
  4.394E+03     7.6069     72.099     11.657
  4.394E+03     12.791     57.971     10.297
  4.394E+03     16.679     41.234     7.9901
  4.394E+03     21.678     29.328     7.1438
  4.394E+03     26.675     13.861     5.0195
  4.394E+03     32.418     21.728     6.8061
  4.394E+03     37.418     27.018     7.5093
  4.533E+03     7.0352     12.936
  4.533E+03     12.106     9.8981
  4.533E+03     16.049      14.99
  4.533E+03     21.118     22.103
  4.533E+03        26.     25.956
  4.533E+03     32.198     19.861
  4.533E+03      37.27     11.473
  4.533E+03     42.154     8.8967
  4.533E+03     52.107     8.7796
  4.533E+03     63.188     4.7435
  4.620E+03     7.3478     44.948
  4.620E+03     12.441     64.817
  4.620E+03     16.405     38.205
  4.620E+03     21.313     18.627      1.854
  4.620E+03      26.22     9.5876     0.8124
  4.620E+03     32.256     18.379     1.5573
  4.620E+03     37.351     16.717     1.6639
  4.620E+03     42.258     8.4884     0.8449
  4.620E+03      52.26     5.0721     0.6581
  4.620E+03     63.016     2.7192     0.4803
  4.723E+03     7.3631     30.409
  4.723E+03     12.387     37.661
  4.723E+03      16.48     33.387
  4.723E+03     21.504     38.674
  4.723E+03     26.527     43.616
  4.723E+03     32.666     37.144
  4.723E+03     37.315     19.546     1.6331
  4.723E+03     42.337     15.569     1.3008
  4.723E+03     52.197     13.436     1.5173
  4.723E+03     63.171     6.6122     0.7467
  4.846E+03     7.8186     51.225     3.5425
  4.846E+03      12.89     57.001     3.9419
  4.846E+03      16.83     35.689     2.9818
  4.846E+03      21.71     22.048     2.1638
  4.846E+03     26.591     15.992     1.3362
  4.846E+03     32.788     17.795     1.7463
  4.846E+03      37.67     14.953     1.6885
  4.846E+03     42.551     12.233     1.3814
  4.846E+03     52.501     6.8807     0.8801
  4.846E+03     63.579      5.194     0.6643
  4.999E+03     7.3654     37.236     4.2048
  4.999E+03     12.456     40.399     3.9647
  4.999E+03      16.24     32.214     4.6097
  4.999E+03     21.343     27.108      3.879
  4.999E+03     26.261     21.335     3.0529
  4.999E+03     32.297     21.947     3.8206
  4.999E+03     37.206     20.553     3.5779
  4.999E+03     42.312     16.177     2.9404
  4.999E+03     52.312     16.218     3.0796
  4.999E+03     63.097     8.7903     2.2439
  5.045E+03     7.1739     34.408
  5.045E+03     12.398     25.651
  5.045E+03     15.957     15.842
  5.045E+03     21.185     10.897
  5.045E+03     26.008      14.46     1.4233
  5.045E+03     32.152      13.01     1.2805
  5.045E+03     37.026     6.3139     0.5291
  5.045E+03      42.06     5.1012     0.5021
  5.045E+03     51.948     2.9117     0.3735
  5.045E+03     62.759     1.9527     0.3104
  5.098E+03     7.4295     33.595
  5.098E+03     12.481     49.078
  5.098E+03     16.436     38.537
  5.098E+03     20.238     15.624     1.0902
  5.098E+03     26.088     8.7607     0.6113
  5.098E+03     32.263     13.695     0.9546
  5.098E+03      37.34     11.822     0.9963
  5.098E+03     42.057     7.6871     0.9674
  5.098E+03     52.051     3.3848     0.3857
  5.098E+03     62.968     2.0606      0.266
  5.187E+03     7.7377     36.533
  5.187E+03     12.809     35.579     2.9865
  5.187E+03      16.75     39.628     3.3264
  5.187E+03     21.825     31.129      2.613
  5.187E+03     26.519     31.989     3.1541
  5.187E+03     32.527     35.635     3.5136
  5.187E+03     37.417      21.98     2.1672
  5.187E+03     42.304     17.035     1.9327
  5.187E+03     52.076     10.653     1.6965
  5.187E+03     62.974     7.3199     1.1657
  5.325E+03     12.422     45.127     4.4187
  5.325E+03     16.509     30.231      2.086
  5.325E+03     21.527     19.456      2.192
  5.325E+03     26.357     11.713     1.3197
  5.325E+03     32.313     13.203     1.4875
  5.325E+03     37.149     12.512      1.267
  5.325E+03     42.165     7.3344     1.1597
  5.325E+03      52.02     4.8463     1.1536
  5.325E+03     62.986     2.1172     0.5386
  5.383E+03     6.9208     27.158
  5.383E+03     11.946     40.008
  5.383E+03     15.882     33.243
  5.383E+03     20.773     18.782
  5.383E+03     25.803     25.208
  5.383E+03     30.848     26.272
  5.383E+03     36.667     16.961
  5.383E+03     41.736     11.243     0.9347
  5.383E+03     51.653     9.3576     0.9137
  5.383E+03     62.699     6.7299     0.6572
  5.557E+03     7.2395     33.693
  5.557E+03     12.256     52.232
  5.557E+03     16.199     40.141
  5.557E+03     21.465     25.306
  5.557E+03     26.157     18.945
  5.557E+03     32.126     22.848
  5.557E+03      37.18     20.588
  5.557E+03     42.082     11.073     0.9149
  5.557E+03     52.387     7.7735     0.6423
  5.557E+03     63.257     5.0418     0.4166
  5.618E+03      7.521     53.376
  5.618E+03     11.442     60.177
  5.618E+03     16.316     41.019
  5.618E+03     21.387     20.618     1.7055
  5.618E+03     26.257     15.625     1.5181
  5.618E+03      32.23     19.854     1.9289
  5.618E+03     37.095     16.951     1.1607
  5.618E+03     42.148     14.473     1.4062
  5.618E+03     52.083      6.549     0.8292
  5.618E+03     62.948     3.3837     0.5727
  5.816E+03     7.1176     33.125
  5.816E+03      12.21      16.87     1.1552
  5.816E+03     16.177     8.2557     0.6829
  5.816E+03     21.059     8.2622     0.6835
  5.816E+03     26.128     8.8352     0.7309
  5.816E+03     31.011     8.7259     0.5975
  5.816E+03     37.037     5.2104     0.5062
  5.816E+03     42.111     4.5678     0.5106
  5.816E+03      52.08     2.8399     0.3596
  5.816E+03     62.987     1.7659     0.3042
  5.899E+03     7.2928     31.827
  5.899E+03     12.356     39.343     3.2405
  5.899E+03     16.305     33.607     2.2914
  5.899E+03     21.397     18.579     2.0679
  5.899E+03      26.48     13.372     1.6857
  5.899E+03     32.485     15.074     2.1256
  5.899E+03     37.556     14.695     2.0722
  5.899E+03     42.455     9.3921     1.3244
  5.899E+03     52.625      4.264     0.7977
  5.899E+03     63.532     2.8761     0.2369
  5.982E+03     7.4854     20.495     2.0012
  5.982E+03     12.533     24.364     1.6766
  5.982E+03     16.458     25.695     2.1361
  5.982E+03     21.318     27.098     2.2528
  5.982E+03     26.365     30.544     2.1018
  5.982E+03     32.346     27.094
  5.982E+03     37.204     16.556     1.6167
  5.982E+03     41.876      10.67     1.0419
  5.982E+03     52.156     10.251      1.001
  5.982E+03     62.996     6.8753     0.6714
  6.029E+03     7.1151     44.378
  6.029E+03     12.205      58.71
  6.029E+03     16.172     43.241
  6.029E+03     21.086       25.4     2.1116
  6.029E+03     26.002     12.384     1.2092
  6.029E+03     32.035     16.826     1.3988
  6.029E+03     37.129     17.286      1.688
  6.029E+03     42.229     11.913     1.1632
  6.029E+03     52.237     6.6374     0.8447
  6.029E+03      63.19     3.4602     0.7087
  6.088E+03     7.1829     33.151
  6.088E+03     12.451      15.65     1.3113
  6.088E+03     16.401      9.922     0.8314
  6.088E+03     20.346     9.1574     0.9013
  6.088E+03     26.171     7.1005     0.8041
  6.088E+03     32.365      9.165     0.7679
  6.088E+03     37.262      3.094     0.4918
  6.088E+03     42.323     6.0517     0.6854
  6.088E+03     52.473     3.0972     0.4923
  6.088E+03     63.376     1.3863     0.2863
  6.141E+03     7.3155     26.741     2.2231
  6.141E+03     12.365      36.31     3.5456
  6.141E+03     16.477     35.351     3.4519
  6.141E+03      21.71     36.297     3.0175
  6.141E+03     26.194     27.809     3.1244
  6.141E+03     31.989     27.435     3.0824
  6.141E+03     37.223     31.754     3.5676
  6.141E+03     41.889     12.177     1.5496
  6.141E+03     51.792     8.1647      1.414
  6.141E+03     62.633     8.0532     1.3946
  6.214E+03     7.4531     42.049     2.9291
  6.214E+03     12.327     16.823     2.1679
  6.214E+03     16.074     6.3782     1.0185
  6.214E+03     21.335     8.9292     1.2873
  6.214E+03     26.224      17.04     1.6846
  6.214E+03     32.229     11.373     1.6396
  6.214E+03     37.112     11.524      1.311
  6.214E+03      42.18     8.9201      1.286
  6.214E+03     52.127     4.6709     0.8938
  6.214E+03     62.819     1.2642
  6.335E+03     7.2617     37.723
  6.335E+03     12.291     50.298
  6.335E+03     16.427     33.925
  6.335E+03     21.317     20.246
  6.335E+03     26.388     13.475     1.1478
  6.335E+03      32.17     16.788     1.4299
  6.335E+03      37.42     12.804     1.0907
  6.335E+03     42.312     7.4362     0.8563
  6.335E+03     52.233     5.8371     0.6722
  6.335E+03     63.098      3.892     0.4482
  6.427E+03     6.6936     45.878
  6.427E+03     11.551     60.103
  6.427E+03     15.479     45.898
  6.427E+03     20.719     22.457
  6.427E+03     25.582     15.816
  6.427E+03     31.748      19.11
  6.427E+03     36.607     20.726
  6.427E+03      41.66     11.145
  6.427E+03     51.573     5.5285     0.3858
  6.427E+03     62.603     4.2807      0.424
  6.556E+03     7.0757     34.842
  6.556E+03     12.307     44.345
  6.556E+03     16.047       35.8
  6.556E+03     21.099     19.343
  6.556E+03      25.96     15.409
  6.556E+03     31.941      16.48
  6.556E+03     36.803     13.484
  6.556E+03     41.853     8.7875     0.8633
  6.556E+03     51.763     5.4292     0.5334
  6.556E+03     62.793     3.8866     0.4394
  6.623E+03     7.4573     34.791
  6.623E+03     16.241     43.091
  6.623E+03     21.105     20.951
  6.623E+03     25.969     10.603
  6.623E+03     31.948      15.21
  6.623E+03     36.995     14.615
  6.623E+03      41.67     9.4065
  6.623E+03     51.767     4.6981      0.392
  6.623E+03     62.611     3.1063     0.2592
  6.744E+03     7.0944     32.653
  6.744E+03     12.514     42.184
  6.744E+03     16.253     34.466
  6.744E+03     21.301     23.635
  6.744E+03     26.161     18.053
  6.744E+03     32.329     20.109
  6.744E+03     37.189     16.879
  6.744E+03     42.237     11.116
  6.744E+03     52.145     6.9372
  6.744E+03     63.173     5.9023
  6.856E+03      6.737     21.429
  6.856E+03     12.002     18.251
  6.856E+03     15.948     16.848
  6.856E+03      20.82     22.376
  6.856E+03     25.883     27.412
  6.856E+03     31.707     25.314
  6.856E+03     36.984     15.606     1.0868
  6.856E+03     41.873     13.471     1.1335
  6.856E+03      51.86     5.5503     0.6312
  6.856E+03     62.932     6.8999      0.682
  6.897E+03     6.8581     46.095
  6.897E+03     12.139     49.321
  6.897E+03     16.108     40.393
  6.897E+03     20.086     24.659
  6.897E+03      31.99     14.676     1.2245
  6.897E+03     36.897     14.111
  6.897E+03     41.827     6.7744     0.5217
  6.897E+03     52.017     6.4327     0.5367
  6.897E+03      62.98     3.4862     0.3948
  6.979E+03     7.5003     31.649
  6.979E+03     12.316     44.453
  6.979E+03     16.419     37.846
  6.979E+03     21.285      24.26     1.6973
  6.979E+03      32.24     34.146
  6.979E+03     37.107     21.305     1.8009
  6.979E+03     42.157     14.032     1.3934
  6.979E+03     52.005     17.014     1.4382
  6.979E+03     62.855     6.7158     0.8693
  7.049E+03     7.0382      36.53
  7.049E+03     11.904     49.888
  7.049E+03     15.864     37.116
  7.049E+03     20.948     28.764
  7.049E+03     25.837     25.509
  7.049E+03     31.847     25.209
  7.049E+03     36.933     18.761     1.3092
  7.049E+03     41.833      13.59     0.9484
  7.049E+03     51.811     8.4983     0.8417
  7.049E+03     62.922     4.7082     0.4663
  7.101E+03     7.2086     34.344
  7.101E+03     12.112     36.271
  7.101E+03     16.267     33.057
  7.101E+03     21.011     17.407
  7.101E+03     25.926     14.067
  7.101E+03     32.152     14.086
  7.101E+03     37.053     15.905
  7.101E+03     42.153     13.743
  7.101E+03     52.195      5.116     0.5781
  7.101E+03     63.335     4.3094     0.4232
  7.147E+03     7.4335     27.985
  7.147E+03     12.475     41.722
  7.147E+03     16.405     28.002
  7.147E+03     21.269     20.356
  7.147E+03     26.322     13.304     0.9149
  7.147E+03     32.118     11.196
  7.147E+03     37.164      12.13     1.0077
  7.147E+03     42.031     6.9405     0.5324
  7.147E+03     52.129     5.0471     0.4193
  7.147E+03     62.978      2.776     0.4716
  7.204E+03     7.4407     34.855
  7.204E+03     12.497     47.401
  7.204E+03     16.271     31.819
  7.204E+03     20.418     23.137
  7.204E+03     26.252     17.752
  7.204E+03     32.254     20.581
  7.204E+03     37.523     16.432
  7.204E+03     42.236     11.181       0.93
  7.204E+03     52.213     6.7565     0.6601
  7.204E+03     63.133     3.7204     0.4182
  7.294E+03      7.626     32.821
  7.294E+03     10.641     36.511
  7.294E+03     16.305     33.306
  7.294E+03     21.602     21.239
  7.294E+03     26.518      15.67     1.5237
  7.294E+03     32.362     18.389
  7.294E+03     37.461     15.697
  7.294E+03     42.384     9.2442     0.8989
  7.294E+03     52.394     6.7358      0.655
  7.294E+03     63.353     4.1868     0.5305
  7.349E+03     7.1157     37.348
  7.349E+03     11.991      47.02
  7.349E+03     16.129     38.427
  7.349E+03     21.023     26.352
  7.349E+03      25.92     17.122
  7.349E+03     31.928     17.608
  7.349E+03     36.999     17.386
  7.349E+03     41.711      10.14     0.8555
  7.349E+03     51.693     4.1107     0.3468
  7.349E+03     62.773     4.1182     0.4082
  7.433E+03     21.095     20.814
  7.433E+03     26.195     12.723
  7.433E+03     32.042     15.749
  7.433E+03     36.193     15.544
  7.433E+03     42.048     9.6297
  7.433E+03     52.056     4.9526     0.4118
  7.433E+03     63.002        3.9     0.4382
  7.565E+03     25.894     12.147
  7.565E+03     32.116     13.184
  7.565E+03     37.025     12.516
  7.565E+03     41.954     8.2846
  7.565E+03     51.988     4.6788
  7.565E+03     62.949     3.4065
ENDDATA            496
ENDSUBENT          510
SUBENT        F0939003   20081113   20090323   20090318       F034
BIB                  3          7
REACTION   (21-SC-45(HE3,D)22-TI-46,PAR,DA)
ERR-ANALYS The estimated uncertainty in excitation energy is 12
           keV for levels 1 through 11, 15 keV for levels 12
           through 30 and 20 keV for levels 31 through 50.
           (DATA-ERR) Estimated uncertainty of the maximum
           differential cross section
STATUS     (TABLE) Tbl.1
ENDBIB               7
COMMON               1          3
DATA-ERR
PER-CENT
  30.
ENDCOMMON            3
DATA                 3         51
E-LVL      ANG-MAX    DATA-MAX
KEV        ADEG       MB/SR
         0.        23.       0.12
       891.        12.       0.83
  2.014E+03        11.       0.86
  2.974E+03        25.        0.2
  3.074E+03        19.       0.05
  3.247E+03        26.       0.12
  3.310E+03        26.        0.4
  3.455E+03        19.       0.19
  3.598E+03        27.       0.18
  3.737E+03        12.       0.36
  3.861E+03        12.       0.39
  3.955E+03        12.       0.68
  4.049E+03        12.        0.5
  4.158E+03        13.       0.12
  4.206E+03        27.       0.12
  4.394E+03        12.       0.03
  4.533E+03        27.       1.16
  4.620E+03        12.       0.48
  4.723E+03        26.       0.37
  4.846E+03        12.       0.29
  4.999E+03        13.       0.06
  5.045E+03         7.       1.41
  5.098E+03        12.       0.85
  5.187E+03        14.       0.14
  5.326E+03        12.       0.19
  5.383E+03        13.       0.58
  5.557E+03        12.       1.23
  5.618E+03        12.       0.42
  5.816E+03         7.       1.29
  5.899E+03        12.       0.13
  5.982E+03        27.       0.26
  6.029E+03        12.       0.45
  6.088E+03         7.       0.93
  6.141E+03        13.       0.09
  6.214E+03         7.       0.37
  6.335E+03        12.       0.64
  6.427E+03        12.       1.69
  6.556E+03        12.       0.97
  6.623E+03        12.       1.57
  6.744E+03        13.       1.64
  6.856E+03        27.       0.36
  6.897E+03        12.       0.48
  6.979E+03        12.       0.27
  7.049E+03        12.       0.75
  7.101E+03        12.       0.59
  7.147E+03        12.       0.51
  7.204E+03        12.       0.85
  7.294E+03        12.       0.51
  7.349E+03        12.       1.38
  7.433E+03        12.       2.19
  7.565E+03        12.       3.75
ENDDATA             53
ENDSUBENT           69
ENDENTRY             3
