ENTRY            F0965   20090225   20090508   20090508       F035
SUBENT        F0965001   20090225   20090508   20090508       F035
BIB                  8         17
TITLE      Neutron and gamma-ray yields from deuterons on carbon.
AUTHOR     (C.L.Bailey,G.Freier,J.H.Williams)
INSTITUTE  (1USAMIN)
REFERENCE  (J,PR,73,274,1948)
FACILITY   (VDG)
SAMPLE     Thin carbon targets were made by slowly depositing soot
           from a gas flame onto thin tantalum plates. Several
           different targets were used with thicknesses from 20 to
           60 keV to cover the range of bombarding energies. To
           prevent carbon from residual vapors in the accelerating
           tube being added to the target during ion bombardment,
           and also to prevent absorption of D2, these targets
           were heated electrically throughout the time of the
           observations.
ERR-ANALYS (EN-ERR-DIG) Energy digitizing error
           (ERR-DIG)    Data digitizing error
HISTORY    (20090225C)
ENDBIB              17
COMMON               1          3
EN-ERR-DIG
MEV
 0.002
ENDCOMMON            3
ENDSUBENT           24
SUBENT        F0965002   20090225   20090508   20090508       F035
BIB                  5         15
REACTION   (6-C-12(D,N)7-N-13,,DA)
DETECTOR   (LONGC)
COMMENT    To obtain the absolute value for the efficiency of
           reaction the neutron flux was measured by counting
           fissions from a thin layer of normal uranium. It was
           assumed that the fission cross section of 238U for
           2.5 MeV neutrons was 0.5*10**(-24) cm2, that the masses
           of 12C and 238U on the target and foil could be
           determined  by weighing the tantalum and platinum disks
           before and after deposition of the soot and 3U8O,
           respectively, and that ion beam contained only D+ ions
           with no 2H+ contamination.
ERR-ANALYS The uncertainties in the weights of the uranium foil
           and carbon target were the principal sources of error.
STATUS     (CURVE) Fig.2
ENDBIB              15
COMMON               1          3
ERR-DIG
B/SR
 0.00001
ENDCOMMON            3
DATA                 3        197
ANG        EN         DATA
ADEG       MEV        B/SR
         0.    0.85817 2.8057E-03
         0.    0.88832 3.6082E-03
         0.    0.90895 3.9425E-03
         0.    0.93752 4.5110E-03
         0.    0.95814 4.4107E-03
         0.    0.97401 3.7252E-03
         0.    0.99146 3.4409E-03
         0.       1.02 3.2403E-03
         0.      1.028 3.3239E-03
         0.     1.0422 3.0564E-03
         0.     1.0597 3.2904E-03
         0.      1.074 3.1065E-03
         0.     1.0787 2.7220E-03
         0.     1.1105 2.9560E-03
         0.     1.1105 2.8055E-03
         0.     1.1406 2.7554E-03
         0.     1.1454 2.5213E-03
         0.     1.1597 2.4544E-03
         0.     1.1739 2.2203E-03
         0.     1.1803 2.5213E-03
         0.     1.1961 2.3206E-03
         0.     1.2136 2.2537E-03
         0.     1.2422 2.2537E-03
         0.     1.2453 2.5212E-03
         0.     1.2644 2.6048E-03
         0.     1.2803 3.0061E-03
         0.      1.285 3.3070E-03
         0.     1.2914 3.9256E-03
         0.     1.2977 4.3770E-03
         0.     1.2998 1.0948E-02
         0.     1.3152 4.6780E-03
         0.     1.3168 4.5442E-03
         0.     1.3294 3.8587E-03
         0.      1.331 3.1732E-03
         0.     1.3469 2.4543E-03
         0.     1.3802 2.3038E-03
         0.     1.3961 2.4877E-03
         0.      1.412 2.9558E-03
         0.     1.4262 2.9558E-03
         0.     1.4373 2.9558E-03
         0.     1.4485 3.0561E-03
         0.     1.4659 3.0394E-03
         0.     1.5389 3.8586E-03
         0.     1.5627 4.0927E-03
         0.     1.6024 4.5441E-03
         0.     1.6706 5.6976E-03
         0.     1.7055 7.1187E-03
         0.     1.7357 9.8941E-03
         0.      1.769 1.1148E-02
         0.     1.7865 1.1165E-02
         0.     1.8023 1.1583E-02
         0.     1.8293 1.1115E-02
         0.     1.9055 8.2723E-03
         0.     1.9404 8.2555E-03
         0.     1.9562 8.4227E-03
         0.     1.9721 8.1385E-03
         0.     2.0102 8.6902E-03
         0.     2.0388 9.0580E-03
         0.     2.0721 9.4258E-03
         0.     2.1038 1.0429E-02
         0.     2.1213 1.0713E-02
         0.     2.1356 1.0864E-02
         0.     2.1737 1.2452E-02
         0.     2.2086 1.3121E-02
         0.     2.2387 1.4124E-02
         0.     2.2498 1.3990E-02
         0.     2.2752 1.5528E-02
         0.     2.2911 1.6130E-02
         0.      2.307 1.7150E-02
         0.     2.3419 1.7534E-02
         0.     2.3593 1.7200E-02
         0.     2.3736 1.6581E-02
         0.     2.4117 1.5762E-02
         0.      2.418 1.6080E-02
         0.     2.4418 1.5779E-02
         0.     2.4577 1.5812E-02
         0.     2.4767 1.5495E-02
         0.      2.499 1.5695E-02
         0.     2.5101 1.5963E-02
         0.     2.5275 1.5829E-02
         0.     2.5434 1.6030E-02
         0.     2.5608 1.5394E-02
         0.     2.5783 1.4826E-02
         0.     2.5862 1.4943E-02
         0.     2.5957 1.4976E-02
         0.     2.6084 1.4675E-02
         0.     2.6275 1.4826E-02
         0.     2.6465 1.5979E-02
         0.     2.6497 1.7133E-02
         0.      2.664 1.6715E-02
         0.     2.6719 1.6447E-02
         0.     2.6767 1.6397E-02
         0.     2.6814 1.6531E-02
         0.     2.6989 1.5026E-02
         0.     2.7132 1.4241E-02
         0.     2.7179 1.3722E-02
         0.     2.7449 1.3806E-02
         0.     2.7497 1.3505E-02
         0.     2.7703 1.3873E-02
         0.      2.783 1.3973E-02
         0.     2.7846 1.4391E-02
         0.     2.7989 1.4558E-02
         0.     2.8147 1.5076E-02
         0.     2.8227 1.4608E-02
         0.     2.8528 1.5260E-02
         0.     2.8846 1.6916E-02
         0.     2.8877 1.5026E-02
         0.     2.9179 1.7701E-02
         0.     2.9338 2.0142E-02
         0.     2.9512 1.9524E-02
         0.      2.956 1.8821E-02
         0.     2.9845 1.7216E-02
         0.      3.021 1.4541E-02
         0.     3.0575 1.3237E-02
         0.     3.0892 1.4541E-02
         0.     3.1257 1.4675E-02
         0.     3.1368 1.4959E-02
         0.     3.1606 1.4959E-02
         0.     3.2241 1.8654E-02
        90.    0.85906 1.8275E-03
        90.    0.89392 2.6749E-03
        90.    0.93038 3.1402E-03
        90.     0.9637 3.0573E-03
        90.     0.9986 2.9578E-03
        90.     1.0288 2.5926E-03
        90.     1.0621 2.6260E-03
        90.      1.097 2.6428E-03
        90.     1.1303 3.0914E-03
        90.      1.162 3.0418E-03
        90.     1.1985 3.1915E-03
        90.     1.2302 3.2249E-03
        90.     1.2667 3.1752E-03
        90.     1.2968 3.2418E-03
        90.     1.3142 3.3416E-03
        90.     1.3666 3.5412E-03
        90.     1.4015 3.5082E-03
        90.     1.4316 3.4087E-03
        90.     1.4522 3.6580E-03
        90.     1.4681 3.7245E-03
        90.     1.4887 4.1067E-03
        90.     1.5046 3.7745E-03
        90.     1.5236 4.0404E-03
        90.     1.5347 3.8743E-03
        90.     1.5601 4.1070E-03
        90.     1.5902 4.0241E-03
        90.     1.6061 3.9910E-03
        90.     1.6267 4.0243E-03
        90.     1.6394 3.4596E-03
        90.     1.6743 3.6758E-03
        90.     1.7092 3.4102E-03
        90.     1.7409 4.0914E-03
        90.     1.7789 5.0218E-03
        90.     1.8091 5.0386E-03
        90.      1.844 5.2381E-03
        90.     1.8757 4.8230E-03
        90.     1.9106 4.6239E-03
        90.     1.9439 5.4712E-03
        90.     1.9756 5.6707E-03
        90.     2.0073 5.5712E-03
        90.     2.0422 5.9203E-03
        90.     2.0597 5.8041E-03
        90.     2.0771 6.0201E-03
        90.     2.0771 5.8208E-03
        90.     2.1104 5.5718E-03
        90.      2.112 6.0535E-03
        90.     2.1453 5.9042E-03
        90.     2.1771 5.9210E-03
        90.     2.1802 6.3197E-03
        90.     2.2151 5.9876E-03
        90.     2.2151 6.2368E-03
        90.       2.25 6.2038E-03
        90.       2.25 6.3200E-03
        90.       2.25 6.9014E-03
        90.     2.2817 6.4863E-03
        90.     2.3066 6.3702E-03
        90.     2.3135 5.8220E-03
        90.     2.3151 5.7224E-03
        90.     2.3484 5.4734E-03
        90.     2.3749 4.9586E-03
        90.     2.3817 4.8424E-03
        90.     2.4135 4.4439E-03
        90.     2.4468 3.8294E-03
        90.     2.4833 3.7632E-03
        90.     2.5182 3.3647E-03
        90.     2.5833 3.1325E-03
        90.     2.6515 3.2823E-03
        90.     2.7197 3.1332E-03
        90.     2.7863 3.6485E-03
        90.     2.8593 3.6655E-03
        90.     2.9259 2.8187E-03
        90.     2.9926 2.3872E-03
        90.      3.064 2.2214E-03
        90.     3.1004 2.7034E-03
        90.     3.1337 3.0856E-03
        90.     3.1655 2.8366E-03
        90.     3.2035 2.6873E-03
        90.     3.2353 2.3553E-03
ENDDATA            199
ENDSUBENT          223
SUBENT        F0965003   20090225   20090508   20090508       F035
BIB                  6         10
REACTION   (6-C-12(D,P)6-C-13,PAR,DA,,REL)
PART-DET   (G)
EN-SEC     (E-LVL,6-C-13)
DETECTOR   (GEMUC) The gamma-rays were detected by a thick wall
           Geiger counter encased in a two-inch thick lead
           shield which had a 0.5-inch square window cut out on
           the side facing the carbon target.
CRITIQUE   Level energy value of 3.15 MeV was specified by authors
            (According to the modern sources it is 3.089 MeV).
STATUS     (CURVE) Fig.2
ENDBIB              10
COMMON               3          3
ANG        E-LVL      ERR-DIG
ADEG       MEV        ARB-UNITS
 90.        3.15      0.275
ENDCOMMON            3
DATA                 2        427
EN         DATA
MEV        ARB-UNITS
    0.85979      15.51
    0.87091     17.728
    0.88044     20.646
    0.89156     23.914
    0.90268     27.883
    0.91379     30.918
    0.92332     33.369
    0.93285     35.003
    0.94396      35.82
    0.95506     35.119
    0.96141     34.185
    0.96775     32.434
     0.9725     30.333
    0.97884     28.815
    0.98836     27.181
    0.99629     25.897
     1.0074     24.612
     1.0201     24.028
     1.0375     23.911
     1.0566     24.495
     1.0725     25.545
     1.0836     26.362
     1.0931     27.062
     1.1042     28.229
     1.1185      29.63
     1.1344     31.731
     1.1391     33.248
     1.1518     35.233
     1.1566     36.283
     1.1629     37.684
     1.1677     39.201
     1.1709     40.018
     1.1788     40.952
     1.1868     40.485
     1.1915     39.434
     1.1963     37.683
     1.2058     36.165
     1.2089     35.115
     1.2153     34.181
     1.2216     33.247
     1.2327     32.313
     1.2454     31.846
     1.2613     31.962
     1.2724     32.779
     1.2851     34.063
     1.2962     35.697
     1.2994     37.214
     1.2994     38.849
      1.301       40.6
      1.301     42.234
      1.301     43.868
      1.301     44.802
     1.3042     45.736
     1.3058     46.436
     1.3121      47.02
     1.3185     46.202
     1.3216     44.918
     1.3216     43.868
     1.3216     42.584
     1.3248     41.066
      1.328     39.899
     1.3296     38.264
     1.3311     36.864
     1.3311     35.813
     1.3343     34.179
     1.3391     32.778
     1.3406      31.26
     1.3454     29.976
     1.3502     29.042
     1.3581     27.641
     1.3644     26.707
     1.3771      26.24
     1.3819      27.29
     1.3898     28.341
     1.3993     29.275
     1.4105     30.558
       1.42     32.076
     1.4247     33.243
     1.4279     35.111
     1.4327     37.095
     1.4327     38.496
     1.4343     40.247
     1.4375     41.881
     1.4375     43.282
     1.4375     44.566
     1.4391     45.967
     1.4391     47.134
     1.4438     48.068
     1.4502     47.134
     1.4502       45.5
     1.4518     43.865
     1.4518     42.581
     1.4549      41.18
     1.4565     39.896
     1.4613     38.729
      1.466     37.912
     1.4787     38.262
     1.4882     39.429
     1.4993     40.946
     1.5089     41.997
     1.5168     43.397
     1.5279     45.031
     1.5374     46.082
     1.5486     47.833
     1.5533     48.883
     1.5613     50.401
     1.5708     51.801
     1.5803     53.435
     1.5883     54.953
     1.5946     56.237
     1.6073     58.805
     1.6152     60.555
     1.6248     62.773
     1.6375     65.458
     1.6422     67.676
     1.6486     69.893
      1.655     71.761
     1.6581     73.162
     1.6677      75.73
     1.6708     78.064
     1.6756     80.049
     1.6788     81.916
     1.6851     84.251
     1.6915     86.936
     1.6931      89.27
     1.6979     92.189
     1.6995      94.29
     1.7011     96.625
     1.7027     99.426
     1.7058     102.46
      1.709      104.8
     1.7122     106.66
     1.7122       109.
     1.7122     110.98
     1.7138     112.62
     1.7186     114.72
     1.7218     116.82
     1.7297      118.1
     1.7424     118.69
     1.7551     118.34
     1.7646     117.52
     1.7741       116.
      1.782     114.48
     1.7884     112.27
       1.79     110.05
     1.7931     107.83
     1.7963     105.49
     1.7963     103.39
      1.801     101.53
     1.8026     99.424
     1.8058      97.09
      1.809     95.222
     1.8105     93.237
     1.8121      91.37
     1.8185     89.385
     1.8216     87.751
     1.8248     85.649
      1.828     83.548
     1.8311     81.447
     1.8327     79.229
     1.8438     74.909
     1.8485     73.042
     1.8517      70.94
     1.8581     69.073
     1.8612     67.205
     1.8707     64.987
     1.8787     63.469
     1.8882     62.535
     1.9056     62.301
     1.9215     62.768
     1.9437     63.935
     1.9612     65.335
     1.9818     67.319
     1.9961     69.537
     2.0136     71.638
     2.0263     73.272
     2.0374     75.023
     2.0501      76.54
     2.0644     78.524
     2.0755     80.042
     2.0898     81.909
     2.1009     82.726
     2.1136      84.36
      2.131     85.527
     2.1437     86.694
     2.1612     88.328
     2.1802     89.145
     2.2136     90.428
     2.2358     91.362
     2.2564     92.062
      2.285     93.229
      2.304     94.396
     2.3247     95.679
     2.3469     97.547
     2.3596     99.414
     2.3739     101.17
     2.3929     104.08
      2.404     106.07
     2.4088     108.17
     2.4136      109.8
     2.4199      111.9
     2.4231     114.12
     2.4263     115.87
     2.4326     118.21
     2.4342     120.54
     2.4358     122.76
     2.4374     124.39
     2.4374      126.5
     2.4406     128.71
     2.4422     130.81
     2.4438      132.8
     2.4438     134.55
     2.4454     137.12
     2.4454     138.75
      2.447     140.62
     2.4518     143.07
     2.4534     145.64
     2.4551     149.84
     2.4563     151.94
     2.4572     154.28
     2.4581     156.15
     2.4627     158.83
     2.4629     161.63
     2.4633     164.32
     2.4638     167.12
     2.4642     169.34
     2.4644     171.09
     2.4648     173.54
     2.4656     175.99
     2.4662     178.32
     2.4678     180.66
     2.4693     182.41
     2.4694     184.28
     2.4741     185.09
      2.478     184.04
     2.4805     182.64
      2.482     181.48
     2.4836     180.43
     2.4881     178.32
     2.4883     176.11
     2.4884     173.07
     2.4899     170.27
     2.4901     168.28
     2.4909     165.83
     2.4915     163.27
     2.4931     161.51
     2.4947     159.53
     2.4962     157.66
     2.4962     155.91
     2.4978     153.93
      2.501     150.66
      2.501     148.32
     2.5025     146.34
     2.5025     144.35
     2.5057     142.72
      2.512     139.92
     2.5136     137.12
     2.5136      134.9
     2.5152     132.68
     2.5152     130.81
     2.5174     128.59
     2.5183     126.73
     2.5187     125.09
     2.5247     121.59
     2.5278     119.49
      2.531     116.69
     2.5358     114.94
     2.5421     113.65
       2.55     113.42
     2.5612      114.7
     2.5691     116.57
      2.577     117.97
     2.5834     120.42
     2.5882     122.06
     2.5945     123.92
     2.5961     125.21
     2.6009     127.43
     2.6072     129.41
     2.6104     131.28
     2.6152     133.03
     2.6215     135.95
     2.6263     138.05
     2.6279     139.92
     2.6295     141.43
     2.6342       144.
     2.6374     146.69
      2.639     149.02
     2.6438     151.94
     2.6454     153.69
      2.647     155.56
     2.6502     159.06
     2.6502     160.93
     2.6502     163.38
     2.6502     165.01
     2.6518     167.46
     2.6535      169.8
      2.655     171.55
     2.6566     173.42
     2.6581     174.94
     2.6611     176.57
     2.6613     178.09
     2.6613     179.02
     2.6677     180.19
     2.6788     180.19
     2.6788      178.9
     2.6804     177.85
     2.6804     176.45
     2.6835      174.7
     2.6851     173.18
     2.6851     170.62
     2.6867     168.28
     2.6867     166.18
     2.6867      164.2
     2.6867     161.63
     2.6914     159.29
     2.6914     157.07
     2.6914     155.21
     2.6926     153.11
      2.693     151.47
     2.6946     149.84
     2.6959     147.85
     2.6961     146.45
     2.6973     144.47
     2.6981      142.6
     2.6997     140.73
     2.7009     138.98
      2.701      136.3
     2.7024     134.43
      2.704     132.44
     2.7056     130.11
     2.7074     128.01
     2.7088     126.14
     2.7102     124.04
     2.7103     122.17
     2.7119     119.84
     2.7135     118.44
     2.7167     116.68
     2.7167     115.17
     2.7167     113.77
     2.7182     112.37
     2.7214     111.08
      2.723     109.21
     2.7262     107.46
     2.7293     105.94
     2.7309     104.43
     2.7372     103.38
     2.7484     104.43
     2.7547     105.94
     2.7595     107.93
     2.7627     110.26
     2.7658     112.25
      2.769     114.35
     2.7754     115.75
     2.7801     117.73
     2.7849     119.37
     2.7881     121.82
     2.7928     123.34
      2.796     124.97
     2.8008     126.37
      2.804     127.89
     2.8087     129.64
     2.8087     130.69
     2.8151     132.91
     2.8214     134.43
     2.8262     136.41
     2.8342     138.16
     2.8405     139.68
     2.8453     140.96
       2.85     142.36
     2.8564     143.76
     2.8659      144.7
     2.8754     145.28
     2.8897     145.86
     2.9103     145.98
     2.9246     145.63
     2.9373     144.46
     2.9437      143.3
     2.9516     142.01
     2.9579     140.73
     2.9659     139.09
     2.9722     138.04
     2.9785     136.99
     2.9897     135.71
     2.9992     135.12
     3.0119     134.77
     3.0246     135.01
     3.0373     136.41
      3.042     137.57
     3.0452     139.09
     3.0484     140.61
     3.0516     142.36
     3.0516     143.99
     3.0532     145.28
     3.0537     147.15
     3.0541     148.55
     3.0546       151.
     3.0548     153.33
     3.0552     155.55
      3.056     156.95
      3.057     158.12
      3.058     159.64
     3.0596     161.62
     3.0627      163.6
     3.0675     166.17
     3.0675     167.81
     3.0707     169.32
      3.077     170.38
     3.0881     170.38
     3.0977     169.79
     3.1008     168.16
     3.1056     166.76
     3.1103     164.54
     3.1119     162.67
     3.1167     160.45
     3.1214     158.93
      3.123     156.95
     3.1262     155.55
     3.1309     154.15
     3.1373     152.75
     3.1484     151.35
     3.1611     150.18
     3.1753     149.48
     3.1944     149.24
     3.2118     149.48
      3.223     149.94
     3.2309     150.41
      3.242     151.58
ENDDATA            429
ENDSUBENT          448
ENDENTRY             3
