ENTRY            F0983   20090203   20090508   20090508       F035
SUBENT        F0983001   20090203   20090508   20090508       F035
BIB                  8         13
TITLE      Energy levels of 16O in the region of excitation
           between 13.5 and 15.0 MeV.
AUTHOR     (T.R.Ophel,Ph.Martin,S.D.Cloud,J.M.Morris)
INSTITUTE  (3AULCBR)
REFERENCE  (J,NP/A,173,609,1971)
           (J,NP/A,202,257,1973)
FACILITY   (VDG,VDGT) The 1 MeV Van de Graaff injector and 12MeV
           Van de Graaff tandem accelerator facilities provided a
           beam of doubly charged alpha particles.
SAMPLE     Self-supporting foil targets of natural carbon were
           used.
ERR-ANALYS (ERR-DIG)    Data digitizing error
HISTORY    (20090203C)
ENDBIB              13
NOCOMMON             0          0
ENDSUBENT           16
SUBENT        F0983002   20090203   20090508   20090508       F035
BIB                  7         15
REACTION   (6-C-12(A,EL)6-C-12,,DA)
DETECTOR   (SIBAR) Surface-barrier detectors with a maximum
           depletion depth of 120 mu-m were mounted in blocks
           which could be located within an annular groove on a
           rotating platform to within 0.1 degr. The angular
           resolution, determined by defining apertures in front
           of the detectors, ranged between +-0.15 at forward
           angles to +-0.6 degr. at the more backward angles.
MONITOR    (6-C-12(A,EL)6-C-12,,DA) Cross sections were derived by
           normalization to elastic data between 6.6 and 8.5 MeV.
MONIT-REF  (,J.M.MORRIS+,J,NP/A,112,97,1968)
SAMPLE     Target thicknesses were approximately 20 mu-g/cm2.
ERR-ANALYS (EN-ERR-DIG) Energy digitizing error
           (DATA-ERR)   Absolute cross section error
STATUS     (CURVE) Fig.1
ENDBIB              15
COMMON               3          3
DATA-ERR   EN-ERR-DIG ERR-DIG
PER-CENT   MEV        MB/SR
  5.        0.004      0.302
ENDCOMMON            3
DATA                 3        775
ANG        EN         DATA
ADEG       MEV        MB/SR
        25.      8.588      424.9
        25.     8.6963     411.01
        25.     8.7973     377.72
        25.     8.8946     337.06
        25.     8.9162     312.12
        25.     8.9377     286.26
        25.     8.9556     263.16
        25.     8.9774     273.31
        25.     9.0174     318.54
        25.     9.0356     346.24
        25.     9.0571     354.52
        25.     9.0974     363.77
        25.     9.1189     381.29
        25.      9.137     384.98
        25.      9.155     379.43
        25.     9.1731     373.89
        25.     9.1983     365.57
        25.      9.238     347.08
        25.      9.274     331.37
        25.     9.2992     312.89
        25.     9.3424     289.79
        25.     9.3927     246.38
        25.     9.4468     224.19
        25.     9.4972     187.24
        25.      9.544     165.06
        25.     9.5981      143.8
        25.     9.6413     124.39
        25.     9.6954     97.594
        25.     9.7458     69.874
        25.     9.7927     52.311
        25.     9.8395     33.826
        25.     9.8901     28.266
        25.     9.9117     23.641
        25.      9.937     20.861
        25.     9.9551     19.007
        25.     9.9731     18.077
        25.     9.9948     16.221
        25.     10.017      18.06
        25.     10.074     23.578
        25.     10.092     25.417
        25.     10.111     32.797
        25.     10.132     34.636
        25.     10.154     38.321
        25.     10.172     60.475
        25.     10.194     136.18
        25.     10.213      208.2
        25.     10.238     199.88
        25.     10.274     191.55
        25.     10.292     185.08
        25.     10.336     205.38
        25.     10.375     206.29
        25.     10.415     209.04
        25.     10.451     226.57
        25.     10.495     241.33
        30.     8.4972     86.761
        30.     8.6959     68.231
        30.     8.7934      57.13
        30.     8.8909     34.999
        30.     8.9125     18.439
        30.     8.9342     7.3935
        30.     8.9523     9.2183
        30.     8.9704     25.749
        30.     8.9921     45.953
        30.     9.0174     55.126
        30.     9.0572     60.611
        30.     9.0753     60.597
        30.     9.0969     60.581
        30.     9.1186     60.565
        30.     9.1439     58.708
        30.     9.1764     51.331
        30.     9.2342     38.421
        30.     9.2739     31.039
        30.      9.292     27.349
        30.     9.3425     23.635
        30.     9.3967      18.08
        30.     9.4437     16.207
        30.     9.4907     18.011
        30.     9.5413     23.488
        30.     9.5919     28.965
        30.     9.6425     38.119
        30.     9.6931     54.625
        30.     9.7402      74.81
        30.     9.7944     96.829
        30.     9.8922     159.26
        30.     9.9139     186.81
        30.     9.9356     184.96
        30.     9.9574     223.54
        30.     9.9755     238.24
        30.     9.9936     252.93
        30.     10.008     262.11
        30.     10.077     289.63
        30.     10.091     295.14
        30.     10.113     306.15
        30.     10.135       319.
        30.     10.153      348.4
        30.     10.171     421.91
        30.     10.215     462.32
        30.     10.236     405.32
        30.     10.258     375.89
        30.     10.272     344.63
        30.     10.297      339.1
        30.     10.333      335.4
        30.     10.373      307.8
        30.     10.413     302.25
        30.     10.453     285.68
        30.     10.496     267.26
        35.     8.4948     33.924
        35.      8.596     26.733
        35.     8.6935     23.114
        35.     8.7911      17.71
        35.     8.8886     23.021
        35.     8.9104     42.653
        35.     8.9321     80.143
        35.     8.9503     126.56
        35.     8.9683     130.13
        35.       8.99     108.69
        35.     9.0116     85.462
        35.     9.0333     67.594
        35.     9.0513     56.871
        35.     9.0694     47.934
        35.     9.0874     38.997
        35.     9.1091     31.843
        35.     9.1344     24.688
        35.      9.156     15.749
        35.     9.1741     15.741
        35.     9.1921      12.16
        35.     9.2102     6.7945
        35.     9.2355     6.7823
        35.     9.2716     12.122
        35.     9.2933     13.897
        35.     9.3439     22.802
        35.     9.3945     33.492
        35.     9.4415     45.969
        35.     9.4922     63.802
        35.     9.5392     85.209
        35.     9.5898     104.83
        35.      9.644      129.8
        35.     9.6911     165.49
        35.     9.7454     210.11
        35.     9.7961     263.66
        35.     9.8395     320.78
        35.     9.8938     372.54
        35.      9.912     397.53
        35.     9.9301     422.52
        35.     9.9518     440.37
        35.     9.9735     456.43
        35.     9.9952     477.85
        35.     10.017     486.77
        35.     10.075     520.67
        35.     10.093     511.73
        35.     10.111     513.51
        35.     10.133     506.36
        35.     10.154     517.06
        35.     10.172     525.98
        35.      10.19     536.69
        35.     10.212     517.03
        35.     10.234     459.88
        35.     10.255     467.01
        35.     10.273     450.93
        35.     10.295     441.99
        35.     10.338     422.33
        35.     10.374      399.1
        35.     10.414     375.86
        35.     10.454     345.49
        35.     10.497     320.46
        40.     8.4903     88.589
        40.     8.6926     81.304
        40.     8.7902     75.862
        40.     8.8878     95.644
        40.     8.9095     133.47
        40.     8.9277     201.93
        40.     8.9459     257.78
        40.     8.9748     264.98
        40.     8.9964     223.53
        40.     9.0108     176.68
        40.     9.0324     153.24
        40.     9.0541     131.62
        40.     9.0685     108.19
        40.     9.0901     95.566
        40.     9.1118     86.549
        40.     9.1299      73.93
        40.     9.1479     64.914
        40.     9.1732     55.896
        40.     9.2129     54.079
        40.     9.2671     54.058
        40.     9.2924     54.048
        40.     9.3394     61.238
        40.       9.39     68.425
        40.     9.4406     84.621
        40.     9.4948     95.411
        40.     9.5418     108.01
        40.     9.5924      124.2
        40.     9.6431      145.8
        40.     9.6973     171.01
        40.     9.7443     203.42
        40.      9.795     237.63
        40.     9.8927     336.69
        40.     9.9108     358.31
        40.     9.9325     370.91
        40.     9.9506     388.92
        40.     9.9723     397.92
        40.      9.994     410.53
        40.     10.012     419.53
        40.      10.07     426.71
        40.     10.095      424.9
        40.     10.117     417.69
        40.     10.135     401.46
        40.     10.157     379.83
        40.     10.175     323.97
        40.     10.196     318.56
        40.     10.214      370.8
        40.     10.236     403.23
        40.     10.258     401.42
        40.     10.276       396.
        40.     10.297     394.19
        40.     10.337     383.37
        40.     10.377     377.95
        40.     10.417     356.31
        40.     10.453     329.27
        40.       10.5     298.62
        45.      8.497     83.561
        45.     8.5946     79.443
        45.     8.6958     78.977
        45.     8.7969     72.576
        45.     8.8909     79.416
        45.     8.9126      93.57
        45.     8.9308     116.86
        45.     8.9454     146.08
        45.     8.9707     145.16
        45.     8.9887     133.29
        45.     9.0103     107.72
        45.     9.0319     98.125
        45.     9.0499     86.251
        45.     9.0679     79.857
        45.     9.0932     70.722
        45.     9.1148     65.698
        45.     9.1365     56.563
        45.     9.1473     52.909
        45.     9.1725     48.341
        45.     9.1978     46.056
        45.     9.2375     41.029
        45.     9.2701     40.113
        45.     9.2954     40.567
        45.      9.346     43.302
        45.     9.3966     44.668
        45.     9.4508     44.663
        45.     9.4977     44.202
        45.     9.5483     41.914
        45.     9.5953      41.91
        45.     9.6459     45.102
        45.     9.6965     46.011
        45.     9.7471     49.203
        45.     9.7977     53.764
        45.     9.8447     62.436
        45.     9.8953     70.194
        45.     9.9134     73.845
        45.     9.9351     78.866
        45.     9.9532     81.604
        45.     9.9749     83.885
        45.     9.9966     86.623
        45.     10.018     90.731
        45.     10.076     95.292
        45.     10.098     90.267
        45.     10.119     88.895
        45.     10.137     81.131
        45.     10.159     73.366
        45.     10.181     52.817
        45.     10.199     41.399
        45.     10.221     67.425
        45.     10.239     85.232
        45.     10.257     99.842
        45.     10.279     103.04
        45.       10.3     103.95
        45.      10.34     104.86
        45.      10.38     100.74
        45.     10.423     96.174
        45.     10.459     89.321
        45.     10.502     82.468
        65.        8.5     109.03
        65.     8.7024     105.71
        65.        8.8     108.64
        65.     8.8975     103.48
        65.     8.9227     91.707
        65.     8.9406     67.051
        65.      8.962     33.195
        65.       8.98     14.427
        65.     9.0053     17.737
        65.     9.0198     26.567
        65.     9.0379     36.133
        65.     9.0596     37.604
        65.     9.0813     39.074
        65.     9.0994     39.809
        65.     9.1247     38.703
        65.     9.1391     37.598
        65.     9.1572     35.389
        65.     9.1788     33.915
        65.     9.2366     33.543
        65.       9.28      35.38
        65.     9.3017      36.85
        65.     9.3487     40.527
        65.     9.3993     40.891
        65.     9.4463     44.199
        65.     9.4969     47.139
        65.     9.5475     45.664
        65.      9.598     43.084
        65.     9.6522     40.872
        65.     9.7028     38.293
        65.     9.7497     34.978
        65.     9.8003     30.558
        65.     9.8978     24.295
        65.     9.9195     22.086
        65.     9.9412     20.612
        65.     9.9592     18.771
        65.     9.9737     18.402
        65.     9.9953     18.032
        65.     10.021     17.663
        65.     10.078     18.394
        65.     10.097     20.601
        65.     10.115     20.232
        65.     10.144     20.597
        65.     10.162     21.332
        65.     10.183     16.179
        65.     10.201      2.194
        65.     10.219     3.6646
        65.     10.241     7.7109
        65.     10.263     12.125
        65.     10.281     15.068
        65.     10.299     16.906
        65.     10.342     20.951
        65.     10.382     23.156
        65.     10.425     22.049
        65.     10.461     22.414
        70.     8.4941     63.118
        70.     8.5912     59.424
        70.     8.6921     61.819
        70.     8.7892     59.602
        70.       8.89      60.89
        70.     8.9116     54.431
        70.     8.9257     38.748
        70.     8.9506      13.84
        70.     8.9757     3.1376
        70.     9.0153     7.5642
        70.      9.037     11.069
        70.     9.0514     13.651
        70.     9.0694     15.127
        70.     9.0874      15.68
        70.     9.1018     15.864
        70.     9.1162     15.679
        70.     9.1378      14.94
        70.     9.1594     14.386
        70.     9.1738     13.832
        70.     9.1918     14.753
        70.      9.235     15.674
        70.     9.2747     19.548
        70.     9.2963     21.392
        70.     9.3432     26.372
        70.     9.3936      30.06
        70.     9.4476     32.088
        70.     9.5017     35.038
        70.     9.5413     36.143
        70.     9.5953     36.879
        70.     9.6529     36.877
        70.     9.6961     36.138
        70.     9.7465     32.999
        70.     9.8004     30.414
        70.     9.8508     26.907
        70.     9.9011     20.079
        70.     9.9227     18.233
        70.     9.9406     15.096
        70.     9.9586     13.435
        70.     9.9838     11.035
        70.     10.005     9.9274
        70.     10.023     7.7127
        70.     10.084     5.1275
        70.     10.106     4.5732
        70.     10.124     5.1261
        70.     10.149     5.1252
        70.     10.164     6.6006
        70.     10.193     10.843
        70.     10.207     11.581
        70.     10.225      7.152
        70.     10.246     3.2767
        70.     10.268     2.5379
        70.     10.293     1.9835
        70.     10.315     2.1672
        70.     10.351     3.2729
        70.      10.39     4.3785
        70.     10.434     4.5615
        70.     10.473     4.3755
        70.     10.509     5.1123
       135.     8.5012     13.023
       135.     8.5984     14.882
       135.      8.692     14.881
       135.     8.7964      16.74
       135.     8.9008     20.459
       135.     8.9152     20.924
       135.     8.9368     22.784
       135.     8.9584     25.109
       135.       8.98     26.039
       135.     9.0016     30.225
       135.     9.0196      31.62
       135.     9.0412      34.41
       135.     9.0556     38.596
       135.     9.0736     41.387
       135.     9.0952     46.037
       135.     9.1168     48.828
       135.     9.1384     50.688
       135.     9.1564     54.409
       135.     9.1852     55.804
       135.     9.1996     56.269
       135.     9.2464     55.803
       135.     9.2896     53.011
       135.     9.3076     53.011
       135.      9.358     50.685
       135.     9.4084     49.754
       135.     9.4552     51.614
       135.     9.5056     53.008
       135.     9.5596     59.054
       135.     9.6136     65.565
       135.     9.6604     73.006
       135.     9.7145     85.563
       135.     9.7649     92.074
       135.     9.8153     107.89
       135.     9.8657     117.19
       135.     9.9197     129.28
       135.     9.9377       133.
       135.     9.9593     136.26
       135.     9.9809     137.19
       135.     10.003     142.77
       135.     10.021     146.02
       135.     10.042     146.49
       135.     10.103     148.81
       135.     10.125     144.63
       135.     10.143     141.37
       135.     10.157     136.25
       135.     10.182     125.56
       135.       10.2     92.068
       135.     10.229     39.044
       135.     10.244     31.602
       135.     10.265     66.485
       135.      10.29     77.648
       135.     10.305     84.624
       135.     10.323     90.205
       135.     10.366     89.274
       135.     10.406     85.088
       135.     10.449     81.366
       135.     10.485      79.97
       135.     10.517     82.295
       140.     8.5072     3.8938
       140.      8.604     4.9558
       140.     8.7045     2.8319
       140.     8.8049     4.6018
       140.     8.9054     10.619
       140.     8.9233     15.575
       140.     8.9413     22.655
       140.     8.9628     29.381
       140.     8.9807     27.257
       140.     9.0058     21.593
       140.     9.0238     20.885
       140.     9.0453     18.761
       140.     9.0632     19.115
       140.     9.0776     20.177
       140.     9.1027     21.239
       140.     9.1278     21.593
       140.     9.1457     24.779
       140.     9.1637     26.903
       140.     9.1816     27.965
       140.     9.2462     28.673
       140.     9.2857     26.903
       140.     9.3072     25.133
       140.     9.3574     22.301
       140.      9.404     19.823
       140.     9.4543     18.407
       140.     9.5081     17.699
       140.     9.5583     17.699
       140.     9.6085     19.115
       140.     9.6587     21.947
       140.     9.7126     25.487
       140.     9.7628     32.566
       140.     9.8094     37.876
       140.     9.9099     59.469
       140.      9.935     64.779
       140.     9.9493     66.549
       140.     9.9673     76.106
       140.     9.9924     77.876
       140.      10.01     82.124
       140.     10.028     86.726
       140.     10.089     93.451
       140.     10.111     92.743
       140.     10.132     92.389
       140.     10.154     90.619
       140.     10.172     82.832
       140.      10.19     76.814
       140.     10.215     21.947
       140.     10.236     35.398
       140.     10.254     53.451
       140.     10.276     62.301
       140.     10.294     66.549
       140.     10.319     70.088
       140.     10.358     64.779
       140.     10.398     64.779
       140.     10.437     64.425
       140.     10.477     66.195
       140.     10.513     68.319
       145.     8.5108     4.5889
       145.     8.6078     4.2502
       145.     8.7048     2.6001
       145.      8.809    0.94906
       145.     8.9097     4.5444
       145.     8.9278     11.428
       145.     8.9495      24.54
       145.     8.9677     38.308
       145.     8.9857     39.618
       145.     9.0072     33.714
       145.      9.025     24.532
       145.     9.0501      21.25
       145.     9.0645     18.625
       145.      9.086     17.312
       145.     9.1076     16.326
       145.     9.1255     16.651
       145.     9.1471     16.977
       145.     9.1687     18.286
       145.     9.1867     20.251
       145.     9.2119     19.593
       145.     9.2514     21.228
       145.     9.2874     21.879
       145.     9.3125     21.549
       145.     9.3592      20.56
       145.     9.4131     17.931
       145.     9.4598     14.647
       145.     9.5101     12.018
       145.     9.5604      8.734
       145.     9.6071     6.4337
       145.     9.6609     4.4604
       145.     9.7077     2.8159
       145.     9.7615     1.4984
       145.     9.8155     2.8038
       145.     9.8658      5.749
       145.     9.9162     10.661
       145.     9.9342      13.61
       145.     9.9595     17.542
       145.     9.9775     20.819
       145.     9.9955     25.407
       145.     10.017     27.372
       145.     10.042     32.615
       145.       10.1     43.756
       145.     10.122     44.081
       145.      10.14     45.719
       145.     10.158     47.684
       145.     10.179     46.698
       145.     10.201     40.138
       145.     10.218     27.349
       145.     10.236      23.74
       145.     10.258     30.295
       145.     10.283     36.522
       145.     10.305     39.798
       145.     10.323      40.78
       145.     10.362     39.792
       145.     10.402     37.492
       145.     10.441     37.816
       145.     10.481     38.139
       145.      10.52     41.086
       150.     8.5074     10.727
       150.     8.7047     9.9984
       150.     8.8088     5.4522
       150.     8.9092     2.5423
       150.     8.9236     8.1786
       150.     8.9415     23.451
       150.     8.9667     45.453
       150.     8.9847     58.724
       150.     9.0098     55.457
       150.     9.0277     47.996
       150.     9.0456     42.541
       150.     9.0672     37.087
       150.     9.0887     35.086
       150.     9.1066     31.995
       150.     9.1245     31.813
       150.     9.1461     31.268
       150.     9.1676     31.995
       150.     9.1855     33.267
       150.     9.2465     39.994
       150.      9.286     42.176
       150.     9.3075     43.266
       150.     9.3542      45.63
       150.      9.408     41.629
       150.     9.4546     44.538
       150.     9.5084     42.174
       150.     9.5586     39.446
       150.     9.6089     36.355
       150.     9.6591     31.264
       150.     9.7093     25.263
       150.     9.7595     19.263
       150.     9.8097     12.717
       150.     9.9065     2.8983
       150.     9.9316      1.989
       150.     9.9496     2.5343
       150.     9.9711     1.4432
       150.     9.9926     1.9885
       150.     10.018     3.4429
       150.     10.032     4.3518
       150.     10.089     8.5332
       150.     10.111      9.624
       150.     10.133     11.806
       150.      10.15      13.26
       150.     10.172     15.623
       150.      10.19     18.714
       155.     8.5073     27.607
       155.     8.6077     25.766
       155.     8.7082     23.188
       155.     8.8014     15.825
       155.      8.909     2.2045
       155.     8.9306     6.9896
       155.     8.9485     26.499
       155.     8.9665     68.094
       155.     8.9845     89.075
       155.      9.006     97.173
       155.     9.0239     87.602
       155.     9.0454     81.344
       155.      9.067     76.927
       155.     9.0813     71.773
       155.     9.1028     69.933
       155.     9.1244     69.932
       155.     9.1459     67.356
       155.     9.1674     69.564
       155.     9.1853     73.245
       155.     9.2105     73.981
       155.     9.2499     82.815
       155.     9.2894      89.44
       155.     9.3109     92.385
       155.     9.3576     100.85
       155.     9.4078     102.32
       155.     9.4544     105.63
       155.     9.5082     105.63
       155.     9.5585     104.53
       155.     9.6087     103.79
       155.     9.6553     99.743
       155.     9.7091     94.221
       155.     9.7593     81.337
       155.      9.806     69.189
       155.     9.8598     50.784
       155.       9.91     36.428
       155.     9.9279     29.065
       155.     9.9494     23.176
       155.     9.9709      18.39
       155.     9.9889     13.237
       155.      10.01     9.1873
       155.     10.032     6.6104
       155.     10.089     2.5607
       155.     10.107     2.1925
       155.     10.125     1.4561
       155.     10.157     1.8239
       155.     10.175     5.8728
       155.     10.197     15.443
       155.     10.215     34.216
       155.     10.236     38.633
       155.     10.262     34.215
       155.     10.276     26.853
       155.     10.294     25.013
       155.     10.315     23.908
       155.     10.362     19.122
       155.     10.401     14.337
       155.     10.441     13.968
       155.     10.477       13.6
       155.     10.513     13.231
       162.     8.5005     62.727
       162.     8.7018     59.091
       162.     8.8024     48.182
       162.     8.8995     8.1825
       162.     8.9175     7.2734
       162.     8.9426     37.273
       162.     8.9642     58.183
       162.     8.9822       180.
       162.     9.0037     198.18
       162.     9.0217     195.46
       162.     9.0433     193.64
       162.     9.0612     175.46
       162.     9.0792       170.
       162.     9.1044     166.36
       162.     9.1259     166.36
       162.     9.1511     168.18
       162.     9.1691     168.18
       162.      9.187     174.55
       162.     9.2409     196.36
       162.     9.2877     214.55
       162.     9.3092     223.64
       162.      9.356     243.64
       162.     9.4566     266.37
       162.     9.5069     280.91
       162.     9.5608     288.18
       162.     9.6076     290.91
       162.     9.6579     291.82
       162.     9.7082     282.73
       162.     9.7513     265.46
       162.     9.8088     228.18
       162.     9.9095     157.28
       162.     9.9311     136.37
       162.     9.9454     120.91
       162.      9.967      92.73
       162.      9.985     80.002
       162.     10.007     67.275
       162.     10.028     54.548
       162.     10.086     29.094
       162.     10.111     23.639
       162.     10.129     19.094
       162.     10.147     17.275
       162.     10.168     16.366
       162.     10.193     28.185
       162.     10.211     60.003
       162.     10.229     63.639
       162.     10.251      52.73
       162.     10.273     44.548
       162.      10.29     41.821
       162.     10.312     35.458
       162.     10.352     30.003
       162.     10.391      22.73
       162.     10.434     19.094
       162.     10.477      13.64
       162.      10.51     10.912
       167.     8.5108     88.461
       167.     8.6041     88.453
       167.     8.7045     82.675
       167.     8.8085     63.435
       167.     8.9054     11.503
       167.     8.9341     3.8082
       167.     8.9449       36.5
       167.     8.9664     142.27
       167.     8.9844     224.96
       167.     9.0059     263.42
       167.     9.0238     257.65
       167.     9.0454     249.95
       167.     9.0669      246.1
       167.     9.0848     238.41
       167.     9.1063     236.49
       167.     9.1279     236.48
       167.     9.1458     236.48
       167.     9.1673     242.25
       167.     9.1817     249.94
       167.     9.2032     259.55
       167.     9.2427     278.78
       167.     9.2857     303.78
       167.     9.3073     317.24
       167.     9.3539     353.77
       167.     9.4042     374.92
       167.     9.4544     388.38
       167.     9.5082     407.61
       167.     9.5584     422.99
       167.     9.6051      449.9
       167.     9.6553      449.9
       167.     9.7091      442.2
       167.     9.7557     424.89
       167.     9.8095     388.35
       167.     9.8562     338.34
       167.     9.9064     272.95
       167.     9.9243     244.11
       167.     9.9422     221.03
       167.     9.9673     188.33
       167.     9.9853     163.33
       167.     9.9996      144.1
       167.     10.025     122.94
       167.     10.089     76.784
       167.     10.107     63.321
       167.     10.125     53.704
       167.     10.147     42.164
       167.     10.172     38.315
       167.      10.19     38.314
       167.     10.204      55.62
       167.     10.226     74.849
       167.     10.247     65.232
       167.     10.269     57.538
       167.     10.283     49.844
       167.     10.304     51.765
       167.     10.348     44.069
       167.     10.391     32.527
       167.     10.426     22.908
       167.     10.466     17.136
ENDDATA            777
ENDSUBENT          801
SUBENT        F0983003   20090203   20090508   20090508       F035
BIB                  5         15
REACTION   (6-C-12(A,INL)6-C-12,PAR,DA,,REL)
DETECTOR   Four sets of detector configurations were used. The
           angular resolution ranged between +-0.15 at forward
           angles to +-0.75 degr. at backward angles.
SAMPLE     Target thicknesses were approximately 50 mu-g/cm2.
ERR-ANALYS Statistical errors were less than 3%; the main source
           of error in determining the inelastic yield arose from
           systematic errors in the background corrections for
           underlying groups and assumptions relating to the
           detector response functions. It is considered that the
           errors are best estimated from the spread of values
           obtained for the repeated points. The average variation
           found by this method is 5%.
           (ANG-ERR-D) Angle digitizing error
STATUS     (CURVE) Fig.6 (J,NP/A,173,609,1971)
ENDBIB              15
COMMON               3          3
E-LVL      ANG-ERR-D  ERR-DIG
MEV        ADEG       ARB-UNITS
  4.439     0.296      0.302
ENDCOMMON            3
DATA                 3        273
EN         ANG-CM     DATA-CM
MEV        ADEG       ARB-UNITS
       8.30     48.503     6.1518
       8.30     55.643     5.5171
       8.30     63.556     4.1466
       8.30     99.498     4.1614
       8.30     111.14      4.733
       8.30     123.05     4.4551
       8.30     128.33     4.9485
       8.30     133.03     4.9384
       8.30     137.46     5.8695
       8.30     145.45     5.8524
       8.30      152.4      6.457
       8.30     158.34     7.8207
       8.60     48.248     4.1367
       8.60      56.09      3.484
       8.60     64.408     3.9214
       8.60     83.494     3.1318
       8.60      99.77      3.439
       8.60     111.82      3.755
       8.60      123.2     3.1632
       8.60     128.52     3.8795
       8.60     133.04     4.1202
       8.60     138.34     4.7229
       8.60     144.92     4.7093
       8.60     153.11     5.6697
       8.60     158.98     7.7715
       8.94      21.77     22.186
       8.94     28.962      17.48
       8.94     37.402     14.858
       8.94     43.713     12.252
       8.94     52.896     10.671
       8.94     60.284     12.243
       8.94     75.144     10.503
       8.94     81.588     12.199
       8.94     82.582     13.704
       8.94     95.628     14.536
       8.94     107.47     14.563
       8.94      108.2     15.488
       8.94     113.18     15.683
       8.94     119.37     16.799
       8.94     124.04      22.23
       8.94     127.13     22.555
       8.94     128.38     24.639
       8.94     133.21     27.975
       8.94     138.51      30.61
       8.94     141.64     32.447
       8.94     142.38     33.372
       8.94     148.23     38.794
       8.94     155.05      44.79
       9.00     22.301     25.095
       9.00     30.731     17.451
       9.00      38.74     14.195
       9.00     44.158     11.986
       9.00     53.361     9.6513
       9.00     60.462     9.6314
       9.00      75.34     6.8184
       9.00     82.696     8.4142
       9.00      83.87     7.6027
       9.00     96.655     7.9132
       9.00      97.58     6.0631
       9.00     108.49     7.5335
       9.00     114.89     8.9011
       9.00     118.93     9.9289
       9.00     124.39     11.646
       9.00      125.6      13.49
       9.00     129.14     12.902
       9.00     133.89     14.505
       9.00     138.64     15.878
       9.00     142.42     14.828
       9.00     143.14     15.865
       9.00     149.79     17.809
       9.00     155.49     19.294
       9.06     21.939     17.207
       9.06     30.187     13.445
       9.06     38.447     10.853
       9.06     44.821     9.2005
       9.06     52.373     6.8439
       9.06     60.177      6.124
       9.06     75.547     4.5678
       9.06     83.122     4.6671
       9.06      96.14     4.7538
       9.06     96.606      3.934
       9.06     108.21     4.1409
       9.06     115.07     4.2419
       9.06     120.29     5.2823
       9.06     124.56      6.325
       9.06      129.3     7.1326
       9.06     134.74     7.1199
       9.06     138.77     7.1105
       9.06     143.03     6.9837
       9.06     150.36     6.7327
       9.06      155.8     6.6031
       9.20     22.136     15.296
       9.20     30.568     11.536
       9.20     39.034      9.217
       9.20     46.298     6.1505
       9.20     52.906     5.3339
       9.20     61.402      4.284
       9.20     75.361     4.0337
       9.20     81.494       3.16
       9.20     95.207     2.5064
       9.20     107.29     2.8354
       9.20     113.92     3.0568
       9.20     119.14     3.6837
       9.20     123.88      4.023
       9.20     128.85      4.016
       9.20     133.36     4.3557
       9.20     137.62      4.292
       9.20     141.15     3.7681
       9.20     156.03     2.3632
       9.40     21.514     10.671
       9.40     29.157     12.625
       9.40     38.004     9.8142
       9.40     45.473     7.8783
       9.40     60.235     5.3421
       9.40     74.586     4.2004
       9.40     82.572     3.2501
       9.40     94.152     3.5092
       9.40     94.842     3.1009
       9.40      106.9     3.3588
       9.40     112.83     4.0395
       9.40     117.33     4.3757
       9.40      122.3     4.5946
       9.40     128.21     4.8689
       9.40     131.72     4.1048
       9.40     136.47     4.6725
       9.40      139.7     3.0963
       9.40     154.03     1.4903
       9.60      21.92     26.047
       9.60     29.639      20.46
       9.60     37.649     19.132
       9.60     46.533     12.359
       9.60     46.989     11.174
       9.60     60.405     7.9353
       9.60     74.548     6.2327
       9.60     82.325     5.1425
       9.60     94.364     4.9851
       9.60      105.7     5.3033
       9.60     113.29     7.6454
       9.60     117.77     7.2759
       9.60     122.72     7.1414
       9.60     128.13     5.5856
       9.60     132.61     4.9794
       9.60     137.31     3.1891
       9.60     154.76     1.3575
       9.80     22.422     37.979
       9.80     29.693     34.999
       9.80     37.438     32.134
       9.80     45.502     19.707
       9.80      46.96     22.298
       9.80       60.6     18.938
       9.80      74.87     10.735
       9.80     81.912     8.2277
       9.80       94.2     8.8867
       9.80     104.63     11.324
       9.80     112.23     14.481
       9.80     116.94     13.281
       9.80     122.58     12.078
       9.80      128.9     8.3932
       9.80     131.71     6.8473
       9.80     136.39     4.3495
       9.80     154.32     3.4511
      10.00     22.278     44.396
      10.00     30.391     43.538
      10.00     36.808     40.654
      10.00     44.837     30.274
      10.00     58.203     19.512
      10.00     73.078      12.14
      10.00     79.281     9.8237
      10.00     93.102     12.776
      10.00     105.16     18.576
      10.00     111.36     23.175
      10.00     116.51     24.155
      10.00     121.06     21.285
      10.00      130.6     14.408
      10.00     135.15     11.084
      10.00     140.11      6.624
      10.00     153.13     13.323
      10.10     21.467     48.314
      10.10       30.2     41.435
      10.10     36.181     37.076
      10.10     43.438     24.838
      10.10     57.921     13.715
      10.10     72.711     7.4979
      10.10     78.986     7.2468
      10.10     93.924     10.845
      10.10     104.27      18.34
      10.10     109.68     22.086
      10.10     115.55     25.945
      10.10     119.71     24.104
      10.10     122.73     24.207
      10.10     129.59      16.65
      10.10     133.73     13.211
      10.10     138.31      8.629
      10.10     145.79     11.455
      10.10     151.79     23.759
      10.18     20.186     69.582
      10.18     29.194      53.89
      10.18     35.753     44.078
      10.18     43.259     35.067
      10.18     44.322     29.769
      10.18     57.054     14.289
      10.18     73.258     10.302
      10.18      78.54     6.7102
      10.18     79.339     12.115
      10.18     93.021      22.41
      10.18      93.56      26.32
      10.18     93.834     28.505
      10.18     103.17     42.617
      10.18     103.98     36.514
      10.18     109.27     45.466
      10.18     115.29     44.287
      10.18     118.94     52.902
      10.18     121.89     48.975
      10.18     123.26     47.243
      10.18     128.14      47.45
      10.18     133.16     42.364
      10.18     138.26      41.19
      10.18     145.56     46.104
      10.18     152.66     77.373
      10.26     22.937     2.6081
      10.26     30.492     7.2682
      10.26     38.407     16.977
      10.26     44.849     23.595
      10.26     58.749     21.674
      10.26     74.155     14.922
      10.26     79.469     13.627
      10.26     92.919      21.58
      10.26     104.31      21.74
      10.26     110.86     23.422
      10.26     114.34     22.827
      10.26     120.95     17.851
      10.26     124.39     15.993
      10.26     130.14     13.433
      10.26      134.3     12.259
      10.26     138.78     14.757
      10.26     146.24     25.043
      10.26     152.32      35.91
      10.34     22.438     4.4617
      10.34     29.974     9.4236
      10.34     37.748     14.617
      10.34     42.935     18.311
      10.34     57.059     15.451
      10.34     73.249     11.302
      10.34     79.069     11.739
      10.34     91.774     19.465
      10.34     102.74     21.387
      10.34     109.91     19.492
      10.34     114.71     15.632
      10.34     119.32     13.632
      10.34     123.45     10.938
      10.34     129.31     13.002
      10.34     133.01      12.17
      10.34     138.19     15.516
      10.34     144.83     22.226
      10.34     152.22     31.722
      10.42     22.264      7.454
      10.42     29.516      9.775
      10.42     36.783     12.803
      10.42      42.61     13.599
      10.42     56.979     11.403
      10.42     73.475     10.965
      10.42     79.525     11.287
      10.42     91.757     18.535
      10.42      102.7     19.304
      10.42     109.86     17.263
      10.42     114.47     15.353
      10.42     118.83     12.265
      10.42     123.67     10.236
      10.42     129.23     9.3821
      10.42     133.42     9.5965
      10.42     137.42     12.052
      10.42     144.35     21.449
      10.42     152.26     33.317
ENDDATA            275
ENDSUBENT          299
SUBENT        F0983004   20090203   20090508   20090508       F035
BIB                  5         15
REACTION   (6-C-12(A,INL)6-C-12,PAR,DA)
DETECTOR   Four sets of detector configurations were used. The
           angular resolution ranged between +-0.15 at forward
           angles to +-0.75 degr. at backward angles.
SAMPLE     Target thicknesses were approximately 50 mu-g/cm2.
ERR-ANALYS Statistical errors were less than 3%; the main source
           of error in determining the inelastic yield arose from
           systematic errors in the background corrections for
           underlying groups and assumptions relating to the
           detector response functions. It is considered that the
           errors are best estimated from the spread of values
           obtained for the repeated points. The average variation
           found by this method is 5%.
           (EN-ERR-DIG) Energy digitizing error
STATUS     (CURVE) Fig.2 (J,NP/A,202,257,1973)
ENDBIB              15
COMMON               3          3
E-LVL      EN-ERR-DIG ERR-DIG
MEV        MEV        B/SR
  10.844    0.004      0.001
ENDCOMMON            3
DATA                 3        373
ANG        EN         DATA
ADEG       MEV        B/SR
      25.98     9.0161     1.7752
      25.98     9.0618     1.8104
      25.98     9.1132     1.8456
      25.98     9.1703     1.8459
      25.98     9.2161     1.8113
      25.98     9.2676     1.7651
      25.98     9.3134     1.6956
      25.98     9.3649     1.6378
      25.98     9.4164     1.5799
      25.98     9.4622     1.5221
      25.98     9.5195     1.4526
      25.98     9.5653     1.3948
      25.98     9.6168     1.3369
      25.98     9.6626     1.2674
      25.98     9.7255     1.2329
      25.98     9.7713     1.1867
      25.98      9.817     1.1753
      25.98     9.8684     1.1989
      25.98     9.9198     1.2224
      25.98     9.9712      1.246
      25.98     10.017     1.2695
      25.98     10.063     1.2814
      25.98     10.114     1.2352
      25.98     10.166      1.096
      25.98     10.212     0.9683
      25.98     10.263     1.1082
      25.98      10.32     1.1317
      25.98     10.371      1.132
      25.98     10.428     1.1324
       39.6     9.0059   4.19E-02
       39.6     9.0513   5.35E-02
       39.6     9.1024   5.59E-02
       39.6     9.1536   4.66E-02
       39.6     9.2048   3.97E-02
       39.6     9.2559   2.81E-02
       39.6     9.3071   2.11E-02
       39.6     9.3526   1.88E-02
       39.6     9.4037   1.66E-02
       39.6     9.4605   1.89E-02
       39.6      9.506   2.13E-02
       39.6     9.5514   2.36E-02
       39.6     9.6025   3.30E-02
       39.6     9.6536   4.46E-02
       39.6     9.7047   5.86E-02
       39.6     9.7501   7.26E-02
       39.6     9.8011   9.36E-02
       39.6     9.8521     0.1262
       39.6     9.9087      0.182
       39.6      9.954     0.2146
       39.6     9.9994     0.2425
       39.6      10.05     0.2751
       39.6     10.107     0.3008
       39.6     10.158     0.3241
       39.6     10.209     0.4962
       39.6     10.249     0.4171
       39.6       10.3     0.3474
       39.6     10.351     0.3195
       39.6     10.403     0.3033
       39.6     10.459     0.2871
       39.6     10.505     0.2754
      52.37     9.0057      0.207
      52.37     9.0514     0.1558
      52.37     9.1086   9.77E-02
      52.37     9.1543   6.74E-02
      52.37     9.2057   5.12E-02
      52.37     9.2571   4.65E-02
      52.37     9.3086   5.12E-02
      52.37       9.36   6.05E-02
      52.37     9.4057   6.98E-02
      52.37     9.4571   7.91E-02
      52.37     9.5029   8.84E-02
      52.37     9.5543     0.1093
      52.37     9.6057     0.1279
      52.37     9.6514     0.1558
      52.37     9.7029     0.1837
      52.37     9.7543     0.2233
      52.37        9.8     0.2581
      52.37     9.8457        0.3
      52.37     9.9029     0.3465
      52.37     9.9543     0.3861
      52.37        10.      0.414
      52.37     10.051     0.4233
      52.37     10.103     0.4256
      52.37     10.154     0.3419
      52.37     10.206     0.3674
      52.37     10.251      0.393
      52.37     10.309      0.393
      52.37     10.354     0.3721
      52.37       10.4     0.3535
      52.37     10.446     0.3279
      52.37     10.503     0.3047
      57.42     9.0219     0.2256
      57.42     9.0566     0.1933
      57.42     9.1028     0.1447
      57.42      9.149   9.85E-02
      57.42     9.2006   8.12E-02
      57.42     9.2578   7.89E-02
      57.42     9.3035   8.01E-02
      57.42     9.3549   8.24E-02
      57.42     9.4006   8.82E-02
      57.42     9.4519   9.40E-02
      57.42     9.5033      0.101
      57.42     9.5547     0.1045
      57.42     9.6061      0.108
      57.42     9.6517     0.1138
      57.42     9.7031     0.1219
      57.42     9.7599      0.145
      57.42     9.8111     0.1705
      57.42     9.8622     0.1994
      57.42     9.9019     0.2295
      57.42     9.9587     0.2584
      57.42     10.004     0.2654
      57.42     10.062     0.2631
      57.42     10.107     0.2504
      57.42     10.154     0.2007
      57.42       10.2      0.151
      57.42     10.222     0.2007
      57.42     10.256     0.2331
      57.42     10.307     0.2505
      57.42     10.359      0.232
       70.8     9.0057     0.1563
       70.8     9.0517     0.1447
       70.8     9.1094     0.1285
       70.8     9.1555      0.114
       70.8     9.1959   9.84E-02
       70.8     9.2592   8.33E-02
       70.8      9.305   8.10E-02
       70.8     9.3564   8.10E-02
       70.8     9.4079   8.05E-02
       70.8     9.4536   7.76E-02
       70.8     9.5052   7.36E-02
       70.8     9.5511   6.49E-02
       70.8     9.6087   5.10E-02
       70.8      9.649   4.00E-02
       70.8     9.7007   2.96E-02
       70.8     9.7467   1.97E-02
       70.8     9.7983   1.28E-02
       70.8     9.8442   6.45E-03
       70.8     9.8958   2.98E-03
       70.8     9.9472   1.84E-03
       70.8     10.004   2.44E-03
       70.8     10.044   4.19E-03
       70.8     10.101   1.00E-02
       70.8     10.152   2.16E-02
       70.8     10.209   4.48E-02
       70.8     10.249   5.06E-02
       70.8       10.3   4.89E-02
       70.8     10.352   4.66E-02
       70.8     10.403   4.95E-02
        90.     9.0024   4.07E-03
        90.     9.0478   1.16E-02
        90.     9.0932   1.51E-02
        90.       9.15   1.57E-02
        90.     9.1955   1.57E-02
        90.     9.2466   1.69E-02
        90.     9.2977   2.10E-02
        90.     9.3487   2.68E-02
        90.     9.3998   3.09E-02
        90.     9.4452   3.32E-02
        90.     9.4963   3.55E-02
        90.     9.5531   3.79E-02
        90.     9.5986   3.85E-02
        90.     9.6497   3.79E-02
        90.     9.6952   3.67E-02
        90.     9.7464   3.44E-02
        90.     9.7975   3.03E-02
        90.      9.843   2.63E-02
        90.     9.8943   2.11E-02
        90.     9.9455   1.47E-02
        90.      9.991   8.27E-03
        90.     10.042   4.79E-03
        90.     10.093   3.05E-03
        90.      10.15   6.55E-03
        90.      10.19   1.24E-02
        90.     10.241   8.31E-03
        90.     10.292   3.08E-03
        90.     10.349   1.34E-03
        90.       10.4   2.51E-03
      109.5     8.9965   1.90E-02
      109.5     9.0422   2.18E-02
      109.5     9.0935   2.65E-02
      109.5     9.1449   3.05E-02
      109.5     9.1906   3.22E-02
      109.5      9.242   3.22E-02
      109.5     9.2992   3.05E-02
      109.5     9.3506   3.00E-02
      109.5     9.3963   2.94E-02
      109.5     9.4478   2.94E-02
      109.5     9.4935   3.00E-02
      109.5     9.5506   3.06E-02
      109.5     9.5963   3.29E-02
      109.5     9.6419   3.52E-02
      109.5     9.6933   3.81E-02
      109.5     9.7446   4.15E-02
      109.5      9.796   4.67E-02
      109.5     9.8473   5.25E-02
      109.5     9.8986   5.77E-02
      109.5     9.9499   6.34E-02
      109.5     9.9955   6.92E-02
      109.5     10.041   7.32E-02
      109.5     10.098   7.44E-02
      109.5     10.144   6.35E-02
      109.5     10.196   3.70E-02
      109.5     10.247   4.74E-02
      109.5     10.299   5.49E-02
      109.5      10.35   5.83E-02
      109.5     10.396   6.12E-02
      109.5     10.447   6.18E-02
      109.5     10.493   5.84E-02
      109.5     10.545   4.80E-02
      109.5     10.596   3.88E-02
      109.5     10.642   3.37E-02
      109.5     10.699   2.85E-02
      122.6     9.0024   5.99E-02
      122.6     9.0533   8.55E-02
      122.6     9.0985     0.1076
      122.6     9.1498     0.1146
      122.6     9.1955     0.1175
      122.6     9.2527     0.1129
      122.6     9.3043     0.1036
      122.6     9.3503   9.31E-02
      122.6     9.4018   8.61E-02
      122.6     9.4591   8.09E-02
      122.6     9.5049   7.63E-02
      122.6     9.5565   6.99E-02
      122.6     9.6023   6.52E-02
      122.6     9.6481   5.83E-02
      122.6     9.6997   5.25E-02
      122.6     9.7513   4.49E-02
      122.6     9.8029   3.68E-02
      122.6     9.8488   2.87E-02
      122.6     9.9004   1.82E-02
      122.6     9.9463   8.34E-03
      122.6     10.004   2.54E-03
      122.6     10.061   3.72E-03
      122.6     10.101   8.38E-03
      122.6     10.152   1.71E-02
      122.6     10.209   1.36E-02
      122.6     10.255   4.34E-03
      122.6     10.301   9.58E-03
      122.6     10.352   1.54E-02
      122.6     10.403   2.24E-02
      122.6     10.449   2.76E-02
     123.80     9.0057   5.27E-02
     123.80     9.0571   8.61E-02
     123.80     9.1029     0.1066
     123.80     9.1543      0.119
     123.80     9.1943      0.126
     123.80     9.2514     0.1254
     123.80     9.2971     0.1154
     123.80     9.3486     0.1061
     123.80        9.4   9.61E-02
     123.80     9.4514   8.85E-02
     123.80     9.4971   8.50E-02
     123.80     9.5486   8.14E-02
     123.80     9.6057   7.79E-02
     123.80     9.6514   7.27E-02
     123.80     9.7086   6.62E-02
     123.80     9.7486   5.92E-02
     123.80        9.8   5.04E-02
     123.80     9.8514   3.93E-02
     123.80     9.9029   2.64E-02
     123.80     9.9486   1.58E-02
     123.80        10.   5.27E-03
     123.80     10.051   2.34E-03
     123.80     10.097   3.52E-03
     123.80     10.149   1.05E-02
     123.80       10.2   2.40E-02
     123.80     10.246   5.27E-03
     123.80     10.303   6.45E-03
     123.80     10.349   1.41E-02
     123.80       10.4   1.88E-02
     123.80     10.451   2.46E-02
     123.80     10.503   2.93E-02
     123.80     10.549   3.28E-02
     123.80     10.606   3.05E-02
     123.80     10.651   2.70E-02
     123.80     10.703   2.46E-02
      140.8     9.0055   7.97E-02
      140.8     9.0566     0.1151
      140.8      9.102     0.1349
      140.8     9.1531     0.1518
      140.8     9.1986     0.1611
      140.8     9.2497     0.1576
      140.8     9.3009     0.1512
      140.8     9.3463       0.15
      140.8     9.4031     0.1518
      140.8     9.4486     0.1558
      140.8     9.4997     0.1692
      140.8     9.5508     0.1849
      140.8     9.5962     0.1989
      140.8     9.6473     0.2134
      140.8     9.6985     0.2233
      140.8     9.7439     0.2303
      140.8      9.795     0.2314
      140.8     9.8462     0.2291
      140.8     9.8973     0.2192
      140.8     9.9428     0.1977
      140.8     9.9997     0.1646
      140.8     10.057     0.1494
      140.8     10.102     0.1268
      140.8     10.159   8.55E-02
      140.8     10.193   3.67E-02
      140.8     10.244   6.98E-02
      140.8     10.295   8.14E-02
      140.8     10.352   7.56E-02
      140.8     10.398   7.10E-02
      140.8     10.449   6.75E-02
      140.8       10.5   6.75E-02
      149.4      9.005   3.00E-02
      149.4     9.0449   3.77E-02
      149.4     9.1018   4.77E-02
      149.4     9.1473   5.42E-02
      149.4     9.1929   5.95E-02
      149.4     9.2501   5.71E-02
      149.4     9.3016   5.24E-02
      149.4     9.3474   4.89E-02
      149.4     9.3932   4.72E-02
      149.4     9.4446   4.89E-02
      149.4     9.4959   5.31E-02
      149.4     9.5472   5.90E-02
      149.4     9.5985   6.66E-02
      149.4     9.6383   7.43E-02
      149.4     9.7009   8.43E-02
      149.4     9.7521   9.49E-02
      149.4     9.7976     0.1043
      149.4     9.8487     0.1155
      149.4     9.8942     0.1261
      149.4     9.9455     0.1314
      149.4     9.9912     0.1326
      149.4     10.048     0.1326
      149.4       10.1     0.1267
      149.4     10.141   9.62E-02
      149.4     10.193   3.38E-02
      149.4      10.25   6.50E-02
      149.4     10.301   7.91E-02
      149.4     10.352   7.92E-02
      149.4     10.404   7.56E-02
      149.4      10.45   7.39E-02
      149.4     10.507   7.39E-02
      149.4     10.552   7.69E-02
      149.4     10.604   7.86E-02
      149.4     10.655   7.86E-02
      154.0     8.9997   2.41E-02
      154.0     9.0455   1.90E-02
      154.0     9.0969   1.73E-02
      154.0     9.1483   2.07E-02
      154.0      9.194   2.47E-02
      154.0     9.2511   2.53E-02
      154.0     9.3026   2.42E-02
      154.0     9.3483   2.02E-02
      154.0     9.3998   1.67E-02
      154.0     9.4513   1.33E-02
      154.0     9.5027   1.10E-02
      154.0     9.5485   9.84E-03
      154.0     9.5999   9.27E-03
      154.0     9.6513   1.22E-02
      154.0      9.697   1.45E-02
      154.0     9.7426   2.02E-02
      154.0     9.7939   2.77E-02
      154.0      9.851   3.63E-02
      154.0     9.9023   4.44E-02
      154.0     9.9479   5.47E-02
      154.0     9.9992   6.39E-02
      154.0     10.051   7.37E-02
      154.0     10.108   7.49E-02
      154.0     10.148   6.85E-02
      154.0       10.2   2.54E-02
      154.0     10.251   4.79E-02
      154.0     10.302   5.36E-02
      154.0     10.348   5.13E-02
      154.0     10.399   4.73E-02
      154.0     10.451   4.33E-02
ENDDATA            375
ENDSUBENT          399
SUBENT        F0983005   20090203   20090508   20090508       F035
BIB                  7         15
REACTION   (6-C-12(A,EL)6-C-12,,DA,,REL)
DETECTOR   (SIBAR) Surface-barrier detectors with a maximum
           depletion depth of 120 mu-m were mounted in blocks
           which could be located within an annular groove on a
           rotating platform to within 0.1 degr. The angular
           resolution, determined by defining apertures in front
           of the detectors, ranged between +-0.15 at forward
           angles to +-0.6 degr. at the more backward angles.
MONITOR    (6-C-12(A,EL)6-C-12,,DA) Cross sections were derived by
           normalization to elastic data between 6.6 and 8.5 MeV.
MONIT-REF  (,J.M.MORRIS+,J,NP/A,112,97,1968)
SAMPLE     Target thicknesses were approximately 20 mu-g/cm2.
ERR-ANALYS (EN-ERR-DIG) Energy digitizing error
           (DATA-ERR)   Absolute cross section error
STATUS     (CURVE) Fig.2 (J,NP/A,173,609,1971)
ENDBIB              15
COMMON               3          3
DATA-ERR   EN-ERR-DIG ERR-DIG
PER-CENT   MEV        ARB-UNITS
  5.        0.001      0.016
ENDCOMMON            3
DATA                 3        262
ANG-CM     EN         DATA-CM
ADEG       MEV        ARB-UNITS
        46.     10.003     1.9052
        46.     10.021     1.9486
        46.      10.08      2.079
        46.     10.101     2.0438
        46.     10.121     2.0611
        46.     10.141     2.0347
        46.     10.161     2.0956
        46.     10.183     2.1216
        46.       10.2     2.1476
        46.     10.223     2.0688
        46.     10.245     1.8502
        46.     10.264     1.8762
        46.     10.282     1.8061
        46.     10.306     1.7797
        46.     10.345     1.7181
        46.     10.384     1.6391
       48.6     10.004     1.6606
       48.6     10.024     1.7215
       48.6     10.042     1.6689
       48.6     10.064     1.7386
       48.6     10.083     1.6685
       48.6     10.103     1.6857
       48.6     10.121     1.7292
       48.6     10.142     1.6853
       48.6     10.163     1.6589
       48.6     10.182     1.6325
       48.6     10.204      1.641
       48.6     10.224     1.5884
       48.6     10.242     1.5882
       48.6     10.262     1.5269
       48.6     10.286     1.5179
       48.6     10.304     1.4303
       58.6     9.9991     0.8048
       58.6     10.021     0.8045
       58.6     10.081     0.8301
       58.6     10.101     0.8212
       58.6     10.122     0.8035
       58.6     10.141     0.7683
       58.6     10.159     0.7157
       58.6     10.179     0.5496
       58.6     10.199     0.4446
       58.6     10.224     0.6277
       58.6     10.243     0.7847
       58.6      10.26     0.8981
       58.6     10.286     0.9153
       58.6     10.304     0.9238
       58.6     10.344     0.8972
       58.6     10.375     0.9318
       58.6      10.38     0.8968
       70.9     9.9978     1.5384
       70.9     10.049     1.5724
       70.9       10.1     1.6576
       70.9      10.15     1.7428
       70.9       10.2     2.3229
       70.9     10.224     2.8433
       70.9     10.253     2.6214
       70.9     10.303      2.536
       70.9     10.355     2.5188
       70.9     10.403     2.5273
       76.2        10.     1.0008
       76.2     10.019     1.0179
       76.2     10.041     1.0775
       76.2     10.059     1.1372
       76.2      10.08     1.2225
       76.2     10.097     1.2822
       76.2     10.122     1.4016
       76.2     10.139     1.4613
       76.2      10.16      1.538
       76.2     10.179     1.5295
       76.2     10.199     1.5977
       76.2      10.22     1.6488
       76.2     10.241      1.717
       76.2     10.265     1.8023
       76.2     10.284     1.9132
       76.2     10.303     1.9302
       82.8      9.999     0.8899
       82.8     10.019     0.8813
       82.8     10.036      0.813
       82.8     10.056     0.8642
       82.8     10.081     0.8471
       82.8     10.097     0.9409
       82.8     10.118     0.9579
       82.8     10.138     1.0005
       82.8     10.162     0.9834
       82.8     10.178     0.8042
       82.8     10.199     0.3946
       82.8      10.22     0.2837
       82.8      10.24     0.4628
       82.8     10.261     0.5993
       82.8     10.281     0.6163
       82.8     10.302     0.7272
       82.8     10.321     0.7271
       82.8     10.339     0.8295
       82.8      10.36     0.8636
       82.8     10.383      0.872
       99.2     9.9995      2.324
       99.2     10.019     2.3656
       99.2     10.038     2.3139
       99.2     10.059     2.2537
       99.2     10.079     2.1002
       99.2       10.1     2.0993
       99.2      10.12     2.0391
       99.2      10.14     2.0976
       99.2     10.157     2.1223
       99.2     10.181     2.3927
       99.2     10.198     2.7991
       99.2      10.22      2.883
       99.2     10.243     2.4495
       99.2     10.261     2.2876
       99.2      10.28     2.1511
       99.2     10.302     2.0229
       99.2     10.341     1.8602
       99.2     10.363     1.8083
       99.2     10.381     1.7397
      103.8     9.9981     1.9679
      103.8     10.019     2.0009
      103.8     10.041     1.8812
      103.8     10.059     1.9314
      103.8      10.08     1.8457
      103.8     10.102     1.8787
      103.8     10.118     1.8356
      103.8     10.141     1.8346
      103.8     10.158      1.783
      103.8     10.179     1.7821
      103.8     10.199     1.7304
      103.8     10.219     1.7635
      103.8      10.24     1.6524
      103.8      10.26     1.7957
      103.8      10.28     1.6931
      103.8     10.298     1.6753
      109.5        10.      1.425
      109.5      10.02     1.4496
      109.5     10.037     1.4743
      109.5     10.061     1.5581
      109.5     10.084     1.5232
      109.5     10.098     1.6414
      109.5     10.119     1.5472
      109.5     10.137     1.6058
      109.5     10.161     1.5369
      109.5     10.179     0.9934
      109.5     10.199     0.3055
      109.5      10.22     0.1944
      109.5     10.241     0.4479
      109.5      10.26     0.6676
      109.5     10.281     0.8449
      109.5     10.299     0.9713
      109.5     10.321      0.928
      109.5     10.338     0.9952
      109.5     10.359     1.0028
      109.5     10.376     1.0105
      123.8     10.002     2.9568
      123.8     10.023     2.8974
      123.8     10.042     2.8635
      123.8     10.063     2.9056
      123.8     10.083     2.9646
      123.8     10.102     3.0998
      123.8     10.123      3.328
      123.8     10.143     3.6832
      123.8     10.162     4.0975
      123.8     10.181     4.4442
      123.8     10.204      4.241
      123.8     10.228     3.4033
      123.8     10.244      3.031
      123.8     10.265     3.0393
      123.8     10.284     3.1491
      123.8     10.305     3.2927
      123.8     10.328     3.4871
      123.8     10.346     3.6308
      123.8     10.369      3.859
      123.8     10.385     4.0196
      131.4     9.9992     2.7877
      131.4     10.023     2.5845
      131.4     10.041     2.4151
      131.4     10.064     2.3473
      131.4     10.083     2.1272
      131.4     10.105     2.0762
      131.4      10.12     2.0169
      131.4     10.143     1.9913
      131.4     10.164     1.9235
      131.4     10.185     1.8472
      131.4     10.206     1.7624
      131.4     10.224     1.7623
      131.4     10.243     1.7537
      131.4     10.263     1.7451
      131.4     10.284     1.7364
      131.4     10.306     1.7109
      136.8     10.001     2.0771
      136.8     10.021     2.0431
      136.8     10.043     1.9245
      136.8     10.063     1.7974
      136.8     10.081     1.6619
      136.8     10.105     1.6364
      136.8     10.125     1.4416
      136.8     10.145     1.3569
      136.8     10.167     1.2298
      136.8     10.185     0.8152
      136.8     10.204     0.4851
      136.8     10.222     0.5104
      136.8     10.245      0.764
      136.8     10.265     0.8399
      136.8     10.285     0.8144
      136.8     10.307     0.8734
      136.8     10.326     0.8056
      136.8     10.345     0.7547
      136.8     10.364     0.7884
      136.8     10.387     0.7797
       156.     9.9975     3.3471
       156.     10.017     3.5771
       156.     10.036     3.6879
       156.     10.057     3.8242
       156.     10.076      3.918
       156.     10.096     4.0458
       156.     10.114       4.08
       156.     10.137     4.0887
       156.     10.154     4.0804
       156.     10.179     3.6466
       156.     10.199     3.3404
       156.      10.22     3.1874
       156.     10.236     3.4089
       156.     10.261     3.6814
       156.      10.28     3.6731
       156.     10.301     3.7583
       156.     10.321     3.8096
       156.      10.34     3.6225
       156.     10.361     3.6142
       156.     10.381     3.6825
      158.8     9.9989     1.8494
      158.8     10.018     1.8836
      158.8     10.039     1.9348
      158.8     10.059     1.9861
      158.8     10.078     2.0203
      158.8     10.098     2.1141
      158.8     10.119     2.2675
      158.8     10.139     2.2251
      158.8      10.16     2.3189
      158.8     10.179     2.2595
      158.8       10.2     2.3193
      158.8      10.22     2.3535
      158.8     10.238     2.4728
      158.8     10.259     2.3964
      158.8     10.281     2.4562
      158.8     10.296     2.5839
      163.1     9.9956     0.3176
      163.1     10.018     0.2327
      163.1     10.038     0.1733
      163.1     10.057     0.1479
      163.1     10.077     0.1736
      163.1     10.096     0.1398
      163.1     10.114     0.1399
      163.1     10.134     0.1912
      163.1     10.157      0.302
      163.1     10.177     0.6086
      163.1     10.197     1.2895
      163.1     10.219     1.4514
      163.1     10.238     1.3665
      163.1     10.259     1.0518
      163.1     10.279     0.9754
      163.1     10.298     0.9415
      163.1     10.319     0.8992
      163.1     10.341     0.7717
      163.1     10.358     0.6868
      163.1      10.38     0.6104
ENDDATA            264
ENDSUBENT          288
ENDENTRY             5
