ENTRY            C0750   20220625   20230515   20230513       C222
SUBENT        C0750001   20220625   20230515   20230513       C222
BIB                  8         20
TITLE      Elastic Scattering of Alpha Particles by O18
AUTHOR     (D.Powers,J.K.Bair,J.L.C.Ford Jr,H.B.Willard)
REFERENCE  (J,PR,134,B1237,1964)
           #doi:10.1103/PhysRev.134.B1237
INSTITUTE  (1USAORL)
FACILITY   (VDG,1USAORL) The ORNL 5.5-MV Van de Graaff.
SAMPLE     (8-O-18,ENR=0.97) W4O11, containing oxygen enriched
           to > 97% 18O, evaporated onto 25 microg/cm2 carbon
           backings. Total energy loss in target < 2 keV for
           2.40-MeV alphas.
MONITOR    Normalized at 2.40 MeV to Rutherford + hard sphere
           scattering cross sections. Beam energy calibrated
           using threshold for 7Li(p,n) reaction.
HISTORY    (20001130C) VM
           (20061128A) DR reference corrected to follow APS format
           (20220625A) BP: Updated entry, added doi and
           resonance parameters, digitized data (unobtainable
           data) per an NRDC decision for data sets that were
           published before 2000 (C32 of WP2022-01) for
           subentries 2-3.
ENDBIB              20
NOCOMMON             0          0
ENDSUBENT           23
SUBENT        C0750002   20220625   20230515   20230513       C222
BIB                  5         13
REACTION   (8-O-18(A,EL)8-O-18,,DA)
DETECTOR   (SCIN) Scintillation counter placed at the focal
           plane of a 60 degree, double-focusing, uniform-field,
           reaction-product magnet of momentum resolution p/dp =
           500.
ERR-ANALYS (ERR-S) The data were taken with 6% counting
           statistics at 5- to 12-keV energy intervals over the
           entire energy region except in the vicinity of the
           first narrow resonance where data were taken at
           smaller intervals.
STATUS     (CURVE) Figs. 1-2, pages B1238-B1239 of
           J,PR,134,B1237,1964.
HISTORY    (20220625A) BP: Digitized data.
ENDBIB              13
COMMON               1          3
ERR-S
PER-CENT
        6.0
ENDCOMMON            3
DATA                 3        463
ANG-CM     EN         DATA-CM
ADEG       MEV        MB/SR
       90.0      2.421    335.105
       90.0      2.433    341.793
       90.0      2.442    319.855
       90.0      2.449    322.893
       90.0      2.461    300.343
       90.0      2.466    315.567
       90.0      2.475    304.593
       90.0      2.478    312.509
       90.0      2.484    288.137
       90.0      2.485    247.324
       90.0      2.488    298.488
       90.0      2.497    340.509
       90.0      2.513    325.263
       90.0      2.524    300.865
       90.0      2.534    296.671
       90.0      2.545    306.596
       90.0      2.556    306.584
       90.0      2.564    295.595
       90.0      2.577    295.582
       90.0      2.587    296.617
       90.0      2.597    290.331
       90.0      2.607    307.054
       90.0      2.619    287.171
       90.0      2.628    289.776
       90.0      2.639    293.948
       90.0      2.648    290.801
       90.0      2.661    290.265
       90.0      2.670    277.705
       90.0      2.684    276.644
       90.0      2.693    279.773
       90.0      2.703    270.349
       90.0      2.711    284.461
       90.0      2.724    276.080
       90.0      2.735    292.802
       90.0      2.746    281.810
       90.0      2.756    277.616
       90.0      2.767    263.485
       90.0      2.780    261.380
       90.0      2.788    269.739
       90.0      2.802    274.431
       90.0      2.810    270.762
       90.0      2.822    283.822
       90.0      2.833    252.959
       90.0      2.844    276.478
       90.0      2.856    239.861
       90.0      2.865    227.825
       90.0      2.878    194.344
       90.0      2.888    179.691
       90.0      2.899    175.496
       90.0      2.910    174.962
       90.0      2.922    155.601
       90.0      2.933    158.728
       90.0      2.943    192.185
       90.0      2.953    204.724
       90.0      2.967    204.710
       90.0      2.979    213.587
       90.0      2.990    202.746
       90.0      3.001    223.063
       90.0      3.013    213.123
       90.0      3.022    220.205
       90.0      3.036    215.936
       90.0      3.047    208.361
       90.0      3.057    213.550
       90.0      3.071    223.936
       90.0      3.082    216.833
       90.0      3.094    213.984
       90.0      3.104    217.283
       90.0      3.115    203.562
       90.0      3.128    204.022
       90.0      3.141    195.971
       90.0      3.151    176.106
       90.0      3.162    140.164
       90.0      3.174    116.042
       90.0      3.187     99.010
       90.0      3.199     97.106
       90.0      3.209    114.588
       90.0      3.223    123.556
       90.0      3.231    132.057
       90.0      3.245    141.025
       90.0      3.255    139.596
       90.0      3.268    141.946
       90.0      3.280    141.460
       90.0      3.292    147.121
       90.0      3.304    143.327
       90.0      3.319    143.312
       90.0      3.330    122.971
       90.0      3.339    149.908
       90.0      3.355    149.420
       90.0      3.364    144.210
       90.0      3.378    168.306
       90.0      3.389    168.294
       90.0      3.401    171.591
       90.0      3.416    160.230
       90.0      3.426    157.855
       90.0      3.437    158.317
       90.0      3.451    158.303
       90.0      3.463    149.307
       90.0      3.476    148.821
       90.0      3.486    158.266
       90.0      3.502    150.686
      125.3      2.410    131.138
      125.3      2.418    142.240
      125.3      2.429    137.504
      125.3      2.437    135.142
      125.3      2.450    137.935
      125.3      2.459    135.176
      125.3      2.464    137.166
      125.3      2.468    131.231
      125.3      2.474    134.805
      125.3      2.477    130.453
      125.3      2.485    134.822
      125.3      2.489    129.680
      125.3      2.499    130.489
      125.3      2.510    126.150
      125.3      2.511    115.458
      125.3      2.519    128.936
      125.3      2.532    129.354
      125.3      2.541    130.160
      125.3      2.550    113.936
      125.3      2.551     99.680
      125.3      2.564     92.572
      125.3      2.566     86.239
      125.3      2.573     75.160
      125.3      2.579     92.200
      125.3      2.583    104.484
      125.3      2.584    100.921
      125.3      2.590    116.376
      125.3      2.593    132.621
      125.3      2.602    125.902
      125.3      2.616    125.131
      125.3      2.625    127.919
      125.3      2.635    117.242
      125.3      2.648    123.203
      125.3      2.658    120.843
      125.3      2.668    120.463
      125.3      2.680    114.937
      125.3      2.688    110.990
      125.3      2.699    104.671
      125.3      2.709     92.013
      125.3      2.721     65.892
      125.3      2.732     69.871
      125.3      2.742     91.273
      125.3      2.764     99.626
      125.3      2.775    102.020
      125.3      2.786    100.058
      125.3      2.798    100.473
      125.3      2.809     94.153
      125.3      2.819     98.527
      125.3      2.829     91.810
      125.3      2.842     87.077
      125.3      2.862     73.644
      125.3      2.873     66.928
      125.3      2.883     65.757
      125.3      2.908     77.282
      125.3      2.918     85.616
      125.3      2.928     91.573
      125.3      2.941    106.643
      125.3      2.953    111.416
      125.3      2.963    105.491
      125.3      2.974     99.171
      125.3      2.987    100.777
      125.3      3.007    105.957
      125.3      3.023     99.646
      125.3      3.033    101.246
      125.3      3.045     91.364
      125.3      3.052     94.941
      125.3      3.064     86.246
      125.3      3.078     75.574
      125.3      3.089     71.237
      125.3      3.101     72.047
      125.3      3.114     58.207
      125.3      3.123     51.488
      125.3      3.137     43.193
      125.3      3.147     30.933
      125.3      3.160     30.161
      125.3      3.172     38.100
      125.3      3.185     54.361
      125.3      3.194     61.504
      125.3      3.207     86.871
      125.3      3.218     82.533
      125.3      3.219     76.594
      125.3      3.229     82.154
      125.3      3.233     86.913
      125.3      3.240     87.322
      125.3      3.246     91.688
      125.3      3.252     91.697
      125.3      3.259     89.332
      125.3      3.264     94.488
      125.3      3.266    100.036
      125.3      3.271     92.519
      125.3      3.277     94.906
      125.3      3.286     92.544
      125.3      3.301     89.399
      125.3      3.311     89.812
      125.3      3.324     91.020
      125.3      3.336     93.415
      125.3      3.346     89.868
      125.3      3.361     82.366
      125.3      3.371     91.097
      125.3      3.384     89.533
      125.3      3.397     81.632
      125.3      3.408     80.859
      125.3      3.421     78.106
      125.3      3.434     73.374
      125.3      3.445     73.789
      125.3      3.458     72.621
      125.3      3.471     62.741
      125.3      3.483     59.592
      125.3      3.494     51.688
      125.3      3.509     47.752
      140.7      2.420    110.671
      140.7      2.430    110.671
      140.7      2.439    106.860
      140.7      2.450    109.824
      140.7      2.459    102.203
      140.7      2.464    108.554
      140.7      2.469    117.021
      140.7      2.473     95.853
      140.7      2.475     86.116
      140.7      2.478     67.065
      140.7      2.484     82.729
      140.7      2.489     59.021
      140.7      2.492     93.313
      140.7      2.497     87.386
      140.7      2.505    100.510
      140.7      2.506     93.313
      140.7      2.508     89.079
      140.7      2.513     86.116
      140.7      2.515     79.342
      140.7      2.524     89.926
      140.7      2.532     77.649
      140.7      2.540     69.605
      140.7      2.551     50.977
      140.7      2.561     37.007
      140.7      2.571     99.663
      140.7      2.582    100.933
      140.7      2.595     92.466
      140.7      2.597     98.817
      140.7      2.606     95.853
      140.7      2.616     96.700
      140.7      2.627     80.612
      140.7      2.636     83.152
      140.7      2.660     86.539
      140.7      2.669     73.839
      140.7      2.680     70.452
      140.7      2.691     64.101
      140.7      2.712     24.729
      140.7      2.720     51.401
      140.7      2.731     78.496
      140.7      2.744     83.152
      140.7      2.756     86.116
      140.7      2.767     72.992
      140.7      2.778     79.766
      140.7      2.787     64.948
      140.7      2.800     65.795
      140.7      2.810     58.174
      140.7      2.822     62.408
      140.7      2.833     53.941
      140.7      2.841     47.167
      140.7      2.854     44.627
      140.7      2.863     39.970
      140.7      2.875     40.817
      140.7      2.887     57.328
      140.7      2.899     54.788
      140.7      2.910     64.948
      140.7      2.921     81.036
      140.7      2.931     82.729
      140.7      2.942     98.393
      140.7      2.954     82.306
      140.7      2.965     80.189
      140.7      2.976     92.043
      140.7      2.980     64.525
      140.7      2.989     84.846
      140.7      3.000     79.342
      140.7      3.009     70.452
      140.7      3.020     69.182
      140.7      3.034     66.642
      140.7      3.045     61.138
      140.7      3.053     55.211
      140.7      3.067     52.247
      140.7      3.079     51.401
      140.7      3.090     39.970
      140.7      3.103     42.087
      140.7      3.114     24.729
      140.7      3.126     17.532
      140.7      3.138     14.569
      140.7      3.149     25.999
      140.7      3.160     32.350
      140.7      3.172     50.977
      140.7      3.184     60.715
      140.7      3.196     65.371
      140.7      3.209     73.839
      140.7      3.221     82.729
      140.7      3.233     82.306
      140.7      3.241     92.466
      140.7      3.257     84.846
      140.7      3.269     83.999
      140.7      3.281     78.496
      140.7      3.291     82.729
      140.7      3.301     77.225
      140.7      3.316     73.415
      140.7      3.329     58.174
      140.7      3.341     60.291
      140.7      3.351     61.561
      140.7      3.365     59.444
      140.7      3.377     66.218
      140.7      3.388     53.941
      140.7      3.401     57.328
      140.7      3.414     53.517
      140.7      3.426     50.977
      140.7      3.439     46.744
      140.7      3.450     40.393
      140.7      3.465     42.087
      140.7      3.476     35.313
      140.7      3.488     22.612
      140.7      3.502     17.532
      152.3      2.403     98.716
      152.3      2.404    102.544
      152.3      2.415     95.290
      152.3      2.424     97.402
      152.3      2.424     93.146
      152.3      2.436    105.041
      152.3      2.445     90.557
      152.3      2.446     98.215
      152.3      2.455    103.305
      152.3      2.456     94.792
      152.3      2.456     90.963
      152.3      2.464     99.033
      152.3      2.472     95.616
      152.3      2.474     61.571
      152.3      2.475     56.888
      152.3      2.481     79.430
      152.3      2.483     70.065
      152.3      2.484     82.403
      152.3      2.494     78.555
      152.3      2.506     87.471
      152.3      2.506     79.387
      152.3      2.515     80.221
      152.3      2.516     78.517
      152.3      2.519     70.001
      152.3      2.525     64.459
      152.3      2.535     68.698
      152.3      2.536     60.611
      152.3      2.542     52.090
      152.3      2.547     35.911
      152.3      2.552     32.497
      152.3      2.559     70.356
      152.3      2.565     97.581
      152.3      2.569    101.829
      152.3      2.576     99.263
      152.3      2.578     89.898
      152.3      2.590     93.280
      152.3      2.601     73.263
      152.3      2.604     77.938
      152.3      2.611     75.372
      152.3      2.616     75.789
      152.3      2.620     72.377
      152.3      2.632     72.357
      152.3      2.641     64.256
      152.3      2.654     72.743
      152.3      2.664     69.748
      152.3      2.674     60.794
      152.3      2.677     55.682
      152.3      2.683     54.820
      152.3      2.688     50.130
      152.3      2.701     36.066
      152.3      2.708     19.458
      152.3      2.709     16.478
      152.3      2.713     34.343
      152.3      2.717     69.228
      152.3      2.719     77.735
      152.3      2.726     78.573
      152.3      2.735     77.708
      152.3      2.740     73.869
      152.3      2.751     65.339
      152.3      2.760     74.259
      152.3      2.764     68.296
      152.3      2.772     67.856
      152.3      2.784     64.430
      152.3      2.791     57.183
      152.3      2.805     56.309
      152.3      2.815     53.737
      152.3      2.824     53.296
      152.3      2.838     51.144
      152.3      2.843     46.029
      152.3      2.848     39.212
      152.3      2.849     43.465
      152.3      2.854     45.158
      152.3      2.859     40.470
      152.3      2.870     51.514
      152.3      2.882     53.620
      152.3      2.890     60.839
      152.3      2.903     65.924
      152.3      2.913     77.395
      152.3      2.914     71.861
      152.3      2.922     97.378
      152.3      2.924     89.289
      152.3      2.938     93.947
      152.3      2.939     90.541
      152.3      2.947     84.569
      152.3      2.948     99.460
      152.3      2.959     79.866
      152.3      2.969     73.042
      152.3      2.981     68.339
      152.3      2.990     68.748
      152.3      3.003     72.131
      152.3      3.017     61.467
      152.3      3.026     65.706
      152.3      3.038     66.538
      152.3      3.049     55.454
      152.3      3.061     47.775
      152.3      3.074     46.049
      152.3      3.085     40.072
      152.3      3.097     35.371
      152.3      3.106     33.227
      152.3      3.119     30.650
      152.3      3.131     26.801
      152.3      3.142     37.844
      152.3      3.142     31.036
      152.3      3.153     52.718
      152.3      3.155     48.885
      152.3      3.166     55.249
      152.3      3.169     68.010
      152.3      3.179     71.396
      152.3      3.188     77.762
      152.3      3.189     88.824
      152.3      3.200     93.061
      152.3      3.201     99.017
      152.3      3.211     93.041
      152.3      3.214    102.823
      152.3      3.225     95.995
      152.3      3.238     94.271
      152.3      3.249    100.208
      152.3      3.257     87.854
      152.3      3.274     88.250
      152.3      3.284     80.147
      152.3      3.286     90.782
      152.3      3.290     72.051
      152.3      3.297     81.827
      152.3      3.299     75.015
      152.3      3.303     71.178
      152.3      3.309     61.806
      152.3      3.310     76.272
      152.3      3.316     63.495
      152.3      3.323     66.461
      152.3      3.327     59.648
      152.3      3.334     61.763
      152.3      3.340     54.943
      152.3      3.350     65.563
      152.3      3.359     65.973
      152.3      3.369     57.871
      152.3      3.380     65.085
      152.3      3.392     69.744
      152.3      3.407     53.124
      152.3      3.419     53.527
      152.3      3.430     44.148
      152.3      3.444     45.824
      152.3      3.458     40.269
      152.3      3.470     34.290
      152.3      3.483     34.266
      152.3      3.492     21.912
      152.3      3.499     26.580
      152.3      3.505     27.420
ENDDATA            465
ENDSUBENT          487
SUBENT        C0750003   20220625   20230515   20230513       C222
BIB                  5         13
REACTION   (8-O-18(A,EL)8-O-18,,DA)
DETECTOR   (SIBAR) Measurements were made with the same
           statistical accuracy several months later at 140.7
           and 164.4 degree with a silicon surface barrier
           detector instead of the reaction-product magnet.
ERR-ANALYS (ERR-S) The data were taken with 6% counting
           statistics at 5- to 12-keV energy intervals over the
           entire energy region except in the vicinity of the
           first narrow resonance where data were taken at
           smaller intervals.
STATUS     (CURVE) Fig. 2, page B1239 of J,PR,134,B1237,1964.
HISTORY    (20220625A) BP: Replaced sigmabase digitization with
           NRDC digitized data.
ENDBIB              13
COMMON               1          3
ERR-S
PER-CENT
        6.0
ENDCOMMON            3
DATA                 3        107
ANG-CM     EN         DATA-CM
ADEG       KEV        MB/SR
      164.4      2.420     89.485
      164.4      2.430     83.594
      164.4      2.438     89.938
      164.4      2.448     78.985
      164.4      2.458     84.908
      164.4      2.459     78.159
      164.4      2.463     74.791
      164.4      2.467     68.047
      164.4      2.469     63.409
      164.4      2.472     75.229
      164.4      2.474     41.056
      164.4      2.476     63.844
      164.4      2.482     45.289
      164.4      2.484     66.390
      164.4      2.484     63.858
      164.4      2.489     76.945
      164.4      2.492     64.292
      164.4      2.497     60.926
      164.4      2.501     65.996
      164.4      2.501     61.777
      164.4      2.509     59.681
      164.4      2.521     55.482
      164.4      2.532     49.594
      164.4      2.542     33.578
      164.4      2.553     18.407
      164.4      2.566     78.344
      164.4      2.574     99.455
      164.4      2.593     78.391
      164.4      2.604     69.550
      164.4      2.617     77.588
      164.4      2.627     66.635
      164.4      2.636     62.010
      164.4      2.648     64.139
      164.4      2.657     55.717
      164.4      2.668     57.846
      164.4      2.681     55.758
      164.4      2.690     46.913
      164.4      2.698     31.316
      164.4      2.714     14.043
      164.4      2.723     67.645
      164.4      2.731     72.300
      164.4      2.745     59.665
      164.4      2.754     63.479
      164.4      2.766     52.530
      164.4      2.777     51.704
      164.4      2.786     61.424
      164.4      2.800     47.947
      164.4      2.811     53.450
      164.4      2.820     45.871
      164.4      2.831     40.406
      164.4      2.844     40.427
      164.4      2.854     35.382
      164.4      2.864     34.978
      164.4      2.877     46.391
      164.4      2.888     49.364
      164.4      2.900     52.339
      164.4      2.911     56.155
      164.4      2.918     85.702
      164.4      2.932     79.398
      164.4      2.942     76.039
      164.4      2.953     73.105
      164.4      2.955     67.623
      164.4      2.964     73.124
      164.4      2.976     54.579
      164.4      2.987     55.864
      164.4      2.999     49.135
      164.4      3.008     52.103
      164.4      3.021     44.531
      164.4      3.032     42.441
      164.4      3.044     42.460
      164.4      3.056     40.794
      164.4      3.069     37.862
      164.4      3.080     29.865
      164.4      3.092     26.933
      164.4      3.103     24.419
      164.4      3.117     20.224
      164.4      3.126     17.709
      164.4      3.138     17.728
      164.4      3.151     25.768
      164.4      3.161     36.756
      164.4      3.174     52.811
      164.4      3.184     63.799
      164.4      3.198     55.384
      164.4      3.207     76.074
      164.4      3.221     71.458
      164.4      3.233     81.604
      164.4      3.244     76.139
      164.4      3.255     76.158
      164.4      3.271     73.653
      164.4      3.281     67.342
      164.4      3.293     56.393
      164.4      3.307     53.463
      164.4      3.316     42.930
      164.4      3.330     35.781
      164.4      3.342     39.177
      164.4      3.355     35.825
      164.4      3.367     41.330
      164.4      3.392     41.795
      164.4      3.399     36.744
      164.4      3.413     40.566
      164.4      3.429     39.749
      164.4      3.438     23.732
      164.4      3.451     21.645
      164.4      3.463     20.399
      164.4      3.476     20.000
      164.4      3.490     11.163
      164.4      3.501      8.651
ENDDATA            109
ENDSUBENT          131
SUBENT        C0750004   20220629   20230515   20230513       C222
BIB                  5         12
REACTION  1(8-O-18(A,0),,EN)
          2(8-O-18(A,0),,J)
          3(8-O-18(A,0),,PTY)
          4(8-O-18(A,TOT),,WID)
ANALYSIS   (MLA) The resonances were analyzed using the single
           level and two-level approximation to determine
           reduced widths and resonance energies of the levels.
FLAG       (1.) The parameters are enclosed in parentheses since
           the actual levels were not observed in the scattering
           data.
STATUS     (TABLE) Table I, page B1240 of J,PR,134,B1237,1964.
HISTORY    (20220625C) BP
ENDBIB              12
NOCOMMON             0          0
DATA                 5          8
DATA      1DATA      2DATA      3DATA      4FLAG
MEV        NO-DIM     NO-DIM     KEV        NO-DIM
       2.48         2.         1.        6.0
       2.56         1.        -1.       14.0
       2.72         1.        -1.       13.0
       2.90         0.         1.       70.0
       3.17         0.         1.       90.0
       3.33         2.         1.       81.0
       3.55         1.        -1.       32.0         1.
       3.60         1.        -1.      115.0         1.
ENDDATA             10
ENDSUBENT           27
ENDENTRY             4
