ENTRY            C0753   20181113   20190401   20190326       C182
SUBENT        C0753001   20181113   20190401   20190326       C182
BIB                 12         21
TITLE      Elastic scattering of 4-20 MeV alpha particles by Be9
AUTHOR     (R.B.Taylor,N.R.Fletcher,R.H.Davis)
REFERENCE  (J,NP,65,318,1965)
           #doi:10.1016/0029-5582(65)90272-5
INSTITUTE  (1USAFSU)
FACILITY   (VDGT,1USAFSU) Florida State University tandem Van de
           Graaff accelerator.
INC-SPECT  Incident beam energy spread < 2 keV.
SAMPLE     Self-supporting Be foil targets, 130 microg/cm2 thick,
           floated onto aluminum frame.
DETECTOR   (SOLST) Silicon surface-barrier detector.
MONITOR    (4-BE-9(P,EL)4-BE-9,,DA) Used for target thickness
           determination. Beam energy calibrated using 27Al(p,n)
           threshold energy.
METHOD     Angular distributions were measured in 2.5 degree
           steps from 15 to 90 degrees and 5 degrees steps from
           90 to 165 degrees.
ERR-ANALYS (ERR-T) Estimated total cross section uncertainty.
           (ERR-1) Relative angular distribution uncertainty.
HISTORY    (20001130C) VM
           (20181113A) BP: Digitized Figs. 1-3, added doi.
ENDBIB              21
COMMON               2          3
ERR-T      ERR-1
PER-CENT   PER-CENT
        10.         5.
ENDCOMMON            3
ENDSUBENT           28
SUBENT        C0753002   20181113   20190401   20190326       C182
BIB                  3          5
REACTION   (4-BE-9(A,EL)4-BE-9,,DA)
STATUS     (CURVE) Figs. 1-2, page 321.
           (COREL,C0753003) Angular distribution
HISTORY    (20181113A) BP: Replaced 154 degree sigma data with the
            digitized data for all angles, corrected reaction.
ENDBIB               5
NOCOMMON             0          0
DATA                 3       1082
ANG-CM     EN         DATA-CM
ADEG       MEV        MB/SR
       54.7      6.022     85.555
       54.7      6.140     83.898
       54.7      6.212     79.400
       54.7      6.235     71.352
       54.7      6.235     75.376
       54.7      6.307     67.801
       54.7      6.401     64.250
       54.7      6.496     63.303
       54.7      6.591     59.752
       54.7      6.686     58.805
       54.7      6.805     58.569
       54.7      6.876     52.177
       54.7      6.995     53.124
       54.7      7.089     50.283
       54.7      7.208     50.757
       54.7      7.279     45.549
       54.7      7.398     42.945
       54.7      7.493     37.973
       54.7      7.564     35.133
       54.7      7.706     35.133
       54.7      7.778     36.790
       54.7      7.872     36.316
       54.7      7.967     31.818
       54.7      8.086     34.896
       54.7      8.205     37.026
       54.7      8.276     39.867
       54.7      8.394     43.181
       54.7      8.489     51.467
       54.7      8.584     61.173
       54.7      8.727     68.748
       54.7      8.821     76.560
       54.7      8.916     83.898
       54.7      9.011     89.106
       54.7      9.106     94.314
       54.7      9.225     91.947
       54.7      9.320     87.686
       54.7      9.367     80.821
       54.7      9.415     73.956
       54.7      9.509     71.115
       54.7      9.604     71.352
       54.7      9.723     74.666
       54.7      9.794     72.062
       54.7      9.937     72.535
       54.7     10.031     72.535
       54.7     10.126     74.192
       54.7     10.198     74.666
       54.7     10.292     74.192
       54.7     10.364     70.642
       54.7     10.411     67.801
       54.7     10.530     66.854
       54.7     10.601     68.038
       54.7     10.672     66.381
       54.7     10.791     67.801
       54.7     10.909     62.830
       54.7     10.980     64.723
       54.7     11.099     65.907
       54.7     11.194     70.168
       54.7     11.313     70.168
       54.7     11.407     69.931
       54.7     11.526     71.588
       54.7     11.621     74.192
       54.7     11.716     69.221
       54.7     11.787     66.854
       54.7     11.906     68.038
       54.7     12.001     64.250
       54.7     12.096     57.622
       54.7     12.190     50.993
       54.7     12.238     47.679
       54.7     12.285     44.602
       54.7     12.451     41.051
       54.7     12.475     36.790
       54.7     12.594     36.553
       54.7     12.689     32.529
       54.7     12.736     31.108
       54.7     12.784     30.161
       54.7     12.878     29.925
       54.7     12.997     29.688
       54.7     13.068     27.321
       54.7     13.187     25.900
       54.7     13.282     27.084
       54.7     13.353     23.770
       54.7     13.495     23.770
       54.7     13.590     22.823
       54.7     13.661     21.166
       54.7     13.804     20.219
       54.7     13.875     18.562
       54.7     13.994     17.852
       54.7     14.088     16.668
       54.7     14.183     19.272
       54.7     14.255     17.141
       54.7     14.397     16.194
       54.7     14.468     16.905
       54.7     14.587     15.958
       54.7     14.682     14.774
       54.7     14.800     15.011
       54.7     14.895     13.117
       54.7     14.966     14.064
       54.7     15.109     13.827
       54.7     15.227     14.064
       54.7     15.298     13.354
       54.7     15.370     13.827
       54.7     15.488     12.880
       54.7     15.583     14.301
       54.7     15.678     13.827
       54.7     15.797     13.354
       54.7     15.892     13.827
       54.7     15.986     11.933
       54.7     16.105     12.407
       54.7     16.176     10.040
       54.7     16.319      9.803
       54.7     16.390      9.566
       54.7     16.532      8.856
       54.7     16.580      7.672
       54.7     16.698      8.146
       54.7     16.817      7.436
       54.7     16.983      6.962
       54.7     17.149      6.725
       54.7     17.315      6.725
       54.7     17.410      6.015
       54.7     17.576      5.778
       54.7     17.695      5.542
       54.7     17.790      5.542
       54.7     17.884      6.489
       54.7     17.979      6.015
       70.1      6.046     71.998
       70.1      6.140     69.410
       70.1      6.235     66.821
       70.1      6.283     62.586
       70.1      6.307     58.116
       70.1      6.401     62.586
       70.1      6.425     65.880
       70.1      6.496     69.174
       70.1      6.496     71.998
       70.1      6.615     71.998
       70.1      6.757     73.410
       70.1      6.829     68.704
       70.1      6.923     69.880
       70.1      7.018     65.410
       70.1      7.113     67.057
       70.1      7.208     70.351
       70.1      7.327     70.351
       70.1      7.422     66.821
       70.1      7.540     64.939
       70.1      7.611     59.998
       70.1      7.754     58.586
       70.1      7.849     59.763
       70.1      7.944     55.763
       70.1      8.039     57.175
       70.1      8.133     63.057
       70.1      8.252     65.410
       70.1      8.323     67.527
       70.1      8.394     69.174
       70.1      8.513     69.410
       70.1      8.632     66.586
       70.1      8.750     68.704
       70.1      8.845     62.116
       70.1      8.916     60.233
       70.1      9.035     55.528
       70.1      9.154     55.057
       70.1      9.225     51.998
       70.1      9.343     46.587
       70.1      9.415     43.763
       70.1      9.509     45.175
       70.1      9.628     44.234
       70.1      9.723     41.881
       70.1      9.818     38.587
       70.1      9.913     34.587
       70.1     10.031     29.411
       70.1     10.126     25.646
       70.1     10.221     23.529
       70.1     10.316     19.529
       70.1     10.435     16.000
       70.1     10.530     13.176
       70.1     10.625     11.764
       70.1     10.719     10.353
       70.1     10.838      8.235
       70.1     10.933      7.059
       70.1     11.028      6.117
       70.1     11.099      5.176
       70.1     11.194      4.470
       70.1     11.313      5.882
       70.1     11.407      6.353
       70.1     11.526      8.000
       70.1     11.621      9.176
       70.1     11.692     10.588
       70.1     11.811     12.000
       70.1     11.906     13.176
       70.1     12.001     15.294
       70.1     12.119     16.000
       70.1     12.238     16.705
       70.1     12.357     16.235
       70.1     12.499     14.588
       70.1     12.594     14.117
       70.1     12.712     13.647
       70.1     12.807     13.882
       70.1     12.878     14.352
       70.1     13.021     14.352
       70.1     13.139     14.588
       70.1     13.258     15.058
       70.1     13.424     16.000
       70.1     13.519     16.235
       70.1     13.638     15.529
       70.1     13.733     15.294
       70.1     13.827     15.058
       70.1     13.899     14.352
       70.1     13.970     13.176
       70.1     14.088     13.647
       70.1     14.183     12.941
       70.1     14.326     12.000
       70.1     14.421     13.176
       70.1     14.516     13.411
       70.1     14.610     14.352
       70.1     14.705     15.529
       70.1     14.800     17.647
       70.1     14.895     17.882
       70.1     14.990     19.294
       70.1     15.109     20.705
       70.1     15.227     20.941
       70.1     15.322     22.588
       70.1     15.417     24.235
       70.1     15.512     27.058
       70.1     15.631     31.058
       70.1     15.678     35.764
       70.1     15.797     34.822
       70.1     15.915     36.705
       70.1     16.010     35.058
       70.1     16.129     34.587
       70.1     16.200     33.646
       70.1     16.295     33.646
       70.1     16.414     34.587
       70.1     16.508     33.175
       70.1     16.603     33.881
       70.1     16.698     33.881
       70.1     16.817     33.881
       70.1     16.912     34.352
       70.1     16.983     34.352
       70.1     17.102     34.352
       70.1     17.220     35.058
       70.1     17.268     37.411
       70.1     17.363     36.940
       70.1     17.457     36.469
       70.1     17.600     35.293
       70.1     17.718     32.705
       70.1     17.790     31.528
       70.1     17.908     31.058
       70.1     18.003     29.176
       85.6      7.137     57.176
       85.6      7.327     53.647
       85.6      7.374     48.941
       85.6      7.422     42.588
       85.6      7.517     38.588
       85.6      7.635     36.235
       85.6      7.706     33.412
       85.6      7.849     34.118
       85.6      7.944     32.235
       85.6      8.015     30.588
       85.6      8.110     30.588
       85.6      8.228     31.765
       85.6      8.347     31.529
       85.6      8.418     32.235
       85.6      8.513     32.000
       85.6      8.608     32.000
       85.6      8.727     30.588
       85.6      8.845     32.706
       85.6      8.940     31.765
       85.6      9.035     32.471
       85.6      9.154     32.706
       85.6      9.225     32.235
       85.6      9.343     31.529
       85.6      9.415     30.353
       85.6      9.533     28.706
       85.6      9.628     28.000
       85.6      9.699     28.941
       85.6      9.818     26.353
       85.6      9.937     25.412
       85.6     10.055     24.706
       85.6     10.126     23.294
       85.6     10.245     23.765
       85.6     10.316     23.529
       85.6     10.411     24.941
       85.6     10.530     27.294
       85.6     10.625     25.882
       85.6     10.719     27.294
       85.6     10.838     25.882
       85.6     10.933     25.882
       85.6     11.028     25.647
       85.6     11.123     24.706
       85.6     11.218     25.647
       85.6     11.431     27.765
       85.6     11.526     32.941
       85.6     11.621     36.235
       85.6     11.716     40.706
       85.6     11.811     41.647
       85.6     11.906     44.706
       85.6     12.001     47.529
       85.6     12.119     49.882
       85.6     12.238     50.353
       85.6     12.333     48.471
       85.6     12.428     44.235
       85.6     12.523     42.588
       85.6     12.641     42.353
       85.6     12.712     39.294
       85.6     12.807     37.176
       85.6     12.902     37.647
       85.6     12.997     35.765
       85.6     13.139     34.353
       85.6     13.211     32.941
       85.6     13.306     31.529
       85.6     13.400     30.353
       85.6     13.495     30.353
       85.6     13.614     29.412
       85.6     13.709     28.471
       85.6     13.827     26.353
       85.6     13.922     25.176
       85.6     14.017     23.529
       85.6     14.136     22.824
       85.6     14.207     20.235
       85.6     14.326     19.294
       85.6     14.397     17.882
       85.6     14.492     16.941
       85.6     14.587     16.706
       85.6     14.729     16.235
       85.6     14.800     15.059
       85.6     14.943     14.353
       85.6     15.014     13.412
       85.6     15.085     14.588
       85.6     15.227     15.059
       85.6     15.298     16.235
       85.6     15.417     17.176
       85.6     15.512     16.941
       85.6     15.607     16.471
       85.6     15.702     15.059
       85.6     15.797     12.706
       85.6     15.915     10.824
       85.6     15.986      9.412
       85.6     16.105      9.647
       85.6     16.224      8.235
       85.6     16.390      7.529
       85.6     16.508      7.059
       85.6     16.603      6.588
       85.6     16.722      6.824
       85.6     16.841      6.824
       85.6     16.959      6.588
       85.6     17.078      7.294
       85.6     17.291      8.235
       85.6     17.386      8.941
       85.6     17.529      9.176
       85.6     17.624      8.706
       85.6     17.695      8.000
       85.6     17.790      8.706
       85.6     17.908      8.235
       85.6     18.027      8.235
       85.6     18.169      7.059
       85.6     18.288      7.765
       85.6     18.383      7.765
       85.6     18.478      7.529
       85.6     18.573      7.294
       85.6     18.644      6.353
       85.6     18.762      7.294
       85.6     18.881      6.588
       85.6     18.976      7.765
       85.6     19.118      6.588
       85.6     19.213      6.353
       85.6     19.261      7.294
       85.6     19.379      6.824
       85.6     19.474      7.765
       85.6     19.616      6.353
       85.6     19.688      7.294
       85.6     19.806      7.059
       85.6     19.877      6.353
       85.6     19.996      6.824
       90.0      4.195     60.954
       90.0      4.312     69.495
       90.0      4.382     74.003
       90.0      4.501     73.769
       90.0      4.597     72.587
       90.0      4.717     68.796
       90.0      4.768     59.785
       90.0      4.886     62.635
       90.0      4.982     62.163
       90.0      5.099     67.858
       90.0      5.219     65.490
       90.0      5.316     60.750
       90.0      5.389     56.721
       90.0      5.509     53.404
       90.0      5.582     47.952
       90.0      5.586     36.094
       90.0      5.679     43.448
       90.0      5.799     41.792
       90.0      5.918     42.507
       90.0      5.964     45.117
       90.0      6.082     49.152
       90.0      6.177     51.289
       90.0      6.320     52.005
       90.0      6.391     54.142
       90.0      6.486     56.042
       90.0      6.581     55.333
       90.0      6.699     59.842
       90.0      6.796     56.051
       90.0      6.868     52.970
       90.0      6.988     51.313
       90.0      7.085     44.676
       90.0      7.206     41.122
       90.0      7.302     36.856
       90.0      7.399     31.642
       90.0      7.496     26.902
       90.0      7.592     24.533
       90.0      7.688     21.927
       90.0      7.807     22.642
       90.0      7.879     20.984
       90.0      7.975     20.275
       90.0      8.094     19.567
       90.0      8.166     19.807
       90.0      8.261     19.098
       90.0      8.380     19.576
       90.0      8.499     21.240
       90.0      8.595     20.057
       90.0      8.690     21.719
       90.0      8.761     23.382
       90.0      8.880     24.097
       90.0      8.998     26.472
       90.0      9.093     28.846
       90.0      9.188     29.798
       90.0      9.307     31.224
       90.0      9.402     30.515
       90.0      9.522     30.756
       90.0      9.617     31.470
       90.0      9.736     31.711
       90.0      9.808     31.713
       90.0      9.903     30.293
       90.0      9.999     29.584
       90.0     10.118     30.299
       90.0     10.213     31.014
       90.0     10.308     31.254
       90.0     10.403     32.442
       90.0     10.498     33.631
       90.0     10.594     33.634
       90.0     10.689     33.874
       90.0     10.761     32.690
       90.0     10.904     32.694
       90.0     11.000     31.748
       90.0     11.096     30.091
       90.0     11.191     30.094
       90.0     11.310     31.046
       90.0     11.405     30.812
       90.0     11.477     31.051
       90.0     11.596     31.766
       90.0     11.691     34.141
       90.0     11.785     35.803
       90.0     11.880     37.703
       90.0     11.951     38.654
       90.0     12.047     38.183
       90.0     12.166     39.135
       90.0     12.286     37.478
       90.0     12.381     36.295
       90.0     12.477     34.638
       90.0     12.597     33.930
       90.0     12.717     31.799
       90.0     12.812     30.616
       90.0     12.884     29.196
       90.0     13.004     28.251
       90.0     13.076     27.067
       90.0     13.195     26.596
       90.0     13.315     25.651
       90.0     13.410     25.417
       90.0     13.506     24.234
       90.0     13.625     24.474
       90.0     13.697     23.054
       90.0     13.816     21.634
       90.0     13.912     20.451
       90.0     13.984     18.319
       90.0     14.080     18.322
       90.0     14.199     16.903
       90.0     14.295     14.771
       90.0     14.391     14.537
       90.0     14.510     14.540
       90.0     14.606     13.594
       90.0     14.702     12.174
       90.0     14.821     11.704
       90.0     14.964     11.471
       90.0     15.107     11.238
       90.0     15.227     11.004
       90.0     15.346     11.245
       90.0     15.417     12.196
       90.0     15.512     12.436
       90.0     15.583     13.623
       90.0     15.703     13.390
       90.0     15.823     11.496
       90.0     15.894     10.075
       90.0     16.014      9.367
       90.0     16.133      8.185
       90.0     16.205      7.476
       90.0     16.325      7.005
       90.0     16.444      6.534
       90.0     16.539      6.774
       90.0     16.635      5.828
       90.0     16.730      5.831
       90.0     16.850      5.835
       90.0     16.921      5.837
       90.0     17.112      5.368
       90.0     17.231      4.898
       90.0     17.350      5.613
       90.0     17.446      4.904
       90.0     17.589      4.671
       90.0     17.685      4.437
       90.0     17.804      4.440
       90.0     17.899      4.206
       90.0     17.971      4.919
       90.0     18.090      4.686
       90.0     18.233      5.639
       90.0     18.328      5.641
       90.0     18.423      5.644
       90.0     18.518      7.544
       90.0     18.614      6.599
       90.0     18.709      7.550
       90.0     18.804      7.553
       90.0     18.900      7.556
       90.0     19.019      8.745
       90.0     19.114      8.273
       90.0     19.209      8.751
       90.0     19.328      8.991
       90.0     19.448      9.232
       90.0     19.519      9.708
       90.0     19.614      9.711
       90.0     19.758      9.478
       90.0     19.829      9.243
       90.0     19.924     10.195
       90.0     20.020      9.486
      109.9      6.971     12.593
      109.9      7.056     14.102
      109.9      7.185     15.182
      109.9      7.271     16.691
      109.9      7.357     16.264
      109.9      7.465     17.344
      109.9      7.573     17.133
      109.9      7.660     15.416
      109.9      7.789     15.422
      109.9      7.832     14.348
      109.9      7.984     13.494
      109.9      8.091     14.574
      109.9      8.155     15.652
      109.9      8.284     16.732
      109.9      8.414     17.167
      109.9      8.478     17.385
      109.9      8.607     19.325
      109.9      8.671     20.188
      109.9      8.736     19.761
      109.9      8.865     19.336
      109.9      8.973     20.200
      109.9      9.080     22.785
      109.9      9.165     24.724
      109.9      9.272     26.879
      109.9      9.358     26.882
      109.9      9.466     26.241
      109.9      9.596     26.247
      109.9      9.660     28.400
      109.9      9.767     28.619
      109.9      9.875     28.408
      109.9      9.962     26.692
      109.9     10.070     26.266
      109.9     10.200     25.411
      109.9     10.286     25.844
      109.9     10.415     26.495
      109.9     10.502     24.778
      109.9     10.589     24.136
      109.9     10.675     23.710
      109.9     10.783     23.284
      109.9     10.891     22.213
      109.9     10.978     20.926
      109.9     11.108     20.717
      109.9     11.237     20.722
      109.9     11.344     21.371
      109.9     11.453     20.730
      109.9     11.539     20.949
      109.9     11.667     22.890
      109.9     11.775     22.679
      109.9     11.883     21.608
      109.9     11.991     20.967
      109.9     12.099     21.617
      109.9     12.164     20.544
      109.9     12.273     18.613
      109.9     12.359     18.186
      109.9     12.468     16.255
      109.9     12.554     16.044
      109.9     12.662     15.618
      109.9     12.770     15.623
      109.9     12.878     14.982
      109.9     12.964     15.200
      109.9     13.072     16.065
      109.9     13.180     15.854
      109.9     13.266     15.427
      109.9     13.374     15.217
      109.9     13.503     15.007
      109.9     13.590     14.150
      109.9     13.654     15.013
      109.9     13.784     14.158
      109.9     13.892     12.872
      109.9     14.001     11.586
      109.9     14.108     11.806
      109.9     14.195     12.024
      109.9     14.302     12.459
      109.9     14.389     12.247
      109.9     14.475     12.036
      109.9     14.582     13.760
      109.9     14.711     15.486
      109.9     14.819     15.490
      109.9     14.883     15.923
      109.9     14.969     17.647
      109.9     15.076     18.511
      109.9     15.184     19.376
      109.9     15.270     20.024
      109.9     15.377     20.244
      109.9     15.485     20.033
      109.9     15.594     18.317
      109.9     15.702     16.816
      109.9     15.789     14.239
      109.9     15.876     13.597
      109.9     15.984     12.311
      109.9     16.092     12.746
      109.9     16.179     11.459
      109.9     16.287     10.388
      109.9     16.373      9.962
      109.9     16.460      9.965
      109.9     16.567      9.754
      109.9     16.675      9.329
      109.9     16.784      8.473
      109.9     16.891      9.122
      109.9     16.977      9.126
      109.9     17.063      9.774
      109.9     17.193      9.995
      109.9     17.300     11.074
      109.9     17.386     12.153
      109.9     17.515     13.018
      109.9     17.601     13.452
      109.9     17.709     13.671
      109.9     17.817     13.676
      109.9     17.946     14.111
      109.9     18.096     14.977
      109.9     18.205     13.691
      109.9     18.291     14.340
      109.9     18.399     12.194
      109.9     18.529     11.769
      109.9     18.615     11.342
      109.9     18.702     10.271
      109.9     18.788     10.274
      109.9     18.896      9.418
      109.9     19.026     10.069
      109.9     19.112     10.287
      109.9     19.176     10.720
      109.9     19.285      9.434
      109.9     19.371      9.437
      109.9     19.478      9.872
      109.9     19.587      9.016
      109.9     19.673      9.880
      109.9     19.781      9.024
      109.9     19.867      9.457
      109.9     19.996      9.463
      125.3      4.084     56.573
      125.3      4.150     53.146
      125.3      4.281     46.078
      125.3      4.368     42.652
      125.3      4.540     46.085
      125.3      4.668     49.946
      125.3      4.776     51.663
      125.3      4.818     55.521
      125.3      4.860     59.165
      125.3      4.880     66.023
      125.3      4.899     72.881
      125.3      5.050     75.242
      125.3      5.094     70.529
      125.3      5.140     60.673
      125.3      5.142     51.459
      125.3      5.187     45.674
      125.3      5.253     40.533
      125.3      5.384     35.608
      125.3      5.470     37.110
      125.3      5.577     40.756
      125.3      5.639     50.186
      125.3      5.640     45.686
      125.3      5.746     53.189
      125.3      5.854     52.978
      125.3      5.898     48.265
      125.3      5.942     44.837
      125.3      6.072     42.269
      125.3      6.160     37.129
      125.3      6.269     30.275
      125.3      6.356     28.991
      125.3      6.465     25.780
      125.3      6.573     24.711
      125.3      6.660     21.928
      125.3      6.768     20.645
      125.3      6.855     18.719
      125.3      6.962     19.365
      125.3      7.070     20.225
      125.3      7.155     26.655
      125.3      7.283     30.302
      125.3      7.368     33.947
      125.3      7.454     35.878
      125.3      7.561     36.952
      125.3      7.626     36.311
      125.3      7.757     32.672
      125.3      7.865     30.317
      125.3      7.973     30.963
      125.3      8.058     32.894
      125.3      8.166     33.325
      125.3      8.273     36.971
      125.3      8.359     38.688
      125.3      8.444     42.333
      125.3      8.574     41.051
      125.3      8.660     42.981
      125.3      8.789     44.056
      125.3      8.854     42.344
      125.3      8.962     39.990
      125.3      9.071     36.350
      125.3      9.159     31.209
      125.3      9.268     26.284
      125.3      9.376     24.786
      125.3      9.483     26.289
      125.3      9.570     25.006
      125.3      9.679     22.009
      125.3      9.786     22.226
      125.3      9.873     22.657
      125.3      9.980     25.017
      125.3     10.066     26.733
      125.3     10.151     28.664
      125.3     10.280     30.382
      125.3     10.345     31.669
      125.3     10.474     31.887
      125.3     10.603     31.034
      125.3     10.690     29.750
      125.3     10.754     31.038
      125.3     10.841     30.611
      125.3     10.948     31.900
      125.3     11.099     31.047
      125.3     11.164     32.549
      125.3     11.272     32.551
      125.3     11.358     32.554
      125.3     11.466     31.057
      125.3     11.574     29.345
      125.3     11.660     30.848
      125.3     11.768     31.708
      125.3     11.854     31.496
      125.3     11.940     32.569
      125.3     12.047     33.644
      125.3     12.134     32.789
      125.3     12.242     32.792
      125.3     12.350     31.295
      125.3     12.458     30.655
      125.3     12.566     28.729
      125.3     12.675     27.232
      125.3     12.783     26.592
      125.3     12.869     25.951
      125.3     12.956     24.025
      125.3     13.086     22.529
      125.3     13.172     21.031
      125.3     13.259     19.105
      125.3     13.367     18.465
      125.3     13.453     17.610
      125.3     13.583     16.328
      125.3     13.691     16.545
      125.3     13.777     17.190
      125.3     13.906     16.979
      125.3     14.014     16.768
      125.3     14.122     16.771
      125.3     14.230     18.059
      125.3     14.337     18.062
      125.3     14.488     18.066
      125.3     14.575     18.069
      125.3     14.704     18.929
      125.3     14.790     18.717
      125.3     14.855     18.076
      125.3     14.941     18.507
      125.3     15.049     18.510
      125.3     15.157     17.870
      125.3     15.264     19.158
      125.3     15.372     20.018
      125.3     15.480     19.807
      125.3     15.587     20.453
      125.3     15.717     19.813
      125.3     15.782     19.172
      125.3     15.868     17.889
      125.3     15.955     16.606
      125.3     16.085     15.538
      125.3     16.193     14.683
      125.3     16.279     14.257
      125.3     16.366     13.188
      125.3     16.474     12.119
      125.3     16.603     11.694
      125.3     16.668     10.196
      125.3     16.798      9.557
      125.3     16.863      8.273
      125.3     16.971      7.847
      125.3     17.079      7.207
      125.3     17.187      6.567
      125.3     17.295      6.570
      125.3     17.360      5.929
      125.3     17.467      6.146
      125.3     17.575      6.149
      125.3     17.661      6.151
      125.3     17.812      6.798
      125.3     17.920      7.444
      125.3     18.049      7.876
      125.3     18.200      7.880
      125.3     18.286      8.097
      125.3     18.373      7.670
      125.3     18.480      8.530
      125.3     18.588      8.105
      125.3     18.717      8.537
      125.3     18.847      8.326
      125.3     18.976      8.544
      125.3     19.106      8.119
      125.3     19.213      8.550
      125.3     19.343      8.768
      125.3     19.450      9.413
      125.3     19.580      9.203
      125.3     19.688      8.777
      125.3     19.774      9.422
      125.3     19.904      7.711
      125.3     20.011      8.357
      140.8      6.956     33.055
      140.8      7.042     34.961
      140.8      7.193     35.175
      140.8      7.258     36.445
      140.8      7.365     38.563
      140.8      7.473     36.448
      140.8      7.560     32.640
      140.8      7.668     30.737
      140.8      7.776     28.622
      140.8      7.884     27.988
      140.8      7.970     28.413
      140.8      8.057     28.837
      140.8      8.164     28.415
      140.8      8.272     30.321
      140.8      8.380     29.899
      140.8      8.466     30.959
      140.8      8.574     29.902
      140.8      8.682     31.597
      140.8      8.768     29.270
      140.8      8.876     28.848
      140.8      8.984     23.981
      140.8      9.071     21.020
      140.8      9.179     17.423
      140.8      9.266     15.520
      140.8      9.374     14.886
      140.8      9.481     19.755
      140.8      9.588     22.508
      140.8      9.653     24.625
      140.8      9.782     27.802
      140.8      9.868     29.496
      140.8      9.954     33.518
      140.8     10.083     34.790
      140.8     10.168     39.659
      140.8     10.276     40.930
      140.8     10.362     42.624
      140.8     10.513     42.203
      140.8     10.600     40.299
      140.8     10.707     40.512
      140.8     10.815     40.514
      140.8     10.880     42.631
      140.8     10.987     44.325
      140.8     11.094     47.713
      140.8     11.181     48.349
      140.8     11.288     49.832
      140.8     11.396     47.294
      140.8     11.483     45.814
      140.8     11.591     44.333
      140.8     11.677     42.007
      140.8     11.807     41.162
      140.8     11.872     34.813
      140.8     12.002     31.852
      140.8     12.089     27.832
      140.8     12.176     26.140
      140.8     12.284     21.062
      140.8     12.371     15.984
      140.8     12.479     14.081
      140.8     12.566     12.812
      140.8     12.652     10.062
      140.8     12.781     10.487
      140.8     12.890      8.160
      140.8     12.976      9.008
      140.8     13.127      8.375
      140.8     13.213      7.741
      140.8     13.342      7.954
      140.8     13.493      8.803
      140.8     13.579      9.439
      140.8     13.666     10.710
      140.8     13.752      9.865
      140.8     13.881     11.136
      140.8     13.989      9.445
      140.8     14.075     10.715
      140.8     14.162      9.870
      140.8     14.269     10.506
      140.8     14.399     10.085
      140.8     14.485     10.721
      140.8     14.550      9.875
      140.8     14.658      9.665
      140.8     14.744     10.301
      140.8     14.873     10.726
      140.8     14.981     11.574
      140.8     15.067     11.364
      140.8     15.153     11.576
      140.8     15.261     12.424
      140.8     15.390     13.696
      140.8     15.498     15.814
      140.8     15.584     18.143
      140.8     15.691     20.684
      140.8     15.799     18.992
      140.8     15.907     20.264
      140.8     15.993     19.630
      140.8     16.101     20.266
      140.8     16.187     18.362
      140.8     16.295     18.787
      140.8     16.403     17.942
      140.8     16.489     18.578
      140.8     16.576     17.521
      140.8     16.683     17.734
      140.8     16.791     16.677
      140.8     16.878     16.044
      140.8     17.007     14.775
      140.8     17.072     15.411
      140.8     17.180     14.566
      140.8     17.288     15.414
      140.8     17.396     14.146
      140.8     17.482     15.417
      140.8     17.589     16.688
      140.8     17.675     19.229
      140.8     17.805     18.596
      140.8     17.912     20.290
      140.8     17.998     21.349
      140.8     18.084     22.197
      140.8     18.192     24.950
      140.8     18.300     26.433
      140.8     18.407     27.916
      140.8     18.515     28.129
      140.8     18.579     30.669
      140.8     18.687     30.671
      140.8     18.795     30.460
      140.8     18.902     32.578
      140.8     19.011     29.405
      140.8     19.097     30.253
      140.8     19.183     29.196
      140.8     19.270     28.350
      140.8     19.399     27.717
      140.8     19.507     27.930
      140.8     19.593     26.238
      140.8     19.701     24.970
      140.8     19.810     21.797
      140.8     19.896     20.105
      140.8     20.026     19.260
      154.0      6.273     97.825
      154.0      6.381     88.912
      154.0      6.466     75.968
      154.0      6.552     66.844
      154.0      6.660     57.294
      154.0      6.724     55.597
      154.0      6.853     53.475
      154.0      6.960     56.021
      154.0      7.067     57.082
      154.0      7.131     51.353
      154.0      7.260     47.958
      154.0      7.346     42.016
      154.0      7.453     42.865
      154.0      7.560     39.045
      154.0      7.646     32.679
      154.0      7.775     27.162
      154.0      7.839     17.825
      154.0      7.946     18.037
      154.0      8.054     19.523
      154.0      8.161     19.310
      154.0      8.225     18.462
      154.0      8.354     19.523
      154.0      8.461     19.098
      154.0      8.568     22.918
      154.0      8.633     24.403
      154.0      8.740     24.828
      154.0      8.847     25.676
      154.0      8.933     24.615
      154.0      9.062     24.828
      154.0      9.147     25.040
      154.0      9.255     25.040
      154.0      9.362     28.011
      154.0      9.469     32.679
      154.0      9.534     36.499
      154.0      9.641     40.531
      154.0      9.748     41.379
      154.0      9.812     44.987
      154.0      9.941     44.987
      154.0     10.070     46.684
      154.0     10.155     46.260
      154.0     10.241     46.684
      154.0     10.391     45.836
      154.0     10.456     43.714
      154.0     10.563     42.228
      154.0     10.649     39.257
      154.0     10.756     38.621
      154.0     10.863     37.347
      154.0     10.949     38.196
      154.0     11.056     35.862
      154.0     11.164     33.103
      154.0     11.249     30.133
      154.0     11.357     29.072
      154.0     11.464     27.374
      154.0     11.550     28.223
      154.0     11.678     25.040
      154.0     11.743     24.615
      154.0     11.871     24.403
      154.0     11.957     22.706
      154.0     12.043     21.008
      154.0     12.150     18.037
      154.0     12.236     17.401
      154.0     12.365     16.340
      154.0     12.450     14.642
      154.0     12.558     14.005
      154.0     12.665     13.156
      154.0     12.751     11.247
      154.0     12.836     12.308
      154.0     12.944     12.095
      154.0     13.051     11.883
      154.0     13.158     11.671
      154.0     13.223     10.822
      154.0     13.351     12.520
      154.0     13.437     12.732
      154.0     13.544     11.883
      154.0     13.609     12.944
      154.0     13.737     12.732
      154.0     13.866     13.369
      154.0     13.952     13.156
      154.0     14.059     14.218
      154.0     14.145     13.156
      154.0     14.231     13.793
      154.0     14.359     12.944
      154.0     14.466     13.793
      154.0     14.531     12.732
      154.0     14.660     12.732
      154.0     14.745     12.944
      154.0     14.831     12.520
      154.0     14.960     13.581
      154.0     15.046     12.944
      154.0     15.153     11.883
      154.0     15.260     12.308
      154.0     15.346     13.581
      154.0     15.453     13.793
      154.0     15.560     14.642
      154.0     15.668     15.915
      154.0     15.775     15.491
      154.0     15.882     14.854
      154.0     15.946     14.005
      154.0     16.054     13.793
      154.0     16.139     12.944
      154.0     16.247     13.581
      154.0     16.332     12.732
      154.0     16.461     11.671
      154.0     16.547      9.549
      154.0     16.654      9.761
      154.0     16.740      9.973
      154.0     16.847      9.761
      154.0     16.933      9.337
      154.0     17.019      8.488
      154.0     17.147      9.125
      154.0     17.255     10.610
      154.0     17.362     12.308
      154.0     17.448     14.218
      154.0     17.576     15.703
      154.0     17.662     15.066
      154.0     17.769     16.127
      154.0     17.834     17.188
      154.0     17.984     18.462
      154.0     18.070     19.523
      154.0     18.177     19.523
      154.0     18.263     19.310
      154.0     18.413     19.098
      154.0     18.563     19.523
      154.0     18.627     18.674
      154.0     18.756     19.310
      154.0     18.842     19.735
      154.0     18.949     20.159
      154.0     19.056     19.523
      154.0     19.142     20.159
      154.0     19.249     21.008
      154.0     19.378     22.069
      154.0     19.464     22.918
      154.0     19.571     22.706
ENDDATA           1084
ENDSUBENT         1094
SUBENT        C0753003   20181115   20190401   20190326       C182
BIB                  3          4
REACTION   (4-BE-9(A,EL)4-BE-9,,DA)
STATUS     (CURVE) Fig. 3, page 322.
           (COREL,C0753002) Excitation function
HISTORY    (20181113C) BP
ENDBIB               4
NOCOMMON             0          0
DATA                 3        676
EN         ANG-CM     DATA-CM
MEV        ADEG       MB/SR
        9.5     20.505  4.123E+02
        9.5     24.745  2.126E+02
        9.5     27.000  1.115E+02
        9.5     30.296  5.179E+01
        9.5     30.296  5.179E+01
        9.5     34.364  3.989E+01
        9.5     34.447  3.293E+01
        9.5     39.271  4.355E+01
        9.5     41.099  6.175E+01
        9.5     42.987  7.615E+01
        9.5     47.931  7.620E+01
        9.5     50.920  7.234E+01
        9.5     55.902  6.634E+01
        9.5     58.943  5.575E+01
        9.5     63.011  4.294E+01
        9.5     69.087  3.085E+01
        9.5     73.087  2.780E+01
        9.5     75.035  2.981E+01
        9.5     80.960  3.036E+01
        9.5     85.890  3.146E+01
        9.5     89.875  2.936E+01
        9.5     94.797  3.096E+01
        9.5     97.801  2.838E+01
        9.5    101.786  2.648E+01
        9.5    105.787  2.386E+01
        9.5    108.738  2.472E+01
        9.5    108.738  2.472E+01
        9.5    111.660  2.746E+01
        9.5    117.571  2.896E+01
        9.5    121.556  2.702E+01
        9.5    126.515  2.611E+01
        9.5    131.512  2.312E+01
        9.5    134.539  2.012E+01
        9.5    137.483  2.121E+01
        9.5    143.341  2.527E+01
        9.5    147.222  3.010E+01
        9.5    149.079  3.981E+01
        9.5    152.915  5.265E+01
        9.5    154.743  7.464E+01
        9.5    158.608  9.207E+01
        9.5    159.537  1.059E+02
        9.5    161.425  1.306E+02
       10.0     39.091  3.038E+02
       10.0     39.888  2.229E+02
       10.0     40.165  7.049E+01
       10.0     41.419  1.083E+02
       10.0     41.632  1.527E+02
       10.0     45.874  4.908E+01
       10.0     48.660  3.663E+01
       10.0     53.785  4.901E+01
       10.0     55.922  6.340E+01
       10.0     58.995  7.524E+01
       10.0     63.907  7.139E+01
       10.0     67.788  6.326E+01
       10.0     69.628  5.058E+01
       10.0     74.423  3.973E+01
       10.0     76.252  3.122E+01
       10.0     78.984  2.138E+01
       10.0     82.833  1.799E+01
       10.0     85.842  1.926E+01
       10.0     90.797  1.958E+01
       10.0     91.903  2.365E+01
       10.0     94.954  2.712E+01
       10.0     97.028  3.164E+01
       10.0    100.005  3.217E+01
       10.0    105.002  3.502E+01
       10.0    108.926  3.324E+01
       10.0    112.817  2.996E+01
       10.0    114.689  2.522E+01
       10.0    118.601  2.353E+01
       10.0    120.536  2.196E+01
       10.0    125.449  2.083E+01
       10.0    127.480  2.270E+01
       10.0    132.530  2.693E+01
       10.0    135.624  3.307E+01
       10.0    140.590  3.420E+01
       10.0    140.653  3.791E+01
       10.0    147.554  3.658E+01
       10.0    147.596  3.919E+01
       10.0    151.477  3.472E+01
       10.0    158.410  3.528E+01
       10.0    158.474  3.911E+01
       10.0    162.503  4.407E+01
       10.0    162.567  4.886E+01
       10.0    163.641  5.605E+01
       10.0    165.736  6.768E+01
       10.0    167.777  7.500E+01
       10.0    169.850  8.752E+01
       10.0    172.987  1.151E+02
       10.0    176.039  1.320E+02
       10.0    178.133  1.595E+02
       10.5     32.350  3.345E+01
       10.5     35.858  4.040E+02
       10.5     37.443  2.129E+02
       10.5     39.729  7.030E+01
       10.5     43.323  3.901E+01
       10.5     44.205  3.280E+01
       10.5     44.471  5.056E+01
       10.5     49.149  3.277E+01
       10.5     49.277  4.033E+01
       10.5     52.445  5.600E+01
       10.5     55.508  6.540E+01
       10.5     60.462  6.648E+01
       10.5     63.365  5.989E+01
       10.5     65.183  4.618E+01
       10.5     68.936  3.322E+01
       10.5     70.648  2.155E+01
       10.5     75.316  1.373E+01
       10.5     78.144  1.096E+01
       10.5     81.185  1.236E+01
       10.5     85.289  1.574E+01
       10.5     87.469  2.185E+01
       10.5     90.553  2.642E+01
       10.5     93.604  3.032E+01
       10.5     96.624  3.305E+01
       10.5    101.600  3.477E+01
       10.5    104.545  3.357E+01
       10.5    106.470  3.078E+01
       10.5    116.188  2.329E+01
       10.5    121.089  2.171E+01
       10.5    127.139  2.624E+01
       10.5    132.243  3.398E+01
       10.5    135.316  4.038E+01
       10.5    139.314  4.324E+01
       10.5    146.267  4.549E+01
       10.5    147.214  4.244E+01
       10.5    150.148  4.027E+01
       10.5    154.104  4.024E+01
       10.5    160.037  4.019E+01
       10.5    161.100  4.536E+01
       10.5    165.204  5.775E+01
       10.5    168.341  7.613E+01
       10.5    168.341  7.613E+01
       10.5    171.435  9.364E+01
       10.5    173.519  1.113E+02
       10.5    177.527  1.213E+02
       11.5     30.175  2.547E+02
       11.5     30.175  2.547E+02
       11.5     32.153  1.569E+02
       11.5     35.119  5.179E+01
       11.5     37.097  3.360E+01
       11.5     40.064  3.190E+01
       11.5     41.053  3.601E+01
       11.5     43.031  4.065E+01
       11.5     44.019  4.833E+01
       11.5     45.008  5.551E+01
       11.5     46.986  6.266E+01
       11.5     47.975  7.073E+01
       11.5     50.942  7.323E+01
       11.5     52.919  6.952E+01
       11.5     55.886  6.266E+01
       11.5     60.831  4.750E+01
       11.5     62.808  3.245E+01
       11.5     66.764  1.624E+01
       11.5     69.731  8.557E+00
       11.5     72.697  4.668E+00
       11.5     75.664  5.949E+00
       11.5     79.619  1.072E+01
       11.5     82.586  1.624E+01
       11.5     85.553  2.218E+01
       11.5     87.531  2.777E+01
       11.5     90.497  3.028E+01
       11.5     92.475  3.245E+01
       11.5     97.419  3.190E+01
       11.5    103.353  3.135E+01
       11.5    105.331  2.591E+01
       11.5    109.286  2.218E+01
       11.5    115.219  2.069E+01
       11.5    120.164  2.336E+01
       11.5    125.108  3.245E+01
       11.5    129.064  4.065E+01
       11.5    134.008  4.917E+01
       11.5    137.964  5.179E+01
       11.5    141.919  5.179E+01
       11.5    145.875  4.510E+01
       11.5    148.842  4.065E+01
       11.5    151.808  3.859E+01
       11.5    156.753  4.065E+01
       11.5    158.731  4.432E+01
       11.5    161.697  5.648E+01
       11.5    165.653  6.952E+01
       11.5    168.619  8.707E+01
       11.5    171.586  1.109E+02
       12.0     28.197  2.723E+02
       12.0     28.197  1.325E+02
       12.0     32.153  5.902E+01
       12.0     36.108  5.219E+01
       12.0     39.075  6.332E+01
       12.0     40.064  7.549E+01
       12.0     40.064  7.549E+01
       12.0     43.031  9.321E+01
       12.0     47.975  9.826E+01
       12.0     48.964  8.537E+01
       12.0     56.875  4.534E+01
       12.0     61.819  1.235E+01
       12.0     64.786  8.688E+00
       12.0     69.731  1.372E+01
       12.0     71.708  2.366E+01
       12.0     76.653  3.304E+01
       12.0     77.642  4.226E+01
       12.0     81.597  4.780E+01
       12.0     85.553  4.864E+01
       12.0     88.519  4.153E+01
       12.0     94.453  3.190E+01
       12.0    100.386  2.245E+01
       12.0    104.342  1.985E+01
       12.0    109.286  2.366E+01
       12.0    115.219  2.772E+01
       12.0    120.164  3.080E+01
       12.0    124.119  3.135E+01
       12.0    130.053  3.247E+01
       12.0    134.008  3.190E+01
       12.0    137.964  3.135E+01
       12.0    142.908  3.026E+01
       12.0    145.875  2.821E+01
       12.0    148.842  2.629E+01
       12.0    151.808  2.167E+01
       12.0    156.753  2.206E+01
       12.0    161.697  2.325E+01
       12.0    165.653  2.723E+01
       12.0    167.631  3.026E+01
       12.0    171.586  4.080E+01
       12.5     39.706  2.416E+02
       12.5     40.110  1.224E+02
       12.5     46.418  5.975E+01
       12.5     47.212  4.762E+01
       12.5     49.130  4.438E+01
       12.5     53.146  4.754E+01
       12.5     53.281  5.562E+01
       12.5     56.292  5.856E+01
       12.5     56.397  6.617E+01
       12.5     60.323  6.383E+01
       12.5     64.203  5.844E+01
       12.5     66.975  4.655E+01
       12.5     68.489  2.709E+01
       12.5     71.980  1.576E+01
       12.5     74.332  7.704E+00
       12.5     79.172  6.810E+00
       12.5     80.550  1.071E+01
       12.5     84.955  1.806E+01
       12.5     86.289  2.697E+01
       12.5     94.530  3.949E+01
       12.5    100.418  3.742E+01
       12.5    107.071  2.729E+01
       12.5    111.641  1.762E+01
       12.5    118.353  1.378E+01
       12.5    123.417  1.582E+01
       12.5    128.647  2.201E+01
       12.5    131.778  2.664E+01
       12.5    136.753  2.755E+01
       12.5    142.671  2.703E+01
       12.5    146.492  2.308E+01
       12.5    151.256  1.870E+01
       12.5    154.762  1.107E+01
       12.5    154.957  1.388E+01
       12.5    159.692  1.086E+01
       12.5    165.670  1.143E+01
       12.5    167.858  1.458E+01
       12.5    172.023  1.859E+01
       12.5    175.170  2.290E+01
       12.5    181.523  3.726E+01
       12.5    183.605  4.208E+01
       13.0     23.736  2.670E+02
       13.0     29.670  1.333E+02
       13.0     31.648  6.661E+01
       13.0     35.604  5.167E+01
       13.0     38.571  4.747E+01
       13.0     40.549  5.436E+01
       13.0     43.516  6.017E+01
       13.0     46.484  5.529E+01
       13.0     49.451  5.080E+01
       13.0     52.418  3.875E+01
       13.0     53.407  3.216E+01
       13.0     53.407  3.216E+01
       13.0     55.385  2.292E+01
       13.0     59.341  1.289E+01
       13.0     63.297  7.128E+00
       13.0     65.275  7.627E+00
       13.0     65.275  7.627E+00
       13.0     68.242  1.267E+01
       13.0     71.209  1.809E+01
       13.0     75.165  2.412E+01
       13.0     78.132  3.057E+01
       13.0     83.077  3.327E+01
       13.0     87.033  3.216E+01
       13.0     90.000  2.857E+01
       13.0     93.956  2.453E+01
       13.0     96.923  2.106E+01
       13.0     99.890  1.719E+01
       13.0    104.835  1.451E+01
       13.0    111.758  1.606E+01
       13.0    115.714  2.002E+01
       13.0    120.659  2.412E+01
       13.0    125.604  2.495E+01
       13.0    128.571  2.254E+01
       13.0    134.505  1.809E+01
       13.0    138.462  1.289E+01
       13.0    141.429  9.505E+00
       13.0    145.385  6.890E+00
       13.0    148.352  8.161E+00
       13.0    152.308  8.882E+00
       13.0    156.264  1.356E+01
       13.0    159.231  1.809E+01
       13.0    162.198  2.715E+01
       13.0    166.154  3.216E+01
       13.0    166.154  4.146E+01
       13.0    170.110  4.828E+01
      14.05     25.714  2.231E+02
      14.05     28.681  8.851E+01
      14.05     28.681  8.851E+01
      14.05     31.648  4.037E+01
      14.05     34.615  3.218E+01
      14.05     35.604  3.511E+01
      14.05     39.560  4.254E+01
      14.05     42.527  4.806E+01
      14.05     47.473  4.642E+01
      14.05     49.451  3.391E+01
      14.05     52.418  2.081E+01
      14.05     52.418  2.081E+01
      14.05     52.418  2.081E+01
      14.05     55.385  1.036E+01
      14.05     55.385  1.036E+01
      14.05     59.341  4.405E+00
      14.05     61.319  5.623E+00
      14.05     64.286  9.326E+00
      14.05     69.231  1.345E+01
      14.05     71.209  1.717E+01
      14.05     75.165  2.192E+01
      14.05     79.121  2.351E+01
      14.05     85.055  2.392E+01
      14.05     87.033  1.940E+01
      14.05     93.956  1.574E+01
      14.05     97.912  1.299E+01
      14.05    104.835  1.212E+01
      14.05    109.780  1.277E+01
      14.05    114.725  1.630E+01
      14.05    120.659  1.810E+01
      14.05    126.593  1.688E+01
      14.05    129.560  1.494E+01
      14.05    129.560  1.494E+01
      14.05    134.505  1.277E+01
      14.05    137.473  1.091E+01
      14.05    142.418  9.657E+00
      14.05    142.418  9.657E+00
      14.05    146.374  8.399E+00
      14.05    148.352  9.827E+00
      14.05    151.319  1.091E+01
      14.05    155.275  1.299E+01
      14.05    159.231  1.547E+01
      14.05    162.198  1.778E+01
      14.05    165.165  2.310E+01
      14.05    168.132  2.565E+01
      14.05    170.110  3.108E+01
      14.86     24.725  2.009E+02
      14.86     25.714  1.778E+02
      14.86     26.703  6.695E+01
      14.86     30.659  2.565E+01
      14.86     33.626  2.231E+01
      14.86     36.593  3.511E+01
      14.86     36.593  3.511E+01
      14.86     38.571  4.806E+01
      14.86     40.549  5.526E+01
      14.86     43.516  5.244E+01
      14.86     46.484  4.642E+01
      14.86     47.473  3.636E+01
      14.86     50.440  2.848E+01
      14.86     52.418  1.907E+01
      14.86     55.385  8.111E+00
      14.86     66.264  9.657E+00
      14.86     68.242  1.494E+01
      14.86     71.209  1.974E+01
      14.86     78.132  2.045E+01
      14.86     81.099  1.778E+01
      14.86     81.099  1.778E+01
      14.86     85.055  1.468E+01
      14.86     87.033  1.212E+01
      14.86     90.000  1.072E+01
      14.86     93.956  9.657E+00
      14.86     96.923  1.000E+01
      14.86     98.901  1.130E+01
      14.86    100.879  1.233E+01
      14.86    103.846  1.393E+01
      14.86    106.813  1.547E+01
      14.86    109.780  1.717E+01
      14.86    112.747  1.874E+01
      14.86    117.692  1.907E+01
      14.86    124.615  1.748E+01
      14.86    129.560  1.574E+01
      14.86    133.516  1.299E+01
      14.86    137.473  1.212E+01
      14.86    142.418  1.072E+01
      14.86    143.407  9.006E+00
      14.86    148.352  9.490E+00
      14.86    152.308  1.036E+01
      14.86    154.286  1.345E+01
      14.86    158.242  1.602E+01
      14.86    158.242  1.602E+01
      14.86    161.209  2.231E+01
      14.86    164.176  2.949E+01
      14.86    167.143  3.511E+01
      14.86    169.121  4.180E+01
       15.7     24.725  1.642E+02
       15.7     26.703  6.422E+01
       15.7     30.659  3.709E+01
       15.7     32.637  4.924E+01
       15.7     35.604  7.017E+01
       15.7     35.604  7.017E+01
       15.7     38.571  1.036E+02
       15.7     38.571  1.036E+02
       15.7     41.538  7.943E+01
       15.7     43.516  6.773E+01
       15.7     47.473  4.587E+01
       15.7     49.451  2.894E+01
       15.7     51.429  2.031E+01
       15.7     53.407  1.328E+01
       15.7     55.385  1.055E+01
       15.7     56.374  9.316E+00
       15.7     58.352  1.215E+01
       15.7     61.319  1.926E+01
       15.7     64.286  2.744E+01
       15.7     69.231  3.162E+01
       15.7     72.198  3.455E+01
       15.7     75.165  3.107E+01
       15.7     79.121  2.468E+01
       15.7     82.088  1.926E+01
       15.7     85.055  1.557E+01
       15.7     87.033  1.351E+01
       15.7     90.000  1.259E+01
       15.7     93.956  1.215E+01
       15.7     98.901  1.400E+01
       15.7    104.835  1.476E+01
       15.7    109.780  1.671E+01
       15.7    109.780  1.671E+01
       15.7    113.736  1.926E+01
       15.7    118.681  2.031E+01
       15.7    123.626  2.031E+01
       15.7    129.560  1.995E+01
       15.7    132.527  1.732E+01
       15.7    137.473  1.732E+01
       15.7    141.429  1.892E+01
       15.7    144.396  2.031E+01
       15.7    149.341  1.960E+01
       15.7    152.308  1.794E+01
       15.7    154.286  1.585E+01
       15.7    159.231  1.995E+01
       15.7    162.198  2.512E+01
       15.7    166.154  3.517E+01
       15.7    167.143  5.012E+01
       15.7    170.110  6.537E+01
      16.55     25.574  1.668E+02
      16.55     25.574  1.166E+02
      16.55     26.557  9.501E+01
      16.55     27.541  5.794E+01
      16.55     28.525  4.642E+01
      16.55     30.492  3.189E+01
      16.55     32.459  3.719E+01
      16.55     34.426  6.203E+01
      16.55     38.361  8.432E+01
      16.55     42.295  8.149E+01
      16.55     43.279  7.483E+01
      16.55     45.246  6.989E+01
      16.55     46.230  5.696E+01
      16.55     47.213  4.642E+01
      16.55     49.180  3.473E+01
      16.55     53.115  1.455E+01
      16.55     56.066  5.794E+00
      16.55     58.033  8.289E+00
      16.55     61.967  1.848E+01
      16.55     64.918  2.736E+01
      16.55     67.869  3.473E+01
      16.55     73.770  3.594E+01
      16.55     75.738  2.830E+01
      16.55     78.689  2.047E+01
      16.55     82.623  1.383E+01
      16.55     84.590  8.875E+00
      16.55     86.557  5.893E+00
      16.55     93.443  6.529E+00
      16.55     96.393  7.232E+00
      16.55    100.328  8.725E+00
      16.55    104.262  1.000E+01
      16.55    107.213  9.183E+00
      16.55    111.148  1.000E+01
      16.55    116.066  1.071E+01
      16.55    119.016  1.227E+01
      16.55    124.918  1.270E+01
      16.55    127.869  1.383E+01
      16.55    132.787  1.480E+01
      16.55    138.689  1.558E+01
      16.55    142.623  1.786E+01
      16.55    145.574  1.848E+01
      16.55    148.525  1.726E+01
      16.55    150.492  1.431E+01
      16.55    154.426  1.146E+01
      16.55    159.344  1.000E+01
      16.55    161.311  1.292E+01
      16.55    164.262  1.945E+01
      16.55    167.213  2.644E+01
      16.55    171.148  3.782E+01
       17.5     25.574  4.163E+01
       17.5     28.525  7.466E+01
       17.5     29.508  2.486E+01
       17.5     29.508  2.852E+01
       17.5     32.459  3.755E+01
       17.5     33.443  4.776E+01
       17.5     34.426  6.180E+01
       17.5     36.393  7.214E+01
       17.5     38.361  8.136E+01
       17.5     42.295  8.136E+01
       17.5     44.262  7.727E+01
       17.5     44.262  5.972E+01
       17.5     47.213  3.954E+01
       17.5     49.180  3.162E+01
       17.5     50.164  1.856E+01
       17.5     53.115  8.867E+00
       17.5     56.066  3.330E+00
       17.5     60.000  7.596E+00
       17.5     60.984  1.646E+01
       17.5     66.885  2.902E+01
       17.5     68.852  3.628E+01
       17.5     73.770  3.566E+01
       17.5     74.754  3.108E+01
       17.5     78.689  2.321E+01
       17.5     81.639  1.618E+01
       17.5     84.590  9.336E+00
       17.5     88.525  5.575E+00
       17.5     91.475  4.309E+00
       17.5     94.426  5.672E+00
       17.5     97.377  8.278E+00
       17.5     99.344  1.035E+01
       17.5    101.311  1.250E+01
       17.5    107.213  1.316E+01
       17.5    111.148  1.187E+01
       17.5    114.098  1.035E+01
       17.5    116.066  9.662E+00
       17.5    119.016  7.596E+00
       17.5    125.902  6.508E+00
       17.5    130.820  7.092E+00
       17.5    133.770  1.000E+01
       17.5    137.705  1.272E+01
       17.5    141.639  1.485E+01
       17.5    145.574  1.794E+01
       17.5    151.475  1.794E+01
       17.5    154.426  1.563E+01
       17.5    159.344  1.510E+01
       17.5    161.311  1.733E+01
       17.5    165.246  1.955E+01
       17.5    166.230  2.529E+01
       17.5    170.164  2.952E+01
       18.4     26.557  9.177E+01
       18.4     26.557  6.971E+01
       18.4     28.525  2.243E+01
       18.4     29.508  1.856E+01
       18.4     32.459  3.628E+01
       18.4     34.426  6.852E+01
       18.4     38.361  7.862E+01
       18.4     43.279  6.397E+01
       18.4     46.230  4.022E+01
       18.4     49.180  1.590E+01
       18.4     51.148  7.728E+00
       18.4     56.066  7.728E+00
       18.4     60.000  1.128E+01
       18.4     61.967  1.988E+01
       18.4     65.902  2.402E+01
       18.4     68.852  2.618E+01
       18.4     74.754  2.529E+01
       18.4     76.721  1.955E+01
       18.4     81.639  1.017E+01
       18.4     86.557  5.770E+00
       18.4     93.443  7.728E+00
       18.4     99.344  1.128E+01
       18.4    105.246  1.272E+01
       18.4    111.148  1.167E+01
       18.4    115.082  9.662E+00
       18.4    120.000  7.862E+00
       18.4    124.918  8.716E+00
       18.4    128.852  1.272E+01
       18.4    133.770  1.704E+01
       18.4    138.689  2.321E+01
       18.4    141.639  2.663E+01
       18.4    146.557  2.756E+01
       18.4    149.508  2.529E+01
       18.4    152.459  2.361E+01
       18.4    158.361  2.243E+01
       18.4    161.311  2.902E+01
       18.4    165.246  3.755E+01
       18.4    167.213  5.387E+01
       18.4    170.164  6.397E+01
      19.47     26.557  6.053E+01
      19.47     28.525  2.976E+01
      19.47     30.492  4.208E+01
      19.47     32.459  8.124E+01
      19.47     36.393  1.090E+02
      19.47     39.344  1.149E+02
      19.47     43.279  1.000E+02
      19.47     45.246  8.557E+01
      19.47     47.213  5.270E+01
      19.47     50.164  2.976E+01
      19.47     52.131  1.231E+01
      19.47     56.066  1.342E+01
      19.47     60.000  2.105E+01
      19.47     61.967  3.135E+01
      19.47     67.869  3.664E+01
      19.47     70.820  3.418E+01
      19.47     73.770  3.190E+01
      19.47     76.721  2.218E+01
      19.47     79.672  1.596E+01
      19.47     81.639  1.017E+01
      19.47     85.574  7.985E+00
      19.47     90.492  7.581E+00
      19.47     90.492  9.828E+00
      19.47     93.443  1.129E+01
      19.47     97.377  1.389E+01
      19.47    101.311  1.414E+01
      19.47    106.230  1.210E+01
      19.47    110.164  9.828E+00
      19.47    116.066  7.985E+00
      19.47    120.984  7.713E+00
      19.47    125.902  8.410E+00
      19.47    129.836  1.252E+01
      19.47    133.770  1.652E+01
      19.47    137.705  2.296E+01
      19.47    141.639  2.730E+01
      19.47    144.590  3.190E+01
      19.47    150.492  2.976E+01
      19.47    153.443  2.777E+01
      19.47    156.393  2.460E+01
      19.47    160.328  2.777E+01
      19.47    161.311  3.245E+01
      19.47    165.246  4.432E+01
      19.47    168.197  6.266E+01
      19.47    171.148  7.197E+01
       20.0     23.607  3.450E+02
       20.0     23.607  4.329E+01
       20.0     26.557  3.108E+01
       20.0     29.508  3.450E+01
       20.0     30.492  5.154E+01
       20.0     32.459  6.244E+01
       20.0     33.443  7.971E+01
       20.0     34.426  1.150E+02
       20.0     36.393  1.393E+02
       20.0     41.311  1.322E+02
       20.0     43.279  9.657E+01
       20.0     46.230  5.823E+01
       20.0     49.180  2.703E+01
       20.0     53.115  1.345E+01
       20.0     55.082  1.810E+01
       20.0     59.016  2.610E+01
       20.0     61.967  3.765E+01
       20.0     66.885  3.700E+01
       20.0     69.836  3.218E+01
       20.0     72.787  2.565E+01
       20.0     76.721  1.602E+01
       20.0     78.689  1.036E+01
       20.0     85.574  7.179E+00
       20.0     88.525  8.697E+00
       20.0     90.492  1.110E+01
       20.0     93.443  1.299E+01
       20.0     96.393  1.417E+01
       20.0     99.344  1.520E+01
       20.0    102.295  1.299E+01
       20.0    105.246  1.150E+01
       20.0    110.164  8.697E+00
       20.0    115.082  7.565E+00
       20.0    124.918  6.354E+00
       20.0    129.836  8.697E+00
       20.0    133.770  1.345E+01
       20.0    137.705  1.574E+01
       20.0    140.656  2.045E+01
       20.0    145.574  2.351E+01
       20.0    147.541  2.703E+01
       20.0    153.443  2.750E+01
       20.0    158.361  2.799E+01
       20.0    162.295  3.332E+01
       20.0    165.246  3.899E+01
       20.0    167.213  4.642E+01
       20.0    171.148  5.722E+01
ENDDATA            678
ENDSUBENT          687
ENDENTRY             3
