ENTRY            C0798   20010629   20010927
SUBENT        C0798001   20010629   20010927
BIB                 13         19
INSTITUTE  (1USAWIS)
REFERENCE  (J,PR/C,24,1891,198111)
AUTHOR     (C.A.Davis)
TITLE      20Ne(alpha,12C)12C
FACILITY   (VDGT,1USAWIS)
INC-SOURCE He++ ion beam. Energy resolution is at worst 4 keV
            and arises mainly from straggling of the beam in the
            gas target.
SAMPLE     Differentially pumped natural neon gas.
METHOD     (BCINT)
DETECTOR   (SOLST) Thin depleted surface barrier detectors.
CORRECTION Corrected for helium partial pressure buildup.
ERR-ANALYS (ERR-S) Uncertainty given includes counting statistics
            and background subtraction.
           Systematic uncertainties varied from 2-3%
            (greater at forward angles).
STATUS     Data taken from PRVCA-24-1891-244/
           (APRVD) Approved by C.A. Davis, 29 June 2001.
HISTORY    (20010502C) VM
ENDBIB              19
NOCOMMON             0          0
ENDSUBENT           22
SUBENT        C0798002   20010516   20010927
BIB                  1          1
REACTION   (10-NE-20(A,EL)10-NE-20,,DA)
ENDBIB               1
NOCOMMON             0          0
DATA                 4       1008
ANG        EN         DATA       ERR-S
ADEG       MEV        MB/SR      MB/SR
 45.        16.297    25986.3      244.3
 45.        16.307    29173.4      262.6
 45.        16.317    32570.1      281.7
 45.        16.327    36986.6      305.9
 45.        16.337    41924.0      332.4
 45.        16.347    45926.7      353.6
 45.        16.357    47739.9      363.0
 45.        16.367    51253.4      381.2
 45.        16.377    53763.2      394.2
 45.        16.387    55899.0      405.0
 45.        16.397    57319.5      412.2
 45.        16.407    57613.3      413.8
 45.        16.417    58608.4      418.9
 45.        16.427    58404.1      417.8
 45.        16.437    59008.1      420.9
 45.        16.447    57297.6      412.2
 45.        16.457    54116.5      396.0
 45.        16.467    50858.7      379.2
 45.        16.477    46143.0      354.7
 45.        16.487    44159.8      344.3
 45.        16.497    42141.9      333.7
 45.        16.507    42220.5      334.1
 45.        16.517    42682.2      336.5
 45.        16.527    43952.4      343.2
 45.        16.537    45004.9      348.8
 45.        16.547    45808.6      353.0
 45.        16.557    47120.8      359.9
 45.        16.567    48516.0      367.1
 45.        16.577    50030.5      375.0
 45.        16.587    49770.1      373.8
 45.        16.597    50325.0      376.7
 45.        16.607    50652.2      378.4
 45.        16.617    51729.2      383.9
 45.        16.627    52590.2      388.4
 45.        16.637    53221.0      391.6
 45.        16.647    51154.9      381.0
 45.        16.657    47255.1      360.7
 45.        16.667    43708.5      342.1
 45.        16.677    39524.7      319.9
 45.        16.687    35804.9      299.7
 45.        16.697    32792.9      283.2
 45.        16.707    29854.4      266.7
 45.        16.717    27322.9      252.2
 45.        16.727    26643.1      248.3
 45.        16.737    25850.9      243.7
 45.        16.747    26099.4      245.1
 45.        16.757    28481.8      258.7
 45.        16.767    30465.2      270.0
 45.        16.777    32602.1      282.0
 45.        16.787    35876.1      300.0
 45.        16.797    37725.7      310.0
 45.        16.807    38309.8      313.2
 45.        16.817    38913.1      316.4
 45.        16.827    39726.4      320.8
 45.        16.837    39996.6      322.2
 45.        16.847    42201.2      334.0
 45.        16.857    43162.5      339.1
 45.        16.867    44033.5      343.7
 45.        16.877    41667.0      331.2
 45.        16.887    39367.5      318.9
 45.        16.897    38295.1      313.1
 45.        16.907    37532.0      309.0
 45.        16.917    36687.3      304.4
 45.        16.927    35671.6      298.9
 45.        16.937    34835.9      294.3
 45.        16.947    33132.4      284.9
 45.        16.957    30533.4      270.3
 45.        16.967    27821.7      254.9
 45.        16.977    27504.2      253.1
 45.        16.987    26435.9      246.9
 45.        16.997    26267.4      246.0
 45.        17.007    23160.0      227.6
 45.        17.017    26777.6      248.8
 45.        17.037    28448.5      258.6
 45.        17.047    29202.1      262.9
 45.        17.057    29749.1      266.0
 45.        17.067    30055.8      267.8
 45.        17.077    29485.7      264.6
 45.        17.087    31114.0      273.8
 45.        17.097    34807.0      294.2
 45.        17.104    39181.4      268.5
 45.        17.107    36984.5      306.1
 45.        17.114    41781.0      344.3
 45.        17.117    41371.3      329.7
 45.        17.124    44448.0      358.9
 45.        17.127    44117.2      344.2
 45.        17.134    45973.6      367.2
 45.        17.137    46099.2      354.8
 45.        17.144    48530.7      380.9
 45.        17.154    49925.1      388.5
 45.        17.164    52061.0      399.9
 45.        17.174    54033.2      410.4
 45.        17.184    55284.2      417.1
 45.        17.194    56096.9      421.4
 45.        17.204    56048.9      421.1
 45.        17.214    55788.6      419.8
 45.        17.224    55481.7      418.2
 45.        17.234    55927.8      420.5
 45.        17.244    55728.6      419.5
 45.        17.254    54576.0      413.4
 45.        17.264    53993.5      410.3
 45.        17.274    53077.9      405.4
 45.        17.284    51979.5      399.6
 45.        17.294    50575.2      392.7
 45.        17.304    48731.9      382.7
 45.        17.314    48550.0      399.7
 45.        17.324    47146.7      373.7
 45.        17.334    46857.7      372.1
 45.        17.344    48904.7      383.2
 45.        17.354    48766.1      382.5
 45.        17.364    48505.0      381.0
 45.        17.374    48276.0      379.7
 45.        17.384    46811.1      371.8
 45.        17.391    46629.5      518.9
 45.        17.394    45173.9      362.9
 45.        17.401    44150.0      504.5
 45.        17.404    43409.4      353.3
 45.        17.411    43005.8      497.3
 45.        17.414    41840.5      344.7
 45.        17.421    41689.5      488.7
 45.        17.424    39676.1      332.7
 45.        17.431    41293.4      486.1
 45.        17.434    38342.5      325.3
 45.        17.441    40550.8      481.1
 45.        17.444    38144.2      324.2
 45.        17.451    39689.1      467.3
 45.        17.461    40214.6      478.9
 45.        17.471    39968.9      476.8
 45.        17.481    40447.1      480.6
 45.        17.491    40709.2      482.3
 45.        17.501    39168.0      472.0
 45.        17.511    41569.4      487.9
 45.        17.521    41913.3      490.2
 45.        17.531    41770.6      489.2
 45.        17.541    42114.1      491.5
 45.        17.551    41441.5      487.1
 45.        17.561    40518.4      481.0
 45.        17.571    38561.7      467.9
 45.        17.581    38706.6      468.9
 45.        17.591    36851.0      456.3
 45.        17.601    35493.4      446.9
 45.        17.611    32782.0      427.8
 45.        17.621    32721.9      427.3
 45.        17.631    30755.9      413.1
 45.        17.641    30830.5      413.6
 45.        17.651    29961.9      407.2
 45.        17.661    30285.9      409.6
 45.        17.667    31051.3      415.2
 45.        17.681    31711.0      420.0
 45.        17.691    32915.2      270.4
 45.        17.711    35081.8      281.4
 45.        17.731    38364.3      297.8
 45.        17.751    40034.5      306.1
 45.        17.771    41558.6      313.5
 45.        17.791    42290.7      317.1
 45.        17.811    43142.1      321.2
 45.        17.831    42786.9      319.5
 45.        17.851    42559.2      318.4
 45.        17.871    40735.0      309.5
 45.        17.891    39203.0      302.0
 45.        17.911    39375.8      302.9
 45.        17.931    39510.8      303.5
 45.        17.951    39331.3      302.7
 45.        17.971    38437.2      298.3
 45.        17.991    36790.0      290.1
 45.        18.011    34849.3      280.4
 45.        18.031    32721.5      269.6
 45.        18.052    30476.3      258.0
 45.        18.072    27228.3      240.9
 45.        18.092    24839.7      227.9
 45.        18.112    22685.5      216.0
 45.        18.132    22091.0      212.7
 45.        18.152    21347.7      208.4
 45.        18.172    21276.1      208.0
 45.        18.192    21565.2      209.7
 45.        18.212    22163.8      213.0
 45.        18.232    21614.2      209.9
 45.        18.252    20978.7      206.2
 45.        18.272    22058.9      212.4
 45.        18.292    23526.0      220.6
 45.        18.312    26986.7      239.5
 45.        18.332    30776.7      259.5
 45.        18.352    33986.0      276.0
 45.        18.372    35314.6      282.7
 45.        18.392    36124.5      286.7
 45.        18.412    34110.5      276.6
 45.        18.432    31312.9      263.8
 45.        18.452    29006.2      250.3
 45.        18.472    26783.9      238.4
 45.        18.492    26104.2      234.8
 45.        18.512    25783.7      233.0
 45.        18.532    25970.2      234.0
 45.        18.552    26577.5      237.3
 45.        18.572    27500.5      242.3
 45.        18.592    28020.1      245.0
 45.        18.612    28991.9      250.2
 45.        18.632    29802.0      254.4
 45.        18.652    31239.0      261.9
 45.        18.672    33362.8      272.8
 45.        18.692    34861.5      285.8
 45.        18.712    35154.7      282.0
 45.        18.732    34296.4      277.7
 45.        18.752    34534.3      278.9
 45.        18.772    34174.4      277.1
 45.        18.792    35541.6      284.0
 45.        18.812    36317.9      287.9
 45.        18.832    37049.2      291.5
 45.        18.852    39525.2      303.7
 45.        18.872    41846.6      315.1
 45.        18.882    42309.9      317.3
 45.        18.892    42624.7      318.8
 45.        18.902    41828.7      315.0
 45.        18.912    41039.2      311.1
 45.        18.922    40720.5      309.6
 45.        18.932    39574.8      304.0
 45.        18.942    37827.8      295.4
 45.        18.952    37342.5      293.0
 45.        18.962    36079.7      286.7
 45.        18.972    35768.3      285.2
 45.        18.982    35234.8      282.5
 45.        18.992    35103.9      281.9
 45.        19.002    34718.4      279.9
 45.        19.012    34165.4      277.1
 45.        19.022    34164.3      277.1
 45.        19.032    33663.5      274.5
 45.        19.042    33042.9      271.4
 45.        19.052    32279.6      267.4
 45.        19.062    31568.0      263.8
 45.        19.072    31008.2      260.9
 45.        19.082    30258.1      257.0
 45.        19.092    30110.7      256.2
 45.        19.102    29739.6      254.3
 45.        19.112    29048.6      250.7
 45.        19.122    28764.8      249.2
 45.        19.132    27281.0      236.5
 45.        19.132    28024.7      245.3
 45.        19.142    26474.3      232.4
 45.        19.142    27665.1      243.4
 45.        19.152    26127.0      230.9
 45.        19.152    27581.9      242.9
 45.        19.162    25442.8      227.3
 45.        19.162    26917.9      239.4
 45.        19.172    25828.6      229.5
 45.        19.182    25102.4      225.6
 45.        19.192    25049.3      225.3
 45.        19.202    24935.2      224.5
 45.        19.212    24560.0      222.9
 45.        19.222    25254.0      226.7
 45.        19.232    25062.3      225.6
 45.        19.242    24763.2      223.5
 45.        19.252    25056.2      225.0
 45.        19.262    24564.8      222.4
 45.        19.272    23377.4      216.1
 45.        19.282    23286.6      215.7
 45.        19.292    22781.3      212.9
 45.        19.302    22273.9      210.2
 45.        19.312    21302.0      204.8
 45.        19.322    20495.6      200.2
 45.        19.332    20155.2      198.2
 45.        19.342    19411.4      193.9
 45.        19.352    18760.3      190.2
 45.        19.362    18551.4      189.0
 45.        19.372    18609.1      189.2
 45.        19.382    19177.0      192.5
 45.        19.392    19370.6      193.6
 45.        19.402    19499.2      194.4
 45.        19.412    19608.4      195.0
 45.        19.422    20125.3      197.9
 45.        19.432    21419.7      205.2
 45.        19.442    21697.6      206.8
 45.        19.452    22338.9      210.3
 45.        19.462    22136.8      209.2
 45.        19.472    22332.6      210.3
 45.        19.482    23355.8      215.9
 45.        19.492    22711.9      212.4
 45.        19.502    22496.4      211.3
 45.        19.512    22138.7      209.3
 45.        19.522    21540.1      205.9
 45.        19.532    21942.0      207.9
 45.        19.542    22172.0      210.0
 45.        19.552    23180.5      215.7
 45.        19.562    22825.1      213.8
 45.        19.572    24118.2      220.9
 45.        19.582    24479.3      222.8
 45.        19.592    25048.3      226.0
 45.        19.602    24850.6      224.9
 45.        19.612    24982.0      225.7
 45.        19.622    24816.5      224.9
 45.        19.632    24314.0      222.1
 45.        19.642    23300.8      216.6
 45.        19.652    23362.8      217.1
 45.        19.662    23189.9      216.0
 45.        19.672    22392.6      211.9
 45.        19.682    22070.2      209.7
 45.        19.692    21878.4      208.6
 45.        19.702    21553.1      206.9
 45.        19.712    21951.4      209.4
 45.        19.722    21973.4      209.4
 45.        19.732    21937.9      209.5
 45.        19.742    22096.7      210.2
 45.        19.752    22760.2      214.2
 45.        19.762    22585.1      213.1
 45.        19.772    22486.8      212.4
 45.        19.782    22400.3      212.0
 45.        19.792    21880.9      209.0
 45.        19.802    22018.9      209.8
 45.        19.812    21874.8      209.1
 45.        19.822    21505.1      207.0
 45.        19.832    20673.8      202.2
 45.        19.842    20184.5      199.4
 45.        19.852    20038.7      198.4
 45.        19.862    19074.6      192.8
 45.        19.872    19067.6      192.8
 45.        19.882    18488.4      189.4
 45.        19.892    18038.5      186.7
 45.        19.902    10229.9      187.6
 45.        19.912    18668.1      190.5
 45.        19.922    18125.1      186.9
 45.        19.932    18541.3      189.9
 45.        19.942    18616.3      190.3
 45.        19.952    18560.8      189.9
 45.        19.962    19445.6      195.1
 45.        19.972    19331.9      194.4
 45.        19.982    20131.0      199.1
 45.        19.992    19890.8      197.7
 45.        20.002    20466.2      200.9
 45.        20.012    21094.4      204.5
 45.        20.022    21143.2      204.7
 45.        20.032    21041.4      204.1
 45.        20.042    21139.0      204.7
 45.        20.052    20931.2      203.6
 45.        20.062    21142.0      204.8
 45.        20.072    20312.6      200.0
 45.        20.082    20026.6      198.4
 45.        20.092    19308.3      194.2
 45.        20.102    19508.2      195.4
 45.        20.112    19131.4      193.3
 45.        20.122    19119.5      193.2
 45.        20.132    19945.0      198.0
 45.        20.142    20650.5      201.9
 45.        20.152    20128.0      198.9
 45.        20.162    20772.0      202.7
 45.        20.172    20798.2      202.7
 45.        20.182    20761.1      202.6
 45.        20.192    20990.8      203.7
 45.        20.202    21544.6      207.1
 45.        20.212    22618.3      213.1
 45.        20.222    23727.5      219.1
 45.        20.232    23775.7      219.4
 45.        20.242    24251.9      222.0
 45.        20.252    23865.4      219.8
 45.        20.262    24959.0      222.5
 45.        20.272    23820.5      219.6
 45.        20.282    23421.1      217.4
 45.        20.292    23145.4      215.9
 45.        20.302    23717.8      218.9
 45.        20.312    24759.1      224.6
 45.        20.322    25091.5      226.3
 45.        20.332    26968.9      236.4
 45.        20.342    27948.3      241.5
 45.        20.352    29771.8      250.9
 45.        20.363    30908.7      256.6
 45.        20.372    31776.9      260.9
 45.        20.382    31677.3      260.5
 45.        20.392    31795.7      261.2
 45.        20.402    31955.9      262.0
 45.        20.412    31535.2      259.9
 45.        20.422    31026.8      257.3
 45.        20.432    30776.4      256.0
 45.        20.442    30448.4      254.3
 45.        20.452    30953.6      256.5
 45.        20.462    30738.3      255.5
 45.        20.472    31164.4      258.5
 45.        20.482    30913.6      257.5
 45.        20.492    30784.0      257.0
 45.        20.502    30340.3      254.9
 45.        20.512    29546.3      250.7
 45.        20.522    29465.1      250.3
 45.        20.532    29063.8      248.3
 45.        20.542    29180.2      248.7
 45.        20.552    29240.1      248.9
 45.        20.562    28483.5      245.2
 45.        20.572    27466.5      239.7
 45.        20.582    27162.0      238.3
 45.        20.592    27467.1      239.9
 45.        20.602    26990.5      237.4
 45.        20.612    27230.1      238.5
 45.        20.622    27088.5      237.7
 45.        20.632    27997.7      242.5
 45.        20.642    28288.2      243.8
 45.        20.652    28518.3      244.9
 45.        20.662    28566.1      245.2
 45.        20.672    28948.5      247.5
 45.        20.682    29300.6      249.1
 45.        20.692    29523.4      250.3
 45.        20.702    28764.1      246.3
 45.        20.712    27945.4      242.0
 45.        20.722    28220.5      243.5
 45.        20.732    28265.5      243.7
 45.        20.742    28159.7      243.0
 45.        20.752    27636.4      240.1
 45.        20.762    26445.9      233.8
 45.        20.772    26321.6      233.1
 45.        20.782    27256.6      238.0
 45.        20.792    27970.0      241.7
 70.        13.875     1250.6       62.0
 70.        13.885     1802.6       72.7
 70.        13.895      947.3       52.5
 70.        13.895      146.1       21.1
 70.        13.905      265.6       27.7
 70.        13.915      124.2       19.0
 70.        13.925      865.5       50.1
 70.        13.935     1601.5       68.4
 70.        13.945     2602.9       87.5
 70.        13.955     3658.0      104.2
 70.        13.965     4648.7      117.7
 70.        13.975     5764.3      131.8
 70.        13.985     6032.9      134.9
 70.        13.995     3548.4      140.8
 70.        14.005     7346.7      149.8
 70.        14.015     8782.7      164.5
 70.        14.025    10361.9      179.8
 70.        14.035    11722.6      192.0
 70.        14.055    13711.2      209.1
 70.        14.065    13657.6      208.5
 70.        14.075    13594.6      208.0
 70.        14.105    17011.9      235.9
 70.        14.115    17321.9      238.3
 70.        14.125    16975.8      235.6
 70.        14.135    16976.6      235.5
 70.        14.145    16944.4      235.2
 70.        14.155    17148.8      236.8
 70.        14.165    17456.9      239.2
 70.        14.175    17765.2      241.4
 70.        14.185    18866.5      249.6
 70.        14.195    19088.4      251.5
 70.        14.205    18933.9      250.4
 70.        14.215    18777.7      249.0
 70.        14.225    17116.8      236.5
 70.        14.235    14397.6      214.9
 70.        14.245    12521.4      199.0
 70.        14.255    10129.6      177.5
 70.        14.265     8873.0      165.5
 70.        14.275     7246.5      148.6
 70.        14.285     5597.6      129.8
 70.        14.295     5202.1      125.1
 70.        14.305     4938.4      121.7
 70.        14.315     4261.3      112.8
 70.        14.325     3879.1      107.5
 70.        14.335     3028.6       94.6
 70.        14.345     3479.3      1015.
 70.        14.355     4220.7      112.2
 70.        14.365     5248.1      127.2
 70.        14.375     7264.3      148.7
 70.        14.385     9154.0      168.0
 70.        14.395    10109.7      177.2
 90.        15.341     2028.9       79.4
 90.        15.351     2314.0       84.9
 90.        15.361     2681.7       91.5
 90.        15.371     2908.4       95.4
 90.        15.381     3165.8       99.6
 90.        15.391     3319.2      102.1
 90.        15.401     3619.6      106.7
 90.        15.411     3785.0      109.2
 90.        15.421     4192.7      115.1
 90.        15.431     4229.3      115.6
 90.        15.441     4459.1      118.8
 90.        15.451     4379.3      117.7
 90.        15.461     3928.7      111.3
 90.        15.471     3493.6      104.8
 90.        15.481     2966.3       96.4
 90.        15.491     2822.2       94.0
 90.        15.501     2794.8       93.5
 90.        15.511     2531.2       88.9
 90.        15.521     2546.6       89.2
 90.        15.531     2304.3       84.7
 90.        15.541     2233.9       83.4
 90.        15.551     1826.4       75.3
 90.        15.561     1746.9       73.6
 90.        15.571     1556.9       69.5
 90.        15.581     1391.3       65.6
 90.        15.591     1388.2       65.6
 90.        15.601     1630.4       71.1
 90.        15.611     2185.3       82.5
 90.        15.621     2332.3       85.3
 90.        15.631     2611.3       90.6
 90.        15.641     2721.4       92.2
 90.        15.651     3181.2      199.9
 90.        15.661     3187.2      100.0
 90.        15.671     3420.3      103.7
 90.        15.681     3769.6      109.0
 90.        15.691     3656.2      107.3
 90.        15.711     2966.7       96.4
 90.        15.721     2887.0       95.1
 90.        15.731     2969.7       96.4
 90.        15.741     2786.2       93.4
 90.        15.751     2758.4       92.9
 90.        15.761     2899.3       95.2
 90.        15.771     2991.2       96.8
 90.        15.781     2698.4       91.8
 90.        15.791     2709.2       92.0
 90.        15.801     2672.4       91.4
 90.        15.811     2464.0       87.7
 90.        15.821     2451.9       87.4
 90.        15.831     2448.8       87.4
 90.        15.841     2332.4       85.3
 90.        15.851     2317.1       85.0
 90.        15.861     2212.8       83.0
 90.        15.871     1972.9       78.4
 90.        15.881     1735.2       73.4
 90.        15.891     1621.2       70.9
 90.        15.901     1458.8       67.2
 90.        15.911     1216.8       61.3
 90.        15.921      985.7       55.1
 90.        15.931      814.8       50.1
 90.        15.941      729.5       47.4
 90.        15.951      588.5       42.6
 90.        15.961      480.6       38.4
 90.        15.971      477.4       38.3
 90.        15.981      498.9       39.2
 90.        15.991      441.0       36.8
 90.        16.001      472.0       38.1
 90.        16.011      518.0       39.9
 90.        16.021      524.2       40.2
 90.        16.031      536.5       40.6
 90.        16.041      478.2       38.4
 90.        16.051      576.3       42.1
 90.        16.061      569.3       41.8
 90.        16.071      671.3       45.5
 90.        16.081      680.4       45.8
 90.        16.091      833.7       50.7
 90.        16.101      821.4       50.3
 90.        16.111      839.8       50.9
 90.        16.121      808.2       49.9
 90.        16.131      940.9       53.9
 90.        16.141     1017.5       56.1
 90.        16.151     1023.6       56.2
 90.        16.161     1089.8       58.0
 90.        16.171     1180.0       60.4
 90.        16.181     1274.9       62.8
 90.        16.191     1412.9       66.1
 90.        16.201     1259.6       62.4
 90.        16.211     1296.4       63.3
 90.        16.221     1278.0       62.9
 90.        16.231     1334.4       64.2
 90.        16.241     1221.2       61.4
 90.        16.251     1190.4       60.6
 90.        16.261     1086.6       57.9
 90.        16.271     1100.3       58.3
100.        14.333     2472.6      100.3
100.        14.353     3637.0      122.1
100.        14.373     4054.0      129.0
100.        14.393     4383.3      134.3
100.        14.403     4809.4      140.9
100.        14.413     5089.7      145.0
100.        14.423     4431.7      151.4
100.        14.433     6427.5      163.6
100.        14.443     7306.7      174.8
100.        14.453     8113.6      184.6
100.        14.463     9021.0      195.2
100.        14.473     9821.9      204.1
100.        14.493    10953.4      216.2
100.        14.503    10842.3      215.0
100.        14.513    10630.0      212.8
100.        14.523    10621.1      212.7
100.        14.533     9243.8      197.7
100.        14.543     7384.7      175.8
100.        14.553     6357.3      162.6
100.        14.563     6052.4      158.6
100.        14.573     6069.7      158.8
100.        14.583     5977.5      157.6
100.        14.593     6511.3      164.7
100.        14.603     6523.8      164.8
100.        14.613     6785.1      168.2
100.        14.623     6730.5      167.6
100.        14.633     6966.4      170.6
100.        14.643     6239.7      161.1
100.        14.653     5924.2      159.6
100.        14.663     4584.4      137.4
100.        14.673     3536.4      120.4
100.        14.683     2919.4      109.2
100.        14.693     2646.0      103.9
100.        14.703     2528.9      101.5
100.        14.713     2730.0      105.5
100.        14.723     2934.7      109.5
100.        14.738     3522.6      116.5
100.        14.748     3847.6      121.9
100.        14.758     4271.4      128.6
100.        14.768     4758.7      135.9
100.        14.778     5167.6      141.8
100.        14.788     5360.2      144.5
100.        14.798     5309.9      143.8
100.        14.808     4775.3      136.1
100.        14.818     4337.1      129.6
100.        14.828     3756.1      120.4
100.        14.838     3427.9      114.9
100.        14.848     3405.1      114.5
100.        14.858     3861.5      122.1
100.        14.868     4657.3      134.4
100.        14.878     5486.2      146.2
100.        14.888     6462.8      159.1
100.        14.898     7123.2      167.4
100.        14.908     7330.3      169.9
100.        14.918     7526.9      172.3
100.        14.928     7594.9      173.1
100.        14.938     7368.8      170.4
100.        14.948     7734.4      174.8
100.        14.958     8251.1      180.8
100.        14.968     8405.5      182.5
100.        14.978     8507.6      183.7
100.        14.988     8696.7      185.8
100.        14.998     8059.2      178.6
100.        15.008     7847.7      176.1
100.        15.018     7384.0      170.6
100.        15.028     6598.4      160.9
100.        15.038     6350.0      157.7
100.        15.048     6184.5      155.6
100.        15.058     6290.0      156.9
100.        15.068     6129.3      154.9
100.        15.078     5849.2      151.1
100.        15.088     6102.2      154.5
100.        15.098     6022.9      153.5
100.        15.108     6154.8      155.2
100.        15.118     5834.5      151.0
100.        15.128     5491.5      146.3
100.        15.138     4812.6      136.7
100.        15.148     4412.6      130.7
100.        15.158     3933.2      123.2
100.        15.168     3016.8      107.6
100.        15.178     2244.1       92.6
100.        15.188     1565.3       77.2
100.        15.198      984.3       61.1
100.        15.208      656.2       49.8
100.        15.218      407.3       39.2
100.        15.228      335.6       35.6
100.        15.238      339.4       35.8
100.        15.248      558.1       46.0
100.        15.258      878.7       57.7
100.        15.268     1497.0       75.5
100.        15.278     1749.6       81.7
100.        15.288     1983.5       87.0
100.        15.298     1979.5       86.9
100.        15.308     2194.4       91.6
100.        15.318     1508.1       75.8
100.        15.328     1172.7       66.7
100.        15.338      814.5       55.6
100.        15.348     1565.1       77.2
100.        15.368     4826.5      136.9
170.        13.875    12733.5      389.2
170.        13.885    13070.5      478.0
170.        13.895    12431.6      373.6
170.        13.895     9905.3      343.2
170.        13.905    10746.7      347.1
170.        13.915     8142.3      302.3
170.        13.925     9725.4      330.1
170.        13.935    11300.0      355.9
170.        13.945    15254.2      414.2
170.        13.955    18889.8      462.0
170.        13.965    23619.1      518.3
170.        13.975    26591.5      559.3
170.        13.985    29978.3      599.4
170.        13.995    31453.6      629.1
170.        14.005    33303.8      621.4
170.        14.015    38127.3      667.2
170.        14.025    38337.0      669.7
170.        14.035    39648.5      681.4
170.        14.045    21425.8      523.3
170.        14.055    32172.5      609.7
170.        14.065    29503.1      582.3
170.        14.075    23154.2      513.3
170.        14.085    10265.8      355.0
170.        14.095     8399.3      306.4
170.        14.105     3941.5      212.7
170.        14.115     2375.4      167.6
170.        14.125     2342.3      166.5
170.        14.135     3073.9      188.9
170.        14.145     3342.3      196.6
170.        14.155     3858.4      210.3
170.        14.165     4001.6      214.1
170.        14.175     3534.2      201.7
170.        14.185     2324.0      165.7
170.        14.195      927.5      111.1
170.        14.205      949.5      112.2
170.        14.215     2961.2      185.5
170.        14.225     8359.0      306.5
170.        14.235    17011.0      438.2
170.        14.245    23043.6      512.0
170.        14.255    22277.7      503.5
170.        14.265    19200.8      466.9
170.        14.275    16946.5      437.6
170.        14.285    15459.7      417.8
170.        14.295    13810.1      395.0
170.        14.305    10167.5      338.9
170.        14.315     6427.8      270.2
170.        14.325     3183.2      193.3
170.        14.333     5268.0      248.5
170.        14.335     1347.2      131.7
170.        14.345     2154.0      161.5
170.        14.353    12428.7      384.5
170.        14.355     4494.1      227.3
170.        14.365     7313.7      291.9
170.        14.373    13819.6      405.9
170.        14.375    10858.1      349.6
170.        14.385    12466.6      374.6
170.        14.393     8517.2      317.0
170.        14.395    12874.2      380.7
170.        14.403     8355.8      314.0
170.        14.413     8726.0      321.0
170.        14.423     8401.7      314.8
170.        14.433     8077.5      308.6
170.        14.443     5373.5      251.1
170.        14.453     2762.1      179.5
170.        14.463      940.1      104.5
170.        14.473       58.0       26.0
170.        14.493      464.1       73.4
170.        14.503     1009.6      108.3
170.        14.513      464.2       73.4
170.        14.523     1079.2      112.0
170.        14.563      928.2      103.9
170.        14.573      893.6      101.9
170.        14.583     1090.9      112.6
170.        14.593     1102.5      113.2
170.        14.603      870.4      100.6
170.        14.643      870.5      100.6
170.        14.653     2625.6      178.1
170.        14.663     7276.1      292.7
170.        14.673    11801.2      374.4
170.        14.683    16820.7      449.2
170.        14.693    20219.3      494.1
170.        14.703    24299.1      543.7
170.        14.713    29176.9      598.6
170.        14.723    34259.1      651.7
170.        14.738    38171.0      670.6
170.        14.748    38351.4      672.3
170.        14.758    42453.6      710.3
170.        14.768    41596.5      702.5
170.        14.778    40868.1      695.7
170.        14.788    38918.4      677.6
170.        14.798    34221.0      632.4
170.        14.808    27958.2      568.2
170.        14.818    22382.5      505.5
170.        14.828    17813.4      448.9
170.        14.838    12602.2      375.5
170.        14.848    10127.0      335.8
170.        14.858     7641.7      290.9
170.        14.868     5145.6      238.1
170.        14.878     2626.9      169.7
170.        14.888     1220.8      115.5
170.        14.898      556.0       77.9
170.        14.908      381.5       64.5
170.        14.918      141.7       39.3
170.        14.928      501.5       74.0
170.        14.938     1493.5      127.8
170.        14.948     4436.9      221.0
170.        14.958     9179.0      319.4
170.        14.968    16373.5      429.7
170.        14.978    22784.2      510.2
170.        14.988    24715.4      532.4
170.        14.998    25434.6      540.5
170.        15.008    23514.7      518.7
170.        15.018    23438.8      517.8
170.        15.028    23543.8      519.0
170.        15.038    24460.9      529.5
170.        15.048    23579.7      519.5
170.        15.058    23001.5      512.7
170.        15.068    19964.7      476.3
170.        15.078    17290.7      442.0
170.        15.088    16593.6      432.7
170.        15.098    18239.5      454.4
170.        15.108    22436.6      506.1
170.        15.118    31072.7      600.8
170.        15.128    37594.0      665.1
170.        15.138    51407.5      788.2
170.        15.148    59125.0      851.4
170.        15.158    66803.7      911.5
170.        15.168    71512.0      947.2
170.        15.178    75808.1      979.1
170.        15.188    80499.0     1013.2
170.        15.198    86278.7     1054.4
170.        15.208    85735.2     1050.5
170.        15.218    90109.5     1081.2
170.        15.228    89479.2     1076.8
170.        15.238    87887.9     1063.3
170.        15.248    81349.4     1019.2
170.        15.258    80925.3     1016.2
170.        15.268    75684.4      978.1
170.        15.278    71420.9      946.4
170.        15.288    63618.7      886.9
170.        15.298    60635.3      863.4
170.        15.308    55567.4      822.6
170.        15.318    49254.2      769.8
170.        15.328    46708.7      747.9
170.        15.338    42403.3      709.6
170.        15.341    41060.5      650.2
170.        15.348    44819.8      731.3
170.        15.351    43762.2      673.2
170.        15.361    44370.5      678.3
170.        15.368    45749.4      739.5
170.        15.371    45231.5      685.5
170.        15.381    46607.9      696.9
170.        15.391    52130.7      741.4
170.        15.401    53827.6      754.7
170.        15.411    57228.2      781.0
170.        15.421    56573.5      776.0
170.        15.431    57377.4      782.1
170.        15.441    57761.8      785.1
170.        15.451    59193.0      795.9
170.        15.461    55368.3      766.7
170.        15.471    48958.2      716.0
170.        15.481    39106.7      633.1
170.        15.491    33276.5      580.3
170.        15.501    33625.9      583.6
170.        15.511    40100.9      641.8
170.        15.521    54150.1      757.2
170.        15.531    76486.6      921.0
170.        15.541    83833.6      971.3
170.        15.551    99302.9     1073.4
170.        15.561    109172.2    1136.2
170.        15.571    116566.4    1182.3
170.        15.581    105970.0    1116.0
170.        15.591    95195.4     1046.7
170.        15.601    106910.3    1121.9
170.        15.611    127164.7    1247.1
170.        15.621    140222.9    1325.1
170.        15.631    134877.5    1293.4
170.        15.641    130488.7    1267.1
170.        15.651    125027.4    1234.1
170.        15.661    125906.1    1259.4
170.        15.671    127906.0    1251.5
170.        15.681    129049.5    1258.4
170.        15.691    124278.4    1229.5
170.        15.711    113334.7    1162.2
170.        15.721    107088.9    1123.1
170.        15.731    103292.9    1099.0
170.        15.741    107873.0    1128.1
170.        15.751    109127.7    1135.9
170.        15.761    109964.2    1140.7
170.        15.771    111317.8    1149.6
170.        15.781    106386.7    1118.4
170.        15.791    109011.7    1135.2
170.        15.801    108999.3    1135.1
170.        15.811    104452.3    1106.3
170.        15.821    105032.9    1109.5
170.        15.831    110440.5    1144.2
170.        15.841    119589.0    1200.9
170.        15.851    129041.6    1258.4
170.        15.861    136388.9    1302.4
170.        15.871    138814.1    1317.3
170.        15.881    143516.4    1344.7
170.        15.891    143097.9    1359.7
170.        15.901    151169.5    1389.3
170.        15.911    153712.3    1404.1
170.        15.921    152505.4    1396.5
170.        15.931    152322.8    1395.7
170.        15.941    150687.2    1386.6
170.        15.951    153660.2    1403.8
170.        15.961    153720.5    1403.5
170.        15.971    147218.2    1365.5
170.        15.981    143540.7    1344.0
170.        15.991    136791.7    1304.4
170.        16.001    133176.5    1283.2
170.        16.011    127016.5    1246.2
170.        16.021    122939.9    1221.4
170.        16.031    117647.8    1189.1
170.        16.041    113223.5    1161.6
170.        16.051    103936.0    1103.2
170.        16.061     96404.1    1054.1
170.        16.071     89379.2    1008.6
170.        16.081     87623.4     996.9
170.        16.091     85569.5     983.1
170.        16.101     88024.6     999.6
170.        16.111     93165.4    1033.5
170.        16.121    105555.2    1112.9
170.        16.131    124559.6    1231.2
170.        16.141    144665.1    1351.3
170.        16.151    166149.6    1475.6
170.        16.161    171633.8    1506.2
170.        16.171    168325.8    1488.0
170.        16.181    158686.9    1432.8
170.        16.191    148872.9    1375.9
170.        16.201    138233.9    1313.3
170.        16.211    124275.5    1229.5
170.        16.221    113333.4    1162.2
170.        16.231    103403.8    1099.1
170.        16.241     97487.5    1061.1
170.        16.251     96149.9    1052.4
170.        16.261     97425.0    1060.7
170.        16.271     98862.6    1070.6
170.        16.297    182965.3    1591.3
170.        16.307    217133.3    1778.3
170.        16.317    246531.8    1935.4
170.        16.327    286272.9    2039.2
170.        16.337    298494.9    2206.1
170.        16.347    313565.3    2283.7
170.        16.357    323953.4    2336.6
170.        16.367    324783.2    2340.7
170.        16.377    306210.0    2245.9
170.        16.387    290441.3    2164.6
170.        16.397    270597.4    2061.7
170.        16.407    241406.0    1909.0
170.        16.417    215187.2    1768.8
170.        16.427    200650.8    1689.6
170.        16.437    189269.5    1626.8
170.        16.447    178729.1    1568.1
170.        16.457    164412.3    1487.3
170.        16.467    140698.7    1349.9
170.        16.477    119054.6    1219.6
170.        16.487    100270.2    1101.5
170.        16.497     87386.2    1016.8
170.        16.507     84648.8     998.3
170.        16.517     83804.8     992.9
170.        16.527     85957.3    1007.5
170.        16.537     86130.2    1008.8
170.        16.547     87442.1    1017.6
170.        16.557     86583.2    1012.0
170.        16.567     80073.6     967.4
170.        16.577     78009.1     953.4
170.        16.587     70861.4     903.7
170.        16.597     63418.3     849.3
170.        16.607     39188.2     817.2
170.        16.617     56489.2     796.5
170.        16.627     55530.0     789.1
170.        16.637     57176.1     801.8
170.        16.647     63870.1     852.6
170.        16.657     71931.6     911.1
170.        16.667     88946.5    1028.6
170.        16.677    106643.3    1143.6
170.        16.687    117016.6    1208.4
170.        16.697    124637.2    1255.2
170.        16.707    126726.2    1267.9
170.        16.717    125516.4    1260.5
170.        16.727    124364.3    1253.6
170.        16.737    115679.9    1200.3
170.        16.747    112482.2    1189.0
170.        16.757    106530.2    1148.1
170.        16.767    100604.7    1104.3
170.        16.777     92848.7    1053.8
170.        16.787     84897.0    1004.6
170.        16.797     76263.4     951.1
170.        16.807     72661.8     933.1
170.        16.817     64554.9     873.1
170.        16.827     61155.1     840.2
170.        16.837     58094.1     812.1
170.        16.847     64316.6     859.7
170.        16.857     86937.9    1041.9
170.        16.867    102587.2    1127.3
170.        16.877    108185.7    1156.0
170.        16.887    109730.5    1174.6
170.        16.897    111618.9    1185.2
170.        16.907    109602.9    1167.4
170.        16.917    116260.8    1209.5
170.        16.927    122970.3    1246.4
170.        16.937    131550.7    1300.8
170.        16.947    137285.3    1334.7
170.        16.957    139855.2    1349.8
170.        16.967    132802.4    1302.7
170.        16.977    121924.8    1237.6
170.        16.987    111678.3    1173.2
170.        16.997     98903.3    1092.0
170.        17.007     84525.8     996.7
170.        17.017     72440.1     912.3
170.        17.027     65849.1     864.4
170.        17.037     55913.9     789.1
170.        17.047     53137.0     767.3
170.        17.057     52908.1     765.6
170.        17.067     53093.4     767.0
170.        17.077     48461.0     729.6
170.        17.087     42772.9     682.0
170.        17.097     46719.0     715.4
170.        17.104     43698.0     527.0
170.        17.107     54772.8     780.2
170.        17.114     50988.8     779.7
170.        17.117     68845.6     886.4
170.        17.124     62284.7     870.3
170.        17.127     86089.5    1006.9
170.        17.134     67126.7     907.1
170.        17.137     93718.8    1058.3
170.        17.144     71738.7     941.6
170.        17.154     72371.9     946.7
170.        17.164     73689.8     959.6
170.        17.174     76222.3     975.2
170.        17.184     83903.0    1029.8
170.        17.194     85055.7    1038.0
170.        17.204     83937.8    1030.0
170.        17.214     84798.2    1035.8
170.        17.224     83002.5    1023.6
170.        17.234     80174.6    1003.1
170.        17.244     77426.2     983.9
170.        17.254     75295.6     968.6
170.        17.264     72910.0     951.0
170.        17.274     69937.6     929.1
170.        17.284     69500.5     925.8
170.        17.294     63430.6     879.7
170.        17.304     60784.7     859.0
170.        17.314     63704.0     939.2
170.        17.324     60721.8     858.2
170.        17.334     55568.3     817.4
170.        17.344     51222.3     781.7
170.        17.354     46286.2     739.9
170.        17.364     39460.0     679.1
170.        17.374     35716.4     644.2
170.        17.384     33221.5     620.0
170.        17.394     28558.1     572.7
170.        17.404     25843.3     543.9
170.        17.414     20571.2     483.8
170.        17.424     18709.5     461.0
170.        17.434     16852.2     437.4
170.        17.444     15454.3     418.7
ENDDATA           1010
ENDSUBENT         1016
SUBENT        C0798003   20010516   20010927
BIB                  2          2
REACTION   (10-NE-20(A,INL)10-NE-20,PAR,DA)
STATUS     Remaining data to be compiled as resources allow.
ENDBIB               2
NOCOMMON             0          0
DATA                 5        100
Q-VAL      ANG        EN         DATA       ERR-S
MEV        ADEG       MEV        MU-B/SR    MU-B/SR
-1.6337     70.        13.415    26047.7      309.1
-1.6337     70.        13.425    24838.9      300.6
-1.6337     70.        13.435    24043.5      295.0
-1.6337     70.        13.445    23216.9      289.1
-1.6337     70.        13.455    22886.1      286.6
-1.6337     70.        13.465    23333.7      289.8
-1.6337     70.        13.475    24689.3      299.2
-1.6337     70.        13.485    24564.5      298.5
-1.6337     70.        13.495    24168.5      295.8
-1.6337     70.        13.505    22224.2      281.6
-1.6337     70.        13.515    18635.3      254.8
-1.6337     70.        13.525    17033.9      242.3
-1.6337     70.        13.535    16501.1      238.1
-1.6337     70.        13.545    16607.1      238.9
-1.6337     70.        13.555    17780.0      248.2
-1.6337     70.        13.565    18046.9      250.3
-1.6337     70.        13.575    19145.7      258.8
-1.6337     70.        13.585    20167.3      266.5
-1.6337     70.        13.595    20522.5      269.2
-1.6337     70.        13.605    21971.1      280.0
-1.6337     70.        13.615    23854.5      293.6
-1.6337     70.        13.625    24762.2      300.0
-1.6337     70.        13.635    23815.1      293.1
-1.6337     70.        13.645    22589.9      284.3
-1.6337     70.        13.655    19313.3      260.0
-1.6337     70.        13.665    17640.4      247.1
-1.6337     70.        13.675    16117.4      234.9
-1.6337     70.        13.685    15405.0      229.1
-1.6337     70.        13.695    14617.8      222.6
-1.6337     70.        13.705    13279.4      211.1
-1.6337     70.        13.715    11661.7      196.7
-1.6337     70.        13.725    10089.6      182.0
-1.6337     70.        13.735     8960.2      170.9
-1.6337     70.        13.745     9126.4      172.5
-1.6337     70.        13.755     9948.8      182.6
-1.6337     70.        13.765     9648.7      177.7
-1.6337     70.        13.775     9785.8      179.0
-1.6337     70.        13.785     9497.7      176.2
-1.6337     70.        13.795     9059.6      171.9
-1.6337     70.        13.805     9357.3      174.8
-1.6337     70.        13.815     9562.8      176.9
-1.6337     70.        13.825     9282.3      174.1
-1.6337     70.        13.835     8742.2      168.6
-1.6337     70.        13.845     8709.9      168.2
-1.6337     70.        13.855     8313.6      164.3
-1.6337     70.        13.865     7942.5      155.4
-1.6337     70.        13.865     8414.1      165.3
-1.6337     70.        13.875     8108.5      157.2
-1.6337     70.        13.875    10284.4      183.9
-1.6337     70.        13.885     9024.4      166.4
-1.6337     70.        13.895    11223.6      187.0
-1.6337     70.        13.895    12546.3      204.8
-1.6337     70.        13.905    12358.3      197.0
-1.6337     70.        13.915    10716.2      182.4
-1.6337     70.        13.925     8314.2      159.2
-1.6337     70.        13.935     6520.3      140.1
-1.6337     70.        13.945     5194.8      124.4
-1.6337     70.        13.955     4048.2      109.3
-1.6337     70.        13.965     4119.1      110.3
-1.6337     70.        13.975     4781.4      119.2
-1.6337     70.        13.985     5486.5      127.9
-1.6337     70.        13.995     6650.4      141.5
-1.6337     70.        14.005     7414.3      149.9
-1.6337     70.        14.015     8160.8      157.6
-1.6337     70.        14.025     8242.3      158.6
-1.6337     70.        14.035     8685.4      162.9
-1.6337     70.        14.055    10569.8      180.9
-1.6337     70.        14.065    11499.4      189.2
-1.6337     70.        14.075    12016.8      193.8
-1.6337     70.        14.095    13652.9      208.4
-1.6337     70.        14.105    14343.2      214.4
-1.6337     70.        14.115    15900.0      226.9
-1.6337     70.        14.125    15591.4      224.4
-1.6337     70.        14.135    15710.8      225.3
-1.6337     70.        14.145    15599.1      224.4
-1.6337     70.        14.155    15006.0      219.6
-1.6337     70.        14.165    14381.2      214.6
-1.6337     70.        14.175    14034.2      211.7
-1.6337     70.        14.185    13607.8      208.0
-1.6337     70.        14.195    12379.2      197.8
-1.6337     70.        14.205    11876.3      193.4
-1.6337     70.        14.215    11844.0      193.0
-1.6337     70.        14.225    12194.9      196.1
-1.6337     70.        14.235    12912.6      202.3
-1.6337     70.        14.245    12313.8      197.0
-1.6337     70.        14.255     9922.6      175.5
-1.6337     70.        14.265     8629.2      163.2
-1.6337     70.        14.275     7146.9      147.7
-1.6337     70.        14.285     5928.2      134.0
-1.6337     70.        14.295     4851.0      121.1
-1.6337     70.        14.305     4319.2      114.1
-1.6337     70.        14.315     4092.1      111.0
-1.6337     70.        14.325     4358.2      114.6
-1.6337     70.        14.335     4536.5      116.9
-1.6337     70.        14.345     4742.2      119.6
-1.6337     70.        14.355     4994.8      122.8
-1.6337     70.        14.365     4705.6      120.8
-1.6337     70.        14.375     4586.9      117.5
-1.6337     70.        14.385     4201.5      112.3
-1.6337     70.        14.395     4784.6      120.0
ENDDATA            102
ENDSUBENT          109
SUBENT        C0798004   20010516   20010927
BIB                  2          2
REACTION   (10-NE-20(A,6-C-12)6-C-12,PAR,DA)
STATUS     Remaining data to be compiled as resources allow.
ENDBIB               2
COMMON               1          3
E-EXC
MEV
 0.0
ENDCOMMON            3
DATA                 4        495
ANG        EN         DATA       ERR-S
ADEG       MEV        MB/SR      MB/SR
 10.        13.415    1612.4       49.3
 10.        13.425    1659.3       50.6
 10.        13.435    1915.1       53.7
 10.        13.445    2002.7       54.7
 10.        13.455    2126.9       53.5
 10.        13.465    1985.7       51.8
 10.        13.475    2062.4       52.6
 10.        13.485    2045.3       52.4
 10.        13.495    2342.1       56.2
 10.        13.505    2091.1       53.3
 10.        13.515    2167.3       54.2
 10.        13.525    2198.2       55.9
 10.        13.535    2501.0       57.2
 10.        13.545    2548.1       57.7
 10.        13.555    2551.1       57.8
 10.        13.565    2492.9       57.1
 10.        13.575    2538.5       57.7
 10.        13.585    2733.7       59.8
 10.        13.595    2874.0       61.3
 10.        13.605    2963.5       62.3
 10.        13.615    2841.6       61.0
 10.        13.625    2658.9       59.0
 10.        13.635    2291.4       54.9
 10.        13.645    2062.3       52.2
 10.        13.655    2051.3       52.0
 10.        13.665    2106.8       52.7
 10.        13.675    1947.4       50.8
 10.        13.685    1685.3       46.9
 10.        13.695    1397.7       42.9
 10.        13.705    1056.0       37.8
 10.        13.715     676.9       30.6
 10.        13.725     395.8       24.3
 10.        13.735     398.1       24.4
 10.        13.745     472.9       26.1
 10.        13.755     556.9       28.3
 10.        13.765     594.5       29.1
 10.        13.775     520.9       27.2
 10.        13.785     399.5       24.4
 10.        13.795     389.0       24.2
 10.        13.805     276.9       21.2
 10.        13.815     321.4       22.4
 10.        13.825     251.3       20.5
 10.        13.835     341.4       21.6
 10.        13.845     289.8       20.1
 10.        13.855     314.8       23.0
 10.        13.865     364.3       24.6
 10.        13.875     396.2       25.0
 10.        13.885     415.8       25.4
 10.        13.895     314.6       22.5
 10.        13.905     282.4       22.3
 10.        13.915     259.2       21.7
 10.        13.925     219.0       18.5
 10.        13.935     197.9       17.8
 10.        13.945     153.5       16.4
 10.        13.955     182.4       17.0
 10.        13.965     141.2       15.6
 10.        13.975      80.1       13.5
 10.        13.985      88.9       14.0
 10.        13.995      96.8       14.3
 10.        14.005      83.6       13.8
 10.        14.015      99.0       14.4
 10.        14.025     181.7       18.0
 10.        14.035     318.4       21.0
 10.        14.045     457.7       24.2
 10.        14.055     433.0       23.6
 10.        14.065     520.7       25.4
 10.        14.075     520.9       25.6
 10.        14.085     581.4       26.9
 10.        14.095     517.2       28.3
 10.        14.105     584.4       30.2
 10.        14.115     679.5       31.7
 10.        14.125     835.9       34.4
 10.        14.135     941.5       36.6
 10.        14.145    1170.2       38.8
 10.        14.155    1314.1       41.0
 10.        14.165    1556.4       44.3
 10.        14.175    1667.7       45.8
 10.        14.185    1724.8       46.5
 10.        14.195    1689.8       46.1
 10.        14.205    1815.7       47.7
 10.        14.215    1716.3       46.4
 10.        14.225    1583.0       44.7
 10.        14.235    1413.8       42.4
 10.        14.245    1343.4       41.4
 10.        14.255    1072.7       37.3
 10.        14.265     982.4       36.0
 10.        14.275    1025.4       36.6
 10.        14.285    1091.2       37.6
 10.        14.295     942.5       35.6
 10.        14.305     811.9       33.4
 10.        14.315     937.7       35.5
 10.        14.325     982.0       36.2
 10.        14.333    1096.3       40.2
 10.        14.353     963.2       41.1
 10.        14.373     977.0       37.2
 10.        14.393     963.2       37.0
 10.        14.403    1018.4       37.9
 10.        14.413    1025.6       37.9
 10.        14.423    1057.0       38.4
 10.        14.433     956.6       37.8
 10.        14.443     987.6       38.9
 10.        14.453     823.8       36.1
 10.        14.463     855.9       37.0
 10.        14.473     701.1       32.8
 10.        14.483     587.3       13.7
 10.        14.493     543.8       30.2
 10.        14.503     554.9       29.2
 10.        14.513     450.2       29.0
 10.        14.523     392.4       27.8
 10.        14.533     280.3       22.4
 10.        14.543     224.1       20.8
 10.        14.553     312.1       24.1
 10.        14.563     273.1       23.8
 10.        14.573     275.4       23.9
 10.        14.583     265.8       22.7
 10.        14.593     249.9       22.3
 10.        14.603     137.9       20.9
 10.        14.613      91.6       19.5
 10.        14.623      41.5       17.9
 10.        14.633      11.0       16.8
 10.        14.643      42.8       17.9
 10.        14.653      93.6       18.1
 10.        14.663     173.3       19.8
 10.        14.673     207.2       20.1
 10.        14.683     261.0       25.1
 10.        14.693     421.0       25.8
 10.        14.703     518.5       29.1
 10.        14.713    1233.2       42.2
 10.        14.723    1342.9       43.8
 10.        14.733    1451.9       45.0
 10.        14.738    2211.0       61.3
 10.        14.748    2794.7       67.7
 10.        14.758    3205.4       68.3
 10.        14.768    3430.9       70.4
 10.        14.778    3710.2       73.0
 10.        14.788    4228.1       77.1
 10.        14.798    4135.0       75.1
 10.        14.803    4659.5       81.4
 10.        14.818    4468.3       80.4
 10.        14.828    4608.3       80.9
 10.        14.838    4445.8       79.5
 10.        14.848    4228.0       77.4
 10.        14.858    4050.4       75.8
 10.        14.868    3765.1       73.0
 10.        14.878    3497.4       67.8
 10.        14.888    3132.1       64.2
 10.        14.898    2846.2       62.8
 10.        14.908    2475.4       59.0
 10.        14.918    2152.0       55.4
 10.        14.928    1921.0       52.7
 10.        14.938    1786.1       51.1
 10.        14.948    1474.6       47.2
 10.        14.958    1327.4       45.3
 10.        14.968    1318.7       45.2
 10.        14.978    1246.3       44.6
 10.        14.988    1299.3       45.4
 10.        14.998    1220.3       44.3
 10.        15.008    1447.3       47.6
 10.        15.018    1547.1       48.5
 10.        15.028    1875.2       49.9
 10.        15.038    2013.7       52.0
 10.        15.048    2275.9       54.7
 10.        15.058    2329.1       56.4
 10.        15.068    2100.1       56.5
 10.        15.078    2068.0       56.5
 10.        15.088    1778.8       50.5
 10.        15.098    2032.6       52.7
 10.        15.108    1717.8       49.4
 10.        15.118    1430.7       46.6
 10.        15.128    1446.5       46.6
 10.        15.138    1427.0       43.6
 10.        15.148    1407.6       43.1
 10.        15.158    1270.3       42.7
 10.        15.168    1227.9       41.8
 10.        15.178    1322.1       43.1
 10.        15.188    1314.7       43.0
 10.        15.198    1424.1       44.5
 10.        15.201    1701.7       76.4
 10.        15.208    1449.6       44.8
 10.        15.221    1896.4       80.6
 10.        15.241    2058.3       83.9
 10.        15.261    1969.9       82.1
 10.        15.281    1762.9       77.7
 10.        15.301    1779.8       78.3
 10.        15.321    1767.1       82.1
 10.        15.341    2648.0       99.1
 10.        15.361    3239.1      108.9
 10.        15.381    3569.9      114.2
 10.        15.401    4145.1      122.6
 10.        15.421    4443.3      126.7
 10.        15.441    3701.5      116.2
 10.        15.461    2840.4      102.8
 10.        15.481    2540.5       96.5
 10.        15.501    2339.6       92.9
 10.        15.521    2512.0       96.5
 10.        15.541    3058.2      105.7
 10.        15.561    2665.4       99.2
 10.        15.581    2702.5      100.1
 10.        15.601    3186.2      108.1
 10.        15.621    3851.5      118.0
 10.        15.641    4240.5      123.8
 10.        15.661    4191.9      123.2
 10.        15.681    3766.8      120.2
 10.        15.701    3429.0      113.0
 10.        15.721    3601.9      118.1
 10.        15.741    4338.5      124.6
 10.        15.761    4601.5      130.8
 10.        15.781    4105.2      126.7
 10.        15.801    3353.3      116.0
 10.        15.821    3260.9      109.6
 10.        15.841    3238.8      109.5
 10.        15.851    2619.0       55.0
 10.        15.861    2740.7       56.3
 10.        15.871    2669.0       55.6
 10.        15.881    2588.7       54.6
 10.        15.891    2335.8       52.0
 10.        15.901    2395.8       52.6
 10.        15.911    2522.2       54.0
 10.        15.921    2199.5       50.5
 10.        15.931    1932.9       47.4
 10.        15.941    1752.9       44.4
 10.        15.951    1340.7       39.0
 10.        15.961    1375.4       39.5
 10.        15.971    1186.8       36.8
 10.        15.981     901.7       32.3
 10.        15.991     826.7       31.1
 10.        16.001     679.9       28.6
 10.        16.011     506.1       25.2
 10.        16.021     605.8       27.2
 10.        16.031     664.5       27.7
 10.        16.041     833.0       30.7
 10.        16.051     744.8       29.5
 10.        16.061     799.1       30.4
 10.        16.071     977.8       33.5
 10.        16.081    1052.7       34.2
 10.        16.091    1030.3       33.9
 10.        16.101    1220.8       36.8
 10.        16.111    1183.7       36.1
 10.        16.121    1121.0       35.1
 10.        16.131    1140.3       35.5
 10.        16.141    1146.8       35.6
 10.        16.151    1143.3       35.5
 10.        16.161    1115.0       35.1
 10.        16.171    1060.5       34.3
 10.        16.181    1008.8       33.0
 10.        16.191     887.4       31.2
 10.        16.201     778.9       29.2
 10.        16.211     772.4       29.0
 10.        16.221     708.0       27.9
 10.        16.231     571.8       25.1
 10.        16.241     490.5       23.4
 10.        16.257     334.3       19.7
 10.        16.267     201.3       15.3
 10.        16.277     160.9       13.7
 10.        16.287     180.6       14.5
 10.        16.297     259.2       17.4
 10.        16.307     354.0       20.3
 10.        16.317     607.7       26.5
 10.        16.327     878.8       32.1
 10.        16.337     930.7       33.1
 10.        16.347    1018.4       34.7
 10.        16.357     895.5       32.5
 10.        16.367     865.6       31.9
 10.        16.377     741.6       29.5
 10.        16.387     693.8       28.5
 10.        16.397     700.0       28.6
 10.        16.407     637.6       27.3
 10.        16.417     662.3       27.9
 10.        16.427     797.0       30.6
 10.        16.437     929.4       33.1
 10.        16.447    1209.8       37.9
 10.        16.457    1347.3       40.0
 10.        16.467    1485.3       42.1
 10.        16.477    1584.3       43.5
 10.        16.487    1647.7       44.4
 10.        16.497    1963.5       48.6
 10.        16.507    2029.1       49.4
 10.        16.517    2034.1       49.5
 10.        16.527    2076.1       50.0
 10.        16.537    2054.3       49.7
 10.        16.547    1999.5       49.0
 10.        16.557    1887.9       47.6
 10.        16.567    1779.9       46.1
 10.        16.577    1642.1       44.3
 10.        16.587    1448.2       41.5
 10.        16.597    1424.1       41.2
 10.        16.607    1299.2       39.3
 10.        16.617    1261.2       38.7
 10.        16.627    1270.0       38.8
 10.        16.637    1193.8       37.7
 10.        16.647    1345.1       40.0
 10.        16.657    1363.6       40.3
 10.        16.667    1339.9       40.0
 10.        16.677    1320.1       39.7
 10.        16.687    1188.8       37.6
 10.        16.697    1168.5       37.3
 10.        16.707    1095.9       36.1
 10.        16.717    1034.9       35.0
 10.        16.727     936.5       33.2
 10.        16.737     893.7       32.5
 10.        16.747     817.5       31.0
 10.        16.757     859.8       31.8
 10.        16.767     809.6       30.9
 10.        16.777     762.6       30.0
 10.        16.787     783.6       30.4
 10.        16.797     900.4       32.6
 10.        16.807     846.0       31.6
 10.        16.817     842.0       31.5
 10.        16.827     861.8       31.9
 10.        16.837     813.1       31.0
 10.        16.847     782.4       30.4
 10.        16.857     741.6       29.6
 10.        16.867     656.6       27.8
 10.        16.877     598.9       26.5
 10.        16.887     549.2       25.4
 10.        16.897     511.0       24.5
 10.        16.907     510.3       24.5
 10.        16.917     501.4       24.3
 10.        16.927     457.0       23.2
 10.        16.937     422.5       22.3
 10.        16.947     407.0       21.8
 10.        16.957     353.2       20.3
 10.        16.967     287.6       18.3
 10.        16.977     219.6       16.0
 10.        16.987     258.8       17.4
 10.        16.997     198.7       15.3
 10.        17.007     224.0       16.2
 10.        17.017     207.0       15.5
 10.        17.027     180.5       14.5
 10.        17.037     172.1       14.2
 10.        17.047     145.3       13.0
 10.        17.057     161.7       13.7
 10.        17.067     140.9       12.8
 10.        17.077      94.1       10.5
 10.        17.087      81.4        9.7
 10.        17.097      79.1        9.6
 10.        17.107     101.0       10.8
 10.        17.117      76.8        9.5
 10.        17.127      53.4        7.9
 10.        17.137      75.6        9.4
 10.        17.145      98.7       10.9
 10.        17.155      87.8       10.3
 10.        17.165     121.6       12.1
 10.        17.175     163.9       14.1
 10.        17.185     179.6       14.7
 10.        17.195     221.8       16.4
 10.        17.205     230.5       16.7
 10.        17.215     207.5       15.8
 10.        17.225     228.9       16.7
 10.        17.235     230.6       16.8
 10.        17.245     172.6       14.5
 10.        17.255     186.7       15.0
 10.        17.265     185.2       15.0
 10.        17.275     226.4       16.5
 10.        17.285     243.3       17.2
 10.        17.295     272.6       18.2
 10.        17.305     290.0       18.8
 10.        17.315     404.7       22.2
 10.        17.325     477.6       25.9
 10.        17.335     554.7       26.0
 10.        17.345     648.7       28.2
 10.        17.355     782.0       31.0
 10.        17.365     931.3       33.9
 10.        17.375    1005.1       35.2
 10.        17.385     996.6       35.0
 10.        17.395    1056.7       36.1
 10.        17.405    1126.7       37.3
 10.        17.415     991.8       34.9
 10.        17.425     936.4       33.9
 10.        17.436     839.8       32.1
 10.        17.445     789.0       31.1
 10.        17.456     765.4       30.6
 10.        17.465     656.8       28.3
 10.        17.476     582.7       26.7
 10.        17.486     467.4       23.9
 10.        17.496     430.6       22.9
 10.        17.516     272.4       18.2
 10.        17.535     214.8       28.2
 10.        17.536     165.4       14.2
 10.        17.556      91.7       10.5
 10.        17.565     111.1       20.3
 10.        17.576      65.5        8.9
 10.        17.595     144.5       23.1
 10.        17.596      42.6        7.2
 10.        17.625     237.2       29.7
 10.        17.655     133.5       22.3
 10.        17.685     140.9       22.9
 10.        17.715      92.7       18.6
 10.        17.745     137.2       22.6
 10.        17.775     200.4       27.3
 10.        17.805     155.9       24.1
 10.        17.835     156.0       24.1
 10.        17.865     137.4       22.6
 10.        17.895     215.5       28.3
 10.        17.925     226.7       29.0
 10.        17.955     226.7       29.0
 10.        17.985     234.2       32.6
 10.        18.015     230.6       32.4
 10.        18.045     267.6       34.9
 10.        18.075     364.6       40.1
 10.        18.105     580.6       49.2
 10.        18.135     584.0       48.7
 10.        18.165     718.6       53.7
 10.        18.195     696.5       52.9
 10.        18.225     942.5       61.2
 10.        18.255     894.3       58.1
 10.        18.285     757.9       54.6
 10.        18.315     533.1       45.9
 10.        18.345     395.3       39.9
 10.        18.375     332.0       36.8
 10.        18.405     264.9       33.2
 10.        18.435     328.4       36.6
 10.        18.465     410.6       40.9
 10.        18.495     395.8       40.6
 10.        18.525     347.3       38.3
 10.        18.555     369.8       39.4
 10.        18.585     298.9       35.1
 10.        18.615     351.3       38.1
 10.        18.637     248.6       23.8
 10.        18.645     280.4       34.5
 10.        18.667     235.9       23.4
 10.        18.675     198.2       29.7
 10.        18.697     142.1       19.4
 10.        18.705     130.9       25.1
 10.        18.727     119.5       22.7
 10.        18.735     139.6       29.9
 10.        18.757     121.7       36.5
 10.        18.787     317.3       59.5
 10.        18.817     348.7       46.6
 10.        18.847     283.6       43.8
 10.        18.877     132.8       39.0
 10.        18.907     282.9       44.1
 10.        18.937     281.5       43.8
 10.        18.967     658.5       59.2
 10.        18.997     663.5       75.0
 10.        19.027     766.3       59.4
 10.        19.057     834.8       60.6
 10.        19.087     958.3       54.1
 10.        19.117     995.2       61.6
 10.        19.147     988.3       74.7
 10.        19.177     873.0       72.7
 10.        19.207     830.0       62.2
 10.        19.237     614.3       62.1
 10.        19.267     558.4       61.7
 10.        19.297     355.1       43.1
 10.        19.327     307.3       43.8
 10.        19.357     245.3       41.9
 10.        19.387     226.8       41.3
 10.        19.417     303.8       45.1
 10.        19.447     173.8       35.4
 10.        19.477      56.4       25.0
 10.        19.507      87.3       25.6
 10.        19.537     120.0       27.3
 10.        19.567     200.3       34.3
 10.        19.597     131.7       23.9
 10.        19.627     163.3       27.5
 10.        19.657     277.6       31.1
 10.        19.687     247.1       30.4
 10.        19.717     275.3       31.7
 10.        19.748     236.6       29.9
 10.        19.778     232.9       29.7
 10.        19.808     180.3       27.0
 10.        19.838     193.4       31.9
 10.        19.868     196.7       31.5
 10.        19.898      70.3       18.3
 10.        19.928      97.2       20.6
 10.        19.958      96.8       20.5
 10.        19.988      74.7       18.9
 10.        20.018     126.8       21.8
 10.        20.048     276.5       30.2
 10.        20.078     309.7       31.4
 10.        20.108     362.0       31.6
 10.        20.138     352.3       33.1
 10.        20.168     498.0       36.5
 10.        20.198     654.8       53.2
 10.        20.228     807.1       59.0
 10.        20.258     983.6       65.5
 10.        20.288     972.3       65.2
 10.        20.318     768.4       58.9
 10.        20.348     706.3       56.7
 10.        20.378     409.3       53.9
 10.        20.408     550.1       59.9
 10.        20.438     552.7       60.8
 10.        20.468     344.8       49.5
 10.        20.488     323.6       43.4
 10.        20.528     162.8       32.1
 10.        20.558     140.6       39.8
 10.        20.588     172.4       35.6
 10.        20.618     107.3       30.1
 10.        20.648     228.3       36.4
 10.        20.678     248.5       38.4
 10.        20.708     282.7       61.1
 10.        20.738     398.4       64.0
 10.        20.768     304.7       50.8
 10.        20.798     221.5       30.7
ENDDATA            497
ENDSUBENT          508
ENDENTRY             4
