ENTRY            O2048   20120928   20121218   20121211       O049
SUBENT        O2048001   20120928   20121218   20121211       O049
BIB                  8         12
TITLE      Resonances in O-18(p,p)O-18 for E(p)=3.4-6.2 MeV.
AUTHOR     (H.Orihara, G.Rudolf, Ph.Gorodetzky)
INSTITUTE  (2FR STR)
REFERENCE  (J,NP/A,203,78,1973)
FACILITY   (VDGT,2FR STR)
SAMPLE     The O-18 targets consisted of self-supporting Al(2)O(3)
           films about 40 mug/cm**2 thick, 98% enriched in O-180
           was used. A self-supporting non-enriched Al(2)O(3)
           target was bombarded to obtain the background
           correction due to O-16.
DETECTOR   (SIBAR) a 530 mum thick surface-barrier detector
HISTORY    (20120928C) Sb
ENDBIB              12
NOCOMMON             0          0
ENDSUBENT           15
SUBENT        O2048002   20120928   20121218   20121211       O049
BIB                  3          3
REACTION   (8-O-18(P,EL)8-O-18,,DA)
ERR-ANALYS (DATA-ERR) The error is reported by authors on figure.
STATUS     (CURVE).By CAJAD-fig.5 of J,NP/A,203,78,1973
ENDBIB               3
NOCOMMON             0          0
DATA                 4        438
ANG-CM     EN         DATA-CM    DATA-ERR
ADEG       MEV        MB/SR      MB/SR
        63.      5.972     66.374      1.724
        63.      5.977     63.996      1.333
        63.      5.981     65.278      1.532
        63.      5.986     62.567      1.262
        63.      5.992     62.438      1.462
        63.      5.997     59.594      1.597
        63.      6.001     56.684      1.327
        63.      6.007     53.096      1.333
        63.      6.012     56.442      1.597
        63.      6.017     56.720      1.061
        63.      6.023     54.463      1.068
        63.      6.028     53.077      0.864
        63.      6.032     52.765      1.125
        63.      6.037     52.515      1.460
        63.      6.041     45.083      1.200
        63.      6.048     44.880      1.592
        63.      6.052     39.249      0.863
        63.      6.057     37.403      1.063
        63.      6.062     36.484      1.331
        63.      6.067     32.238      1.728
        63.      6.072     33.917      1.196
        63.      6.076     33.336      1.400
        63.      6.082     41.190      0.863
        63.      6.087     48.718      0.999
        63.      6.092     54.588      1.468
        63.      6.097     52.536      0.999
        63.      6.102     58.540      1.400
        63.      6.108     52.427      1.331
        63.      6.112     63.422      1.467
        63.      6.117     62.633      1.399
        63.      6.122     66.240      1.000
        63.      6.128     64.713      1.467
        63.      6.133     63.271      1.258
        63.      6.137     64.350      1.464
        63.      6.143     64.495      1.596
        63.      6.148     61.106      1.330
        63.      6.153     62.524      1.464
        63.      6.157     63.011      0.997
        75.      5.570     45.374
        75.      5.572     46.298      0.790
        75.      5.573     39.559      1.268
        75.      5.575     40.249      0.951
        75.      5.578     40.056      1.185
        75.      5.583     38.177      1.029
        75.      5.588     39.151      1.027
        75.      5.589     36.767
        75.      5.591     37.051      0.791
        75.      5.593     39.093      1.029
        75.      5.595     39.222
        75.      5.596     38.266
        75.      5.597     37.303
        75.      5.600     36.312      0.948
        75.      5.603     41.117      1.030
        75.      5.604     43.075
        75.      5.607     39.559      1.111
        75.      5.611     46.325
        75.      5.613     50.177
        75.      5.615     54.904
        75.      5.617     63.833      0.870
        75.      5.621     67.503
        75.      5.623     70.723      1.111
        75.      5.624     80.924      1.110
        75.      5.627     80.732      0.950
        75.      5.630     83.397
        75.      5.631     81.644
        75.      5.633     79.246      1.106
        75.      5.635     81.039      0.950
        75.      5.637     74.528
        75.      5.641     75.191      1.266
        75.      5.643     71.369
        75.      5.646     71.809
        75.      5.647     65.302
        75.      5.649     67.740
        75.      5.651     67.392
        75.      5.653     65.714
        75.      5.656     67.493
        75.      5.658     63.591
        75.      5.972     46.190      1.760
        75.      5.977     47.566      1.240
        75.      5.982     46.732      1.689
        75.      5.988     43.677      1.107
        75.      5.991     45.204      1.305
        75.      5.997     45.669      1.366
        75.      6.002     45.023      1.301
        75.      6.007     46.151      1.434
        75.      6.012     44.470      1.370
        75.      6.016     46.188      1.172
        75.      6.021     42.743      1.368
        75.      6.027     40.401      1.304
        75.      6.032     44.979      1.176
        75.      6.036     37.308      1.240
        75.      6.041     36.409      1.369
        75.      6.047     36.676      0.847
        75.      6.052     35.129      1.045
        75.      6.057     34.294      1.237
        75.      6.061     34.639      1.433
        75.      6.067     33.995      1.305
        75.      6.071     32.583      1.172
        75.      6.077     37.212      1.433
        75.      6.082     42.047      1.503
        75.      6.088     46.935      1.431
        75.      6.091     53.543      1.239
        75.      6.098     55.688      1.500
        75.      6.102     63.268      0.847
        75.      6.108     62.425      1.111
        75.      6.113     67.060      1.112
        75.      6.118     65.512      0.976
        75.      6.122     67.558      1.369
        75.      6.128     63.393      1.240
        75.      6.133     63.601      1.301
        75.      6.137     64.790      1.370
        75.      6.143     61.216      1.172
        75.      6.148     60.580      1.239
        75.      6.154     63.186      1.301
        75.      6.158     61.904      1.173
        90.      5.568     51.343      0.721
        90.      5.570     56.936      1.079
        90.      5.572     55.982      0.862
        90.      5.573     55.179      0.791
        90.      5.575     54.511      0.644
        90.      5.576     53.273
        90.      5.577     52.472      0.791
        90.      5.581     59.057
        90.      5.582     58.325      0.858
        90.      5.584     57.228
        90.      5.585     52.972      1.008
        90.      5.589     54.583      1.368
        90.      5.591     56.211      0.721
        90.      5.593     54.973      1.079
        90.      5.595     57.324      0.860
        90.      5.599     56.351      1.077
        90.      5.599     62.317
        90.      5.600     61.512      0.862
        90.      5.603     59.330
        90.      5.604     58.598
        90.      5.605     58.224
        90.      5.607     58.855
        90.      5.609     59.188
        90.      5.612     59.091
        90.      5.613     57.711      1.296
        90.      5.619     59.380
        90.      5.621     60.285
        90.      5.623     57.033
        90.      5.624     54.139      1.151
        90.      5.627     54.465      1.656
        90.      5.629     57.545
        90.      5.630     56.738
        90.      5.632     51.249      0.937
        90.      5.635     50.785      0.788
        90.      5.636     54.663
        90.      5.639     51.896      1.223
        90.      5.643     50.561      1.152
        90.      5.648     53.030      0.935
        90.      5.650     55.233      0.865
        90.      5.653     55.204      0.933
        90.      5.656     54.027      0.790
        90.      5.659     54.066      0.863
        90.      5.661     52.242      0.791
        90.      5.664     54.583      0.788
        90.      5.667     53.118      0.718
        90.      5.971     41.957      0.780
        90.      5.976     40.219      1.206
        90.      5.981     45.056      1.330
        90.      5.986     44.881      0.843
        90.      5.991     48.632      1.330
        90.      5.996     42.255      1.265
        90.      6.001     45.102      0.902
        90.      6.008     41.845      1.144
        90.      6.012     43.734      1.685
        90.      6.017     45.789      1.267
        90.      6.021     42.435      0.787
        90.      6.027     45.277      1.085
        90.      6.032     44.143      0.665
        90.      6.037     49.759      1.263
        90.      6.041     47.305      1.023
        90.      6.047     45.924      0.903
        90.      6.052     47.864      1.207
        90.      6.056     45.713      0.905
        90.      6.061     44.581      1.024
        90.      6.067     47.239      1.024
        90.      6.071     50.085      0.843
        90.      6.076     51.311      1.085
        90.      6.081     47.644      1.148
        90.      6.087     51.145      0.843
        90.      6.091     46.580      1.204
        90.      6.096     49.484      1.085
        90.      6.102     46.238      0.966
        90.      6.108     48.106      1.142
        90.      6.112     45.597      1.025
        90.      6.117     47.174      0.901
        90.      6.122     46.945      1.261
        90.      6.127     47.136      1.084
        90.      6.132     45.527      1.385
        90.      6.137     43.727      1.265
        90.      6.142     41.094      1.807
        90.      6.148     42.361      1.085
        90.      6.152     46.900      1.204
       103.      5.568     70.698
       103.      5.571     71.214
       103.      5.573     71.264
       103.      5.574     72.353
       103.      5.577     71.454
       103.      5.579     70.882
       103.      5.582     70.766
       103.      5.585     70.426
       103.      5.586     69.859
       103.      5.588     69.837
       103.      5.590     69.889
       103.      5.593     69.390
       103.      5.594     70.325
       103.      5.595     70.863
       103.      5.596     69.278
       103.      5.601     69.456
       103.      5.604     69.179
       103.      5.606     65.617
       103.      5.608     62.292
       103.      5.610     58.970
       103.      5.612     53.204
       103.      5.614     50.351
       103.      5.616     47.815
       103.      5.620     43.200
       103.      5.622     38.149
       103.      5.624     35.849
       103.      5.625     34.969
       103.      5.626     33.546
       103.      5.627     34.629
       103.      5.629     35.241
       103.      5.630     36.250
       103.      5.631     37.258
       103.      5.633     38.178
       103.      5.636     38.068
       103.      5.640     37.946
       103.      5.642     40.991
       103.      5.644     42.777
       103.      5.646     42.432
       103.      5.648     44.461
       103.      5.650     45.298
       103.      5.652     47.400
       103.      5.654     48.011
       103.      5.655     48.388
       103.      5.972     54.919      0.884
       103.      5.977     57.453      1.151
       103.      5.981     53.931      0.885
       103.      5.987     55.502      1.431
       103.      5.992     55.723      1.563
       103.      5.997     56.554      1.425
       103.      6.001     57.117      1.021
       103.      6.007     60.999      1.292
       103.      6.011     61.093      1.295
       103.      6.018     60.613      1.157
       103.      6.022     61.522      1.224
       103.      6.026     62.355      1.498
       103.      6.031     63.871      1.293
       103.      6.037     65.640      0.749
       103.      6.041     66.615      1.223
       103.      6.046     67.852      1.428
       103.      6.051     70.246      1.568
       103.      6.056     72.775      1.359
       103.      6.062     71.630      1.561
       103.      6.066     69.605      1.020
       103.      6.071     68.532      1.020
       103.      6.076     66.436      1.289
       103.      6.081     61.077      1.427
       103.      6.087     57.068      1.428
       103.      6.092     52.934      1.292
       103.      6.096     48.670      1.291
       103.      6.101     42.628      1.023
       103.      6.107     42.567      1.367
       103.      6.111     42.451      1.156
       103.      6.117     42.320      1.021
       103.      6.122     43.901      1.021
       103.      6.127     43.366      1.088
       103.      6.131     44.135      1.498
       103.      6.137     44.484      1.627
       103.      6.142     44.702      1.291
       103.      6.147     44.037      1.772
       103.      6.152     43.776      1.765
       103.      6.157     43.656      1.021
       125.      5.546     65.795      0.996
       125.      5.548     65.968      1.095
       125.      5.550     66.044      0.499
       125.      5.552     66.822      1.197
       125.      5.554     67.589      0.797
       125.      5.556     69.063      0.996
       125.      5.558     68.741      1.391
       125.      5.559     67.832      1.381
       125.      5.561     67.904      0.998
       125.      5.564     66.975      0.897
       125.      5.565     68.952      0.892
       125.      5.569     71.301
       125.      5.571     72.468
       125.      5.572     72.848
       125.      5.574     74.020
       125.      5.576     74.700
       125.      5.579     75.850      0.696
       125.      5.582     78.206
       125.      5.583     79.688
       125.      5.586     79.062
       125.      5.586     80.652
       125.      5.588     80.227
       125.      5.589     82.597
       125.      5.591     82.182
       125.      5.591     84.862
       125.      5.593     85.534
       125.      5.595     86.608
       125.      5.599     82.187
       125.      5.601     78.385
       125.      5.604     73.882
       125.      5.605     68.891
       125.      5.608     59.912
       125.      5.610     54.517
       125.      5.612     50.619
       125.      5.614     48.709
       125.      5.616     47.292
       125.      5.618     44.689
       125.      5.620     41.480
       125.      5.622     40.560
       125.      5.624     40.534
       125.      5.626     40.610
       125.      5.627     38.517
       125.      5.630     38.981
       125.      5.630     39.669
       125.      5.632     40.444
       125.      5.634     40.326
       125.      5.635     40.309
       125.      5.639     40.262
       125.      5.642     41.033
       125.      5.644     41.600
       125.      5.646     41.779
       125.      5.647     41.861
       125.      5.649     41.838
       125.      5.651     40.926
       125.      5.653     43.085
       125.      5.657     42.845
       125.      5.971     27.827      1.416
       125.      5.976     27.035      1.007
       125.      5.981     27.522      0.807
       125.      5.986     29.481      1.478
       125.      5.991     29.629      1.345
       125.      5.996     29.034      1.210
       125.      6.001     32.955      1.484
       125.      6.006     34.043      1.346
       125.      6.011     34.331      1.686
       125.      6.016     35.345      1.076
       125.      6.020     35.844      1.207
       125.      6.026     36.991      1.144
       125.      6.031     39.892      1.419
       125.      6.036     41.390      1.143
       125.      6.041     43.420      1.480
       125.      6.046     46.051      1.207
       125.      6.051     46.808      1.211
       125.      6.056     46.016      0.738
       125.      6.060     42.942      1.076
       125.      6.066     40.862      0.874
       125.      6.070     38.261      1.010
       125.      6.076     37.257      1.202
       125.      6.081     32.434      1.341
       125.      6.086     30.487      1.206
       125.      6.091     30.436      1.343
       125.      6.096     25.275      0.875
       125.      6.102     26.289      1.211
       125.      6.107     26.499      1.480
       125.      6.111     25.650      1.008
       125.      6.116     24.047      1.010
       125.      6.121     24.671      1.347
       125.      6.126     23.472      0.740
       125.      6.131     24.496      1.080
       125.      6.136     24.030      0.808
       125.      6.141     24.178      1.143
       125.      6.147     23.921      0.940
       125.      6.151     24.280      1.277
       125.      6.155     24.974      1.074
       141.      5.571     50.012
       141.      5.574     50.083
       141.      5.576     52.407
       141.      5.581     53.694
       141.      5.582     55.245
       141.      5.584     55.219
       141.      5.587     58.208
       141.      5.588     60.313
       141.      5.590     62.297
       141.      5.591     65.870
       141.      5.594     69.860
       141.      5.596     74.745
       141.      5.600     82.189
       141.      5.601     84.073
       141.      5.604     85.496
       141.      5.605     85.482
       141.      5.608     84.892
       141.      5.609     82.190
       141.      5.612     78.813
       141.      5.614     74.210
       141.      5.615     68.044
       141.      5.618     59.639
       141.      5.619     52.355
       141.      5.622     50.986
       141.      5.624     49.846
       141.      5.626     49.372
       141.      5.628     48.015
       141.      5.630     46.314
       141.      5.632     45.170
       141.      5.970     18.598      1.298
       141.      5.975     20.037      1.102
       141.      5.980     19.530      1.620
       141.      5.985     20.127      1.168
       141.      5.990     19.295      1.228
       141.      5.996     19.170      0.776
       141.      6.000     19.713      1.688
       141.      6.005     19.600      1.682
       141.      6.010     20.712      1.301
       141.      6.015     22.671      1.294
       141.      6.020     22.817      1.493
       141.      6.026     23.667      1.362
       141.      6.030     26.936      1.103
       141.      6.035     32.333      1.299
       141.      6.041     34.552      1.103
       141.      6.045     38.723      1.237
       141.      6.051     42.431      1.492
       141.      6.055     46.932      1.297
       141.      6.060     48.181      1.105
       141.      6.065     50.917      1.299
       141.      6.070     48.988      1.105
       141.      6.076     47.436      1.170
       141.      6.080     45.568      1.035
       141.      6.085     41.878      0.844
       141.      6.090     37.609      1.170
       141.      6.096     35.540      1.103
       141.      6.100     32.762      1.490
       141.      6.106     32.120      1.685
       141.      6.110     30.261      1.889
       141.      6.115     28.450      1.298
       141.      6.121     27.553      1.492
       141.      6.127     27.426      1.171
       141.      6.132     27.113      1.302
       141.      6.135     25.580      1.685
       141.      6.140     23.582      1.816
       141.      6.146     24.170      1.623
       141.      6.150     23.608      1.039
ENDDATA            440
ENDSUBENT          448
SUBENT        O2048003   20120928   20121218   20121211       O049
BIB                  3          6
REACTION  1(8-O-18(P,0),,EN)
          2(8-O-18(P,EL),,WID)
          3(8-O-18(P,TOT),,WID)
ERR-ANALYS (DATA-ERR).The error is reported by authors in table
STATUS     (TABLE).Table 1 of J,NP/A,203,78,1973
           (DEP,O2048002)
ENDBIB               6
NOCOMMON             0          0
DATA                 6         20
DATA      1DATA-ERR  1DATA      2DATA-ERR  2DATA      3DATA-ERR  3
KEV        KEV        KEV        KEV        KEV        KEV
3479.      8.         4.3        1.0        23.        5.
3547.      25.        241.0      2.0        286.       33.
3643.      9.         17.0       3.0        40.        7.
3694.      9.         12.0       2.0        294.       6.
3744.      8.         3.7        1.0        234.       5.
3811.      12.        66.0       7.0        30.        12.
3869.      8.         12.0       2.0        28.        7.
4220.      21.        138.0      15.0       209.       26.
4388.      15.        76.0       9.0        124.       17.
4472.      12.        48.0       6.0        78.        11.
4782.      7.         2.4        1.0        16.        4.
4839.      11.        6.4        2.0        53.        10.
4845.      43.        142.0      22.0       431.       60.
5023.      31.        83.0       14.        288.       41.
5036.      13.        6.0        2.0        70.        12.
5129.      30.        114.0      17.0       287.       40.
5324.      16.        20.0       4.0        106.       17.
5371.      16.        16.0       3.0        105.       17.
5625.      8.         10.0       3.0        29.        6.
6063.      11.        13.0       3.0        53.        9.
ENDDATA             22
ENDSUBENT           33
ENDENTRY             3
