ENTRY            12360     820519              20050926       0000
SUBENT        12360001     820519              20050926       0000
BIB                  7          9
INSTITUTE  (1USALAS)
REFERENCE  (J,PR,166,1178,6802)
           (P,LA-3586,16,6612) TABULATED DATA.
AUTHOR     (D.W.BERGEN,M.G.SILBERT,R.C.PERISHO)
TITLE      THE FISSION CROSS SECTION OF U233, 20 EV - 2 MEV.
N-SOURCE   (EXPLO) PETREL UNDERGROUND NUCLEAR EXPLOSION.
STATUS     (SCSRS)
HISTORY    (760804T) TRANSLATED FROM SCISRS
           (820519A) CONVERTED TO REACTION FORMALISM
ENDBIB               9
NOCOMMON             0          0
ENDSUBENT           12
SUBENT        12360002     820519              20050926       0000
BIB                  2          2
REACTION   (92-U-233(N,F),,SIG)
METHOD     (TOF)      TIME-OF-FLIGHT
ENDBIB               2
NOCOMMON             0          0
DATA                 3       3047
EN         DATA       DATA-ERR
MEV        B          PER-CENT
 2.005  -05 7.241  +01   13.
 2.008  -05 7.763  +01   13.
 2.010  -05 8.256  +01   13.
 2.013  -05 8.194  +01   13.
 2.016  -05 8.094  +01   13.
 2.019  -05 9.656  +01   13.
 2.021  -05 9.481  +01   13.
 2.024  -05 1.039  +02   13.
 2.027  -05 1.077  +02   12.
 2.029  -05 1.065  +02   12.
 2.032  -05 1.258  +02   13.
 2.035  -05 1.320  +02   12.
 2.038  -05 1.450  +02   12.
 2.040  -05 1.646  +02   12.
 2.043  -05 1.764  +02   12.
 2.046  -05 2.065  +02   12.
 2.049  -05 2.166  +02   12.
 2.052  -05 2.231  +02   12.
 2.054  -05 2.384  +02   13.
 2.057  -05 2.416  +02   12.
 2.060  -05 2.409  +02   12.
 2.063  -05 2.444  +02   12.
 2.066  -05 2.137  +02   13.
 2.068  -05 1.975  +02   13.
 2.071  -05 1.859  +02   13.
 2.074  -05 1.708  +02   13.
 2.077  -05 1.572  +02   13.
 2.080  -05 1.446  +02   12.
 2.083  -05 1.293  +02   13.
 2.085  -05 1.215  +02   13.
 2.088  -05 1.138  +02   13.
 2.091  -05 1.053  +02   13.
 2.094  -05 1.024  +02   13.
 2.097  -05 9.585  +01   12.
 2.100  -05 9.138  +01   14.
 2.103  -05 8.898  +01   13.
 2.106  -05 9.194  +01   13.
 2.108  -05 8.736  +01   14.
 2.111  -05 9.063  +01   12.
 2.114  -05 9.221  +01   13.
 2.117  -05 9.179  +01   14.
 2.120  -05 9.571  +01   13.
 2.123  -05 9.771  +01   13.
 2.126  -05 1.056  +02   13.
 2.129  -05 1.119  +02   12.
 2.132  -05 1.128  +02   12.
 2.135  -05 1.148  +02   13.
 2.138  -05 1.279  +02   12.
 2.141  -05 1.362  +02   12.
 2.144  -05 1.433  +02   12.
 2.147  -05 1.536  +02   12.
 2.150  -05 1.613  +02   12.
 2.153  -05 1.774  +02   12.
 2.156  -05 1.894  +02   12.
 2.159  -05 2.079  +02   12.
 2.162  -05 2.393  +02   12.
 2.165  -05 2.625  +02   12.
 2.168  -05 2.941  +02   12.
 2.171  -05 3.236  +02   12.
 2.174  -05 3.723  +02   13.
 2.177  -05 4.250  +02   12.
 2.180  -05 4.673  +02   12.
 2.183  -05 5.103  +02   11.
 2.186  -05 5.513  +02   12.
 2.189  -05 5.586  +02   13.
 2.192  -05 5.594  +02   12.
 2.195  -05 5.433  +02   12.
 2.198  -05 5.255  +02   11.
 2.201  -05 5.099  +02   11.
 2.204  -05 5.013  +02   11.
 2.208  -05 5.041  +02   12.
 2.211  -05 5.422  +02   11.
 2.214  -05 5.862  +02   13.
 2.217  -05 6.426  +02   12.
 2.220  -05 6.829  +02   12.
 2.223  -05 7.384  +02   11.
 2.226  -05 8.148  +02   12.
 2.229  -05 8.574  +02   11.
 2.233  -05 8.575  +02   12.
 2.236  -05 8.550  +02   12.
 2.239  -05 8.203  +02   12.
 2.242  -05 7.610  +02   12.
 2.245  -05 6.959  +02   12.
 2.249  -05 6.568  +02   12.
 2.252  -05 5.710  +02   12.
 2.255  -05 4.982  +02   12.
 2.258  -05 4.588  +02   12.
 2.261  -05 4.051  +02   12.
 2.265  -05 3.655  +02   12.
 2.268  -05 3.258  +02   12.
 2.271  -05 3.000  +02   11.
 2.274  -05 2.772  +02   11.
 2.278  -05 2.581  +02   11.
 2.281  -05 2.430  +02   11.
 2.284  -05 2.286  +02   12.
 2.287  -05 2.182  +02   11.
 2.291  -05 2.047  +02   12.
 2.294  -05 2.011  +02   11.
 2.297  -05 1.947  +02   12.
 2.301  -05 1.847  +02   12.
 2.304  -05 1.700  +02   12.
 2.307  -05 1.594  +02   12.
 2.311  -05 1.530  +02   12.
 2.314  -05 1.460  +02   12.
 2.317  -05 1.350  +02   11.
 2.321  -05 1.254  +02   11.
 2.324  -05 1.198  +02   11.
 2.327  -05 1.189  +02   12.
 2.331  -05 1.132  +02   11.
 2.334  -05 1.090  +02   12.
 2.337  -05 1.056  +02   12.
 2.341  -05 1.027  +02   11.
 2.344  -05 1.030  +02   11.
 2.348  -05 1.052  +02   11.
 2.351  -05 1.117  +02   12.
 2.354  -05 1.249  +02   14.
 2.358  -05 1.323  +02   12.
 2.361  -05 1.403  +02   12.
 2.365  -05 1.478  +02   12.
 2.368  -05 1.483  +02   11.
 2.372  -05 1.528  +02   12.
 2.375  -05 1.535  +02   12.
 2.379  -05 1.496  +02   11.
 2.382  -05 1.434  +02   11.
 2.386  -05 1.391  +02   11.
 2.389  -05 1.386  +02   12.
 2.393  -05 1.305  +02   12.
 2.396  -05 1.213  +02   12.
 2.400  -05 1.152  +02   12.
 2.403  -05 1.125  +02   11.
 2.407  -05 1.062  +02   12.
 2.410  -05 9.782  +01   12.
 2.414  -05 9.741  +01   12.
 2.417  -05 9.272  +01   12.
 2.421  -05 9.316  +01   14.
 2.424  -05 8.838  +01   11.
 2.428  -05 8.468  +01   11.
 2.432  -05 8.061  +01   12.
 2.435  -05 7.905  +01   11.
 2.439  -05 7.725  +01   12.
 2.442  -05 7.123  +01   11.
 2.446  -05 7.022  +01   11.
 2.450  -05 6.747  +01   12.
 2.453  -05 6.487  +01   11.
 2.457  -05 6.507  +01   12.
 2.461  -05 6.288  +01   11.
 2.464  -05 6.059  +01   11.
 2.468  -05 5.958  +01   11.
 2.472  -05 5.906  +01   11.
 2.475  -05 5.910  +01   11.
 2.479  -05 6.111  +01   12.
 2.483  -05 6.016  +01   12.
 2.486  -05 6.164  +01   12.
 2.490  -05 6.453  +01   11.
 2.494  -05 7.351  +01   12.
 2.498  -05 8.151  +01   13.
 2.501  -05 9.319  +01   14.
 2.505  -05 1.118  +02   15.
 2.509  -05 1.319  +02   12.
 2.513  -05 1.560  +02   13.
 2.516  -05 1.759  +02   12.
 2.520  -05 1.919  +02   12.
 2.524  -05 2.021  +02   12.
 2.528  -05 2.007  +02   11.
 2.532  -05 1.922  +02   11.
 2.535  -05 1.742  +02   11.
 2.539  -05 1.649  +02   11.
 2.543  -05 1.468  +02   12.
 2.547  -05 1.311  +02   11.
 2.551  -05 1.187  +02   11.
 2.555  -05 1.109  +02   11.
 2.559  -05 1.038  +02   11.
 2.562  -05 9.739  +01   11.
 2.566  -05 9.758  +01   11.
 2.570  -05 9.674  +01   11.
 2.574  -05 9.575  +01   12.
 2.578  -05 9.255  +01   11.
 2.582  -05 8.948  +01   11.
 2.586  -05 8.704  +01   12.
 2.590  -05 8.572  +01   11.
 2.594  -05 8.620  +01   11.
 2.598  -05 8.436  +01   11.
 2.602  -05 8.768  +01   11.
 2.606  -05 8.422  +01   11.
 2.610  -05 8.223  +01   12.
 2.614  -05 8.450  +01   11.
 2.618  -05 8.323  +01   11.
 2.622  -05 8.457  +01   11.
 2.626  -05 8.515  +01   11.
 2.630  -05 8.469  +01   11.
 2.634  -05 8.410  +01   11.
 2.638  -05 8.459  +01   11.
 2.642  -05 8.588  +01   11.
 2.646  -05 9.328  +01   12.
 2.650  -05 9.970  +01   12.
 2.654  -05 1.110  +02   11.
 2.658  -05 1.121  +02   11.
 2.663  -05 1.150  +02   11.
 2.667  -05 1.125  +02   11.
 2.671  -05 1.001  +02   12.
 2.675  -05 8.962  +01   11.
 2.679  -05 8.189  +01   12.
 2.683  -05 7.546  +01   11.
 2.687  -05 6.682  +01   12.
 2.692  -05 6.169  +01   11.
 2.696  -05 5.812  +01   11.
 2.700  -05 5.316  +01   11.
 2.704  -05 4.957  +01   11.
 2.708  -05 4.774  +01   11.
 2.713  -05 4.626  +01   12.
 2.717  -05 4.348  +01   12.
 2.721  -05 4.313  +01   11.
 2.725  -05 4.296  +01   11.
 2.730  -05 4.087  +01   11.
 2.734  -05 4.197  +01   11.
 2.738  -05 4.545  +01   11.
 2.743  -05 4.650  +01   11.
 2.747  -05 4.854  +01   11.
 2.751  -05 5.157  +01   11.
 2.756  -05 5.116  +01   11.
 2.760  -05 5.319  +01   12.
 2.764  -05 5.522  +01   11.
 2.769  -05 5.819  +01   11.
 2.773  -05 5.913  +01   11.
 2.777  -05 5.914  +01   11.
 2.782  -05 6.080  +01   11.
 2.786  -05 6.283  +01   11.
 2.791  -05 6.277  +01   11.
 2.795  -05 6.395  +01   11.
 2.799  -05 6.738  +01   11.
 2.804  -05 7.113  +01   11.
 2.808  -05 7.376  +01   11.
 2.813  -05 7.880  +01   11.
 2.817  -05 8.679  +01   12.
 2.822  -05 9.254  +01   11.
 2.826  -05 9.619  +01   11.
 2.831  -05 9.919  +01   11.
 2.835  -05 9.968  +01   11.
 2.840  -05 9.256  +01   11.
 2.844  -05 8.905  +01   11.
 2.849  -05 8.383  +01   11.
 2.853  -05 8.333  +01   11.
 2.858  -05 8.714  +01   11.
 2.863  -05 9.783  +01   11.
 2.867  -05 1.095  +02   12.
 2.872  -05 1.169  +02   11.
 2.876  -05 1.321  +02   11.
 2.881  -05 1.395  +02   11.
 2.886  -05 1.595  +02   12.
 2.890  -05 1.806  +02   12.
 2.895  -05 1.990  +02   12.
 2.900  -05 2.169  +02   11.
 2.904  -05 2.185  +02   11.
 2.909  -05 2.127  +02   11.
 2.914  -05 2.073  +02   11.
 2.919  -05 1.868  +02   12.
 2.923  -05 1.652  +02   12.
 2.928  -05 1.451  +02   12.
 2.933  -05 1.272  +02   13.
 2.938  -05 1.063  +02   12.
 2.942  -05 1.001  +02   12.
 2.947  -05 9.640  +01   12.
 2.952  -05 9.295  +01   12.
 2.957  -05 8.881  +01   11.
 2.962  -05 8.356  +01   12.
 2.966  -05 6.878  +01   13.
 2.971  -05 5.794  +01   11.
 2.976  -05 4.906  +01   13.
 2.981  -05 3.733  +01   12.
 2.986  -05 3.322  +01   11.
 2.991  -05 3.078  +01   11.
 2.996  -05 3.128  +01   12.
 3.001  -05 3.183  +01   12.
 3.006  -05 3.258  +01   11.
 3.010  -05 3.565  +01   11.
 3.015  -05 3.757  +01   12.
 3.020  -05 4.177  +01   12.
 3.025  -05 4.613  +01   11.
 3.030  -05 5.014  +01   12.
 3.035  -05 5.334  +01   12.
 3.040  -05 6.075  +01   12.
 3.045  -05 6.959  +01   12.
 3.050  -05 7.878  +01   12.
 3.056  -05 9.720  +01   13.
 3.061  -05 1.131  +02   12.
 3.066  -05 1.225  +02   11.
 3.071  -05 1.289  +02   11.
 3.076  -05 1.244  +02   11.
 3.081  -05 1.132  +02   12.
 3.086  -05 9.709  +01   11.
 3.091  -05 8.323  +01   12.
 3.096  -05 6.662  +01   12.
 3.102  -05 5.920  +01   11.
 3.107  -05 5.938  +01   11.
 3.112  -05 6.464  +01   12.
 3.117  -05 7.264  +01   11.
 3.122  -05 7.708  +01   11.
 3.128  -05 8.502  +01   11.
 3.133  -05 9.139  +01   11.
 3.138  -05 9.102  +01   11.
 3.143  -05 9.407  +01   11.
 3.149  -05 9.089  +01   11.
 3.154  -05 9.193  +01   11.
 3.159  -05 9.432  +01   11.
 3.165  -05 9.944  +01   11.
 3.170  -05 1.013  +02   11.
 3.175  -05 1.150  +02   12.
 3.181  -05 1.355  +02   13.
 3.186  -05 1.590  +02   12.
 3.192  -05 1.774  +02   11.
 3.197  -05 1.964  +02   12.
 3.202  -05 2.029  +02   11.
 3.208  -05 1.870  +02   12.
 3.213  -05 1.585  +02   14.
 3.219  -05 1.213  +02   11.
 3.224  -05 1.017  +02   13.
 3.230  -05 7.367  +01   14.
 3.235  -05 5.956  +01   12.
 3.241  -05 5.106  +01   11.
 3.246  -05 4.938  +01   11.
 3.252  -05 5.115  +01   11.
 3.257  -05 5.374  +01   12.
 3.263  -05 5.787  +01   12.
 3.269  -05 6.265  +01   12.
 3.274  -05 6.547  +01   11.
 3.280  -05 7.084  +01   11.
 3.286  -05 7.632  +01   12.
 3.291  -05 8.293  +01   12.
 3.297  -05 8.930  +01   11.
 3.303  -05 9.448  +01   11.
 3.308  -05 9.639  +01   11.
 3.314  -05 9.284  +01   13.
 3.320  -05 9.738  +01   11.
 3.325  -05 9.674  +01   11.
 3.331  -05 9.597  +01   11.
 3.337  -05 9.553  +01   11.
 3.343  -05 9.726  +01   11.
 3.349  -05 9.898  +01   11.
 3.354  -05 1.030  +02   11.
 3.360  -05 9.990  +01   11.
 3.366  -05 1.056  +02   11.
 3.372  -05 1.072  +02   11.
 3.378  -05 1.116  +02   11.
 3.384  -05 1.152  +02   11.
 3.390  -05 1.174  +02   11.
 3.396  -05 1.214  +02   11.
 3.401  -05 1.250  +02   11.
 3.407  -05 1.262  +02   11.
 3.413  -05 1.323  +02   11.
 3.419  -05 1.319  +02   11.
 3.425  -05 1.373  +02   11.
 3.431  -05 1.440  +02   11.
 3.437  -05 1.470  +02   12.
 3.444  -05 1.500  +02   12.
 3.450  -05 1.488  +02   11.
 3.456  -05 1.462  +02   12.
 3.462  -05 1.420  +02   12.
 3.468  -05 1.303  +02   12.
 3.474  -05 1.167  +02   12.
 3.480  -05 1.024  +02   12.
 3.486  -05 9.146  +01   12.
 3.493  -05 8.495  +01   12.
 3.499  -05 8.280  +01   11.
 3.505  -05 7.977  +01   12.
 3.511  -05 8.379  +01   11.
 3.517  -05 8.381  +01   11.
 3.524  -05 8.193  +01   11.
 3.530  -05 8.041  +01   12.
 3.536  -05 7.909  +01   11.
 3.543  -05 7.478  +01   12.
 3.549  -05 7.237  +01   11.
 3.555  -05 7.067  +01   11.
 3.562  -05 6.963  +01   12.
 3.568  -05 6.770  +01   11.
 3.574  -05 6.403  +01   12.
 3.581  -05 6.231  +01   11.
 3.587  -05 6.075  +01   11.
 3.594  -05 5.848  +01   12.
 3.600  -05 5.655  +01   11.
 3.607  -05 5.411  +01   12.
 3.613  -05 5.406  +01   11.
 3.620  -05 5.513  +01   12.
 3.626  -05 6.009  +01   12.
 3.633  -05 7.243  +01   12.
 3.639  -05 9.365  +01   14.
 3.646  -05 1.193  +02   13.
 3.653  -05 1.316  +02   13.
 3.659  -05 1.281  +02   12.
 3.666  -05 1.095  +02   14.
 3.672  -05 8.281  +01   16.
 3.679  -05 5.810  +01   13.
 3.686  -05 4.561  +01   12.
 3.693  -05 4.023  +01   11.
 3.699  -05 3.896  +01   11.
 3.706  -05 4.286  +01   12.
 3.713  -05 4.836  +01   12.
 3.720  -05 5.360  +01   12.
 3.726  -05 6.537  +01   12.
 3.733  -05 7.375  +01   12.
 3.740  -05 8.183  +01   12.
 3.747  -05 8.648  +01   12.
 3.754  -05 8.185  +01   12.
 3.761  -05 7.234  +01   13.
 3.768  -05 5.916  +01   14.
 3.775  -05 4.770  +01   13.
 3.782  -05 3.805  +01   13.
 3.789  -05 2.946  +01   13.
 3.796  -05 2.507  +01   14.
 3.803  -05 2.158  +01   12.
 3.810  -05 1.912  +01   12.
 3.817  -05 1.757  +01   12.
 3.824  -05 1.603  +01   12.
 3.831  -05 1.498  +01   11.
 3.838  -05 1.523  +01   12.
 3.845  -05 1.532  +01   12.
 3.852  -05 1.623  +01   12.
 3.860  -05 1.790  +01   13.
 3.867  -05 2.065  +01   13.
 3.874  -05 2.623  +01   14.
 3.881  -05 3.241  +01   14.
 3.889  -05 3.920  +01   13.
 3.896  -05 4.833  +01   13.
 3.903  -05 5.557  +01   12.
 3.910  -05 6.010  +01   12.
 3.918  -05 6.432  +01   12.
 3.925  -05 6.799  +01   12.
 3.933  -05 6.956  +01   11.
 3.940  -05 7.079  +01   12.
 3.947  -05 7.233  +01   12.
 3.955  -05 7.032  +01   11.
 3.962  -05 6.924  +01   12.
 3.970  -05 6.868  +01   11.
 3.977  -05 6.843  +01   11.
 3.985  -05 6.560  +01   12.
 3.992  -05 6.475  +01   12.
 4.000  -05 6.314  +01   11.
 4.011  -05 6.272  +01   11.
 4.018  -05 6.260  +01   11.
 4.026  -05 6.392  +01   12.
 4.034  -05 6.338  +01   12.
 4.041  -05 6.254  +01   12.
 4.049  -05 6.125  +01   12.
 4.057  -05 5.794  +01   11.
 4.064  -05 5.591  +01   11.
 4.072  -05 5.434  +01   11.
 4.080  -05 5.523  +01   12.
 4.088  -05 6.092  +01   13.
 4.096  -05 6.472  +01   13.
 4.104  -05 6.599  +01   12.
 4.112  -05 5.527  +01   14.
 4.119  -05 3.989  +01   14.
 4.127  -05 2.847  +01   14.
 4.135  -05 2.240  +01   13.
 4.143  -05 1.904  +01   12.
 4.151  -05 1.850  +01   11.
 4.159  -05 1.864  +01   11.
 4.167  -05 1.897  +01   12.
 4.176  -05 1.976  +01   11.
 4.184  -05 2.174  +01   12.
 4.192  -05 2.283  +01   11.
 4.200  -05 2.307  +01   12.
 4.208  -05 2.595  +01   12.
 4.216  -05 2.849  +01   12.
 4.224  -05 3.310  +01   13.
 4.233  -05 4.246  +01   14.
 4.241  -05 6.413  +01   14.
 4.249  -05 7.968  +01   14.
 4.258  -05 9.484  +01   13.
 4.266  -05 9.280  +01   14.
 4.274  -05 7.131  +01   15.
 4.283  -05 4.693  +01   15.
 4.291  -05 2.928  +01   15.
 4.300  -05 2.221  +01   13.
 4.308  -05 2.059  +01   11.
 4.317  -05 2.331  +01   13.
 4.325  -05 2.999  +01   14.
 4.334  -05 3.920  +01   13.
 4.342  -05 4.508  +01   12.
 4.351  -05 4.572  +01   12.
 4.359  -05 3.905  +01   12.
 4.368  -05 2.963  +01   14.
 4.377  -05 2.194  +01   14.
 4.385  -05 1.826  +01   12.
 4.394  -05 1.696  +01   11.
 4.403  -05 1.709  +01   11.
 4.412  -05 1.765  +01   11.
 4.421  -05 1.943  +01   12.
 4.429  -05 2.160  +01   12.
 4.438  -05 2.296  +01   11.
 4.447  -05 2.503  +01   12.
 4.456  -05 2.498  +01   11.
 4.465  -05 2.348  +01   11.
 4.474  -05 2.191  +01   12.
 4.483  -05 1.793  +01   12.
 4.492  -05 1.546  +01   11.
 4.501  -05 1.374  +01   11.
 4.510  -05 1.290  +01   12.
 4.519  -05 1.205  +01   11.
 4.528  -05 1.170  +01   11.
 4.537  -05 1.152  +01   11.
 4.547  -05 1.134  +01   11.
 4.556  -05 1.073  +01   11.
 4.565  -05 1.085  +01   11.
 4.574  -05 1.290  +01   15.
 4.584  -05 2.087  +01   16.
 4.593  -05 3.553  +01   20.
 4.602  -05 4.889  +01   15.
 4.612  -05 5.281  +01   12.
 4.621  -05 4.612  +01   13.
 4.631  -05 3.477  +01   14.
 4.640  -05 2.695  +01   13.
 4.649  -05 2.410  +01   12.
 4.659  -05 2.377  +01   11.
 4.669  -05 2.625  +01   14.
 4.678  -05 3.013  +01   13.
 4.688  -05 3.721  +01   12.
 4.697  -05 4.532  +01   13.
 4.707  -05 5.652  +01   13.
 4.717  -05 6.584  +01   12.
 4.727  -05 6.676  +01   11.
 4.736  -05 6.053  +01   12.
 4.746  -05 5.015  +01   15.
 4.756  -05 3.473  +01   17.
 4.766  -05 2.466  +01   13.
 4.776  -05 1.949  +01   13.
 4.786  -05 1.584  +01   12.
 4.796  -05 1.489  +01   11.
 4.805  -05 1.618  +01   12.
 4.816  -05 2.160  +01   16.
 4.826  -05 3.486  +01   19.
 4.836  -05 5.585  +01   19.
 4.846  -05 9.151  +01   17.
 4.856  -05 1.477  +02   17.
 4.866  -05 1.912  +02   14.
 4.876  -05 1.846  +02   12.
 4.886  -05 1.428  +02   15.
 4.897  -05 8.923  +01   15.
 4.907  -05 6.171  +01   15.
 4.917  -05 4.995  +01   14.
 4.928  -05 4.104  +01   12.
 4.938  -05 3.398  +01   14.
 4.949  -05 2.604  +01   13.
 4.959  -05 2.287  +01   12.
 4.970  -05 2.119  +01   11.
 4.980  -05 2.168  +01   11.
 4.991  -05 2.392  +01   12.
 5.001  -05 2.743  +01   13.
 5.012  -05 3.180  +01   12.
 5.022  -05 3.400  +01   12.
 5.033  -05 3.554  +01   12.
 5.044  -05 3.597  +01   12.
 5.055  -05 3.462  +01   12.
 5.065  -05 3.235  +01   12.
 5.076  -05 2.918  +01   12.
 5.087  -05 2.682  +01   11.
 5.098  -05 2.479  +01   12.
 5.109  -05 2.381  +01   11.
 5.120  -05 2.160  +01   12.
 5.131  -05 1.859  +01   12.
 5.142  -05 1.535  +01   12.
 5.153  -05 1.340  +01   11.
 5.164  -05 1.323  +01   11.
 5.175  -05 1.395  +01   12.
 5.187  -05 1.546  +01   12.
 5.198  -05 1.608  +01   11.
 5.209  -05 1.578  +01   11.
 5.220  -05 1.496  +01   11.
 5.232  -05 1.499  +01   12.
 5.243  -05 1.568  +01   11.
 5.255  -05 1.760  +01   13.
 5.266  -05 2.418  +01   17.
 5.277  -05 3.730  +01   18.
 5.289  -05 5.940  +01   17.
 5.301  -05 7.331  +01   14.
 5.312  -05 7.884  +01   12.
 5.324  -05 7.365  +01   12.
 5.335  -05 6.798  +01   11.
 5.347  -05 6.256  +01   11.
 5.359  -05 6.032  +01   12.
 5.371  -05 6.421  +01   13.
 5.383  -05 7.757  +01   15.
 5.394  -05 9.807  +01   15.
 5.406  -05 1.068  +02   12.
 5.418  -05 1.041  +02   12.
 5.430  -05 9.152  +01   12.
 5.442  -05 8.542  +01   12.
 5.454  -05 9.248  +01   13.
 5.466  -05 1.093  +02   13.
 5.479  -05 1.225  +02   12.
 5.491  -05 1.159  +02   12.
 5.503  -05 8.960  +01   14.
 5.515  -05 7.389  +01   12.
 5.528  -05 6.925  +01   11.
 5.540  -05 7.353  +01   12.
 5.552  -05 7.969  +01   12.
 5.565  -05 9.603  +01   14.
 5.577  -05 1.130  +02   12.
 5.590  -05 1.278  +02   12.
 5.602  -05 1.427  +02   12.
 5.615  -05 1.460  +02   11.
 5.628  -05 1.513  +02   12.
 5.640  -05 1.518  +02   12.
 5.653  -05 1.470  +02   12.
 5.666  -05 1.279  +02   11.
 5.679  -05 1.123  +02   11.
 5.692  -05 1.065  +02   11.
 5.704  -05 1.091  +02   12.
 5.717  -05 1.201  +02   12.
 5.730  -05 1.301  +02   12.
 5.743  -05 1.347  +02   11.
 5.756  -05 1.318  +02   11.
 5.770  -05 1.198  +02   12.
 5.783  -05 1.022  +02   11.
 5.796  -05 9.210  +01   11.
 5.809  -05 8.828  +01   11.
 5.823  -05 8.854  +01   12.
 5.836  -05 9.273  +01   12.
 5.849  -05 9.132  +01   12.
 5.863  -05 7.553  +01   13.
 5.876  -05 5.671  +01   15.
 5.890  -05 3.702  +01   13.
 5.903  -05 2.953  +01   13.
 5.917  -05 2.469  +01   12.
 5.931  -05 2.093  +01   13.
 5.945  -05 1.777  +01   12.
 5.958  -05 1.668  +01   11.
 5.972  -05 1.679  +01   11.
 5.986  -05 1.812  +01   12.
 6.000  -05 2.090  +01   12.
 6.017  -05 2.270  +01   11.
 6.031  -05 2.454  +01   12.
 6.045  -05 2.763  +01   13.
 6.059  -05 3.336  +01   14.
 6.073  -05 4.210  +01   14.
 6.088  -05 5.385  +01   15.
 6.102  -05 6.897  +01   15.
 6.116  -05 8.617  +01   14.
 6.131  -05 9.831  +01   12.
 6.145  -05 9.839  +01   12.
 6.160  -05 8.268  +01   13.
 6.174  -05 5.530  +01   16.
 6.189  -05 3.580  +01   13.
 6.203  -05 3.017  +01   11.
 6.218  -05 3.202  +01   13.
 6.233  -05 4.698  +01   18.
 6.248  -05 7.515  +01   18.
 6.262  -05 9.422  +01   12.
 6.277  -05 8.518  +01   15.
 6.292  -05 4.116  +01   25.
 6.307  -05 2.644  +01   14.
 6.322  -05 2.443  +01   11.
 6.337  -05 2.558  +01   12.
 6.353  -05 3.288  +01   14.
 6.368  -05 4.185  +01   13.
 6.383  -05 5.302  +01   13.
 6.398  -05 6.801  +01   13.
 6.414  -05 8.333  +01   12.
 6.429  -05 9.378  +01   12.
 6.445  -05 1.006  +02   12.
 6.460  -05 9.407  +01   13.
 6.476  -05 6.311  +01   14.
 6.492  -05 5.204  +01   11.
 6.507  -05 5.317  +01   11.
 6.523  -05 5.161  +01   12.
 6.539  -05 4.224  +01   13.
 6.555  -05 3.416  +01   12.
 6.571  -05 2.903  +01   12.
 6.587  -05 2.536  +01   11.
 6.603  -05 2.409  +01   11.
 6.619  -05 2.456  +01   11.
 6.635  -05 2.758  +01   12.
 6.652  -05 3.014  +01   12.
 6.668  -05 3.192  +01   11.
 6.684  -05 3.113  +01   11.
 6.701  -05 2.985  +01   11.
 6.717  -05 2.936  +01   11.
 6.734  -05 3.001  +01   11.
 6.750  -05 3.139  +01   12.
 6.767  -05 3.259  +01   12.
 6.784  -05 3.364  +01   12.
 6.801  -05 3.752  +01   11.
 6.817  -05 3.678  +01   11.
 6.834  -05 3.423  +01   11.
 6.851  -05 3.494  +01   11.
 6.868  -05 4.141  +01   14.
 6.886  -05 4.860  +01   12.
 6.903  -05 6.017  +01   14.
 6.920  -05 7.183  +01   12.
 6.937  -05 7.110  +01   11.
 6.955  -05 7.043  +01   12.
 6.972  -05 7.374  +01   12.
 6.990  -05 8.134  +01   12.
 7.007  -05 8.594  +01   12.
 7.025  -05 8.320  +01   12.
 7.043  -05 6.445  +01   15.
 7.060  -05 4.368  +01   15.
 7.078  -05 3.040  +01   16.
 7.096  -05 2.356  +01   12.
 7.114  -05 2.188  +01   11.
 7.132  -05 2.349  +01   12.
 7.150  -05 2.810  +01   13.
 7.168  -05 3.248  +01   12.
 7.187  -05 3.399  +01   12.
 7.205  -05 3.278  +01   12.
 7.223  -05 3.163  +01   11.
 7.242  -05 3.204  +01   11.
 7.260  -05 3.529  +01   12.
 7.279  -05 4.072  +01   13.
 7.298  -05 6.029  +01   15.
 7.316  -05 8.643  +01   15.
 7.335  -05 1.389  +02   17.
 7.354  -05 1.581  +02   12.
 7.373  -05 1.620  +02   12.
 7.392  -05 1.724  +02   13.
 7.411  -05 1.657  +02   12.
 7.431  -05 1.250  +02   17.
 7.450  -05 8.971  +01   14.
 7.469  -05 7.858  +01   12.
 7.489  -05 8.794  +01   13.
 7.508  -05 1.086  +02   13.
 7.528  -05 1.316  +02   13.
 7.547  -05 1.486  +02   12.
 7.567  -05 1.209  +02   15.
 7.587  -05 6.398  +01   24.
 7.607  -05 3.739  +01   17.
 7.627  -05 2.943  +01   11.
 7.647  -05 2.959  +01   12.
 7.667  -05 2.976  +01   11.
 7.687  -05 3.011  +01   12.
 7.707  -05 3.045  +01   11.
 7.728  -05 3.297  +01   12.
 7.748  -05 3.913  +01   13.
 7.769  -05 4.927  +01   13.
 7.789  -05 6.263  +01   14.
 7.810  -05 7.866  +01   12.
 7.831  -05 7.950  +01   12.
 7.852  -05 6.911  +01   14.
 7.957  -05 7.637  +01   12.
 7.978  -05 8.070  +01   12.
 8.000  -05 6.945  +01   15.
 8.021  -05 4.278  +01   19.
 8.032  -05 3.696  +01   17.
 8.043  -05 3.125  +01   13.
 8.053  -05 2.750  +01   13.
 8.064  -05 2.593  +01   12.
 8.075  -05 2.460  +01   11.
 8.086  -05 2.497  +01   11.
 8.097  -05 2.533  +01   11.
 8.108  -05 2.638  +01   11.
 8.119  -05 2.836  +01   11.
 8.130  -05 3.151  +01   11.
 8.141  -05 3.537  +01   12.
 8.152  -05 3.831  +01   11.
 8.163  -05 4.131  +01   11.
 8.174  -05 4.491  +01   12.
 8.185  -05 4.820  +01   11.
 8.196  -05 5.106  +01   12.
 8.207  -05 5.453  +01   12.
 8.218  -05 5.996  +01   12.
 8.230  -05 6.435  +01   13.
 8.241  -05 7.064  +01   12.
 8.252  -05 7.084  +01   12.
 8.263  -05 8.025  +01   11.
 8.275  -05 8.833  +01   12.
 8.286  -05 9.148  +01   12.
 8.297  -05 8.752  +01   13.
 8.309  -05 6.944  +01   14.
 8.320  -05 4.295  +01   14.
 8.331  -05 2.453  +01   13.
 8.343  -05 1.346  +01   17.
 8.354  -05 1.110  +01   11.
 8.366  -05 1.016  +01   12.
 8.377  -05 9.952  +00   11.
 8.389  -05 1.062  +01   12.
 8.400  -05 1.147  +01   13.
 8.412  -05 1.203  +01   12.
 8.423  -05 1.361  +01   13.
 8.435  -05 1.593  +01   13.
 8.447  -05 1.840  +01   13.
 8.458  -05 2.117  +01   12.
 8.470  -05 2.393  +01   11.
 8.482  -05 2.623  +01   11.
 8.493  -05 2.845  +01   11.
 8.505  -05 3.094  +01   11.
 8.517  -05 3.110  +01   12.
 8.529  -05 3.164  +01   12.
 8.541  -05 2.930  +01   12.
 8.552  -05 2.625  +01   12.
 8.564  -05 2.203  +01   14.
 8.576  -05 1.840  +01   13.
 8.588  -05 1.556  +01   12.
 8.600  -05 1.354  +01   12.
 8.612  -05 1.169  +01   11.
 8.624  -05 1.060  +01   11.
 8.636  -05 1.007  +01   11.
 8.648  -05 1.028  +01   11.
 8.660  -05 1.065  +01   12.
 8.672  -05 1.185  +01   12.
 8.684  -05 1.335  +01   12.
 8.697  -05 1.555  +01   12.
 8.709  -05 1.764  +01   12.
 8.721  -05 1.815  +01   11.
 8.733  -05 1.645  +01   12.
 8.745  -05 1.460  +01   11.
 8.758  -05 1.363  +01   12.
 8.770  -05 1.429  +01   12.
 8.782  -05 1.574  +01   11.
 8.795  -05 1.791  +01   12.
 8.807  -05 2.108  +01   12.
 8.820  -05 2.423  +01   11.
 8.832  -05 2.910  +01   11.
 8.844  -05 3.597  +01   11.
 8.857  -05 4.289  +01   12.
 8.869  -05 5.693  +01   12.
 8.882  -05 6.843  +01   11.
 8.895  -05 7.083  +01   12.
 8.907  -05 6.862  +01   12.
 8.920  -05 6.206  +01   12.
 8.932  -05 5.602  +01   12.
 8.945  -05 5.256  +01   11.
 8.958  -05 5.510  +01   11.
 8.971  -05 6.342  +01   11.
 8.983  -05 7.380  +01   12.
 8.996  -05 8.432  +01   12.
 9.009  -05 9.630  +01   11.
 9.022  -05 1.148  +02   11.
 9.035  -05 1.445  +02   12.
 9.048  -05 1.806  +02   11.
 9.060  -05 2.018  +02   11.
 9.073  -05 1.894  +02   12.
 9.086  -05 1.394  +02   13.
 9.099  -05 8.804  +01   17.
 9.112  -05 5.940  +01   15.
 9.126  -05 4.208  +01   14.
 9.139  -05 3.307  +01   12.
 9.152  -05 2.917  +01   11.
 9.165  -05 2.820  +01   11.
 9.178  -05 2.844  +01   11.
 9.191  -05 2.901  +01   11.
 9.205  -05 2.936  +01   11.
 9.218  -05 3.023  +01   11.
 9.231  -05 3.240  +01   11.
 9.244  -05 3.326  +01   13.
 9.258  -05 3.719  +01   12.
 9.271  -05 4.011  +01   12.
 9.285  -05 4.198  +01   12.
 9.298  -05 4.133  +01   12.
 9.311  -05 3.833  +01   12.
 9.325  -05 3.715  +01   11.
 9.338  -05 3.660  +01   11.
 9.352  -05 3.896  +01   12.
 9.366  -05 4.243  +01   12.
 9.379  -05 4.788  +01   12.
 9.393  -05 5.146  +01   13.
 9.407  -05 5.211  +01   17.
 9.420  -05 3.795  +01   23.
 9.434  -05 2.441  +01   18.
 9.448  -05 2.161  +01   14.
 9.462  -05 2.170  +01   11.
 9.475  -05 2.471  +01   13.
 9.489  -05 2.927  +01   13.
 9.503  -05 4.090  +01   12.
 9.517  -05 4.458  +01   17.
 9.531  -05 5.441  +01   12.
 9.545  -05 5.624  +01   15.
 9.559  -05 5.136  +01   19.
 9.573  -05 4.172  +01   13.
 9.587  -05 3.884  +01   11.
 9.601  -05 3.930  +01   12.
 9.615  -05 4.232  +01   12.
 9.629  -05 4.629  +01   12.
 9.644  -05 4.912  +01   12.
 9.658  -05 5.068  +01   12.
 9.672  -05 5.367  +01   12.
 9.686  -05 5.578  +01   11.
 9.701  -05 5.980  +01   11.
 9.715  -05 6.602  +01   12.
 9.729  -05 7.220  +01   11.
 9.744  -05 8.148  +01   12.
 9.758  -05 9.615  +01   12.
 9.773  -05 1.189  +02   13.
 9.787  -05 1.318  +02   12.
 9.802  -05 1.438  +02   12.
 9.816  -05 1.431  +02   16.
 9.831  -05 1.038  +02   17.
 9.846  -05 8.628  +01   12.
 9.860  -05 8.254  +01   11.
 9.875  -05 8.218  +01   11.
 9.890  -05 7.745  +01   12.
 9.905  -05 6.860  +01   12.
 9.919  -05 6.393  +01   12.
 9.934  -05 6.128  +01   11.
 9.949  -05 6.395  +01   11.
 9.964  -05 6.395  +01   11.
 9.979  -05 6.524  +01   12.
 9.994  -05 6.527  +01   11.
 1.001  -04 6.744  +01   13.
 1.002  -04 6.409  +01   15.
 1.004  -04 5.239  +01   17.
 1.005  -04 4.231  +01   19.
 1.007  -04 3.027  +01   20.
 1.008  -04 1.882  +01   12.
 1.010  -04 1.693  +01   13.
 1.011  -04 1.525  +01   12.
 1.013  -04 1.427  +01   12.
 1.015  -04 1.423  +01   12.
 1.016  -04 1.390  +01   12.
 1.018  -04 1.429  +01   13.
 1.019  -04 1.541  +01   11.
 1.021  -04 1.555  +01   12.
 1.022  -04 1.690  +01   12.
 1.024  -04 1.877  +01   11.
 1.025  -04 2.214  +01   12.
 1.027  -04 2.562  +01   13.
 1.028  -04 3.156  +01   15.
 1.030  -04 3.886  +01   13.
 1.032  -04 4.121  +01   16.
 1.033  -04 3.548  +01   18.
 1.035  -04 2.418  +01   21.
 1.036  -04 1.786  +01   18.
 1.038  -04 1.574  +01   12.
 1.040  -04 1.630  +01   12.
 1.041  -04 1.754  +01   14.
 1.043  -04 2.115  +01   15.
 1.044  -04 2.768  +01   13.
 1.046  -04 3.462  +01   14.
 1.048  -04 4.312  +01   12.
 1.049  -04 5.110  +01   12.
 1.051  -04 5.418  +01   11.
 1.052  -04 5.518  +01   11.
 1.054  -04 5.666  +01   11.
 1.056  -04 5.869  +01   12.
 1.057  -04 6.350  +01   12.
 1.059  -04 7.651  +01   14.
 1.061  -04 9.636  +01   14.
 1.062  -04 1.139  +02   12.
 1.064  -04 1.183  +02   12.
 1.065  -04 1.187  +02   12.
 1.067  -04 1.218  +02   13.
 1.069  -04 1.139  +02   13.
 1.070  -04 1.061  +02   14.
 1.072  -04 9.592  +01   14.
 1.074  -04 7.867  +01   13.
 1.075  -04 7.023  +01   13.
 1.077  -04 6.308  +01   12.
 1.079  -04 6.410  +01   11.
 1.080  -04 6.725  +01   11.
 1.082  -04 6.904  +01   12.
 1.084  -04 6.601  +01   12.
 1.086  -04 6.367  +01   11.
 1.087  -04 6.431  +01   11.
 1.089  -04 6.603  +01   11.
 1.091  -04 6.936  +01   11.
 1.092  -04 7.984  +01   12.
 1.094  -04 9.390  +01   12.
 1.096  -04 1.056  +02   13.
 1.098  -04 1.024  +02   14.
 1.099  -04 8.941  +01   14.
 1.101  -04 7.956  +01   12.
 1.103  -04 7.491  +01   12.
 1.104  -04 7.552  +01   12.
 1.106  -04 7.609  +01   12.
 1.108  -04 8.640  +01   12.
 1.110  -04 1.045  +02   13.
 1.111  -04 1.140  +02   14.
 1.113  -04 1.010  +02   15.
 1.115  -04 7.366  +01   16.
 1.117  -04 5.794  +01   14.
 1.119  -04 4.756  +01   12.
 1.120  -04 4.499  +01   12.
 1.122  -04 4.537  +01   12.
 1.124  -04 5.032  +01   12.
 1.126  -04 5.579  +01   12.
 1.127  -04 6.292  +01   12.
 1.129  -04 6.787  +01   12.
 1.131  -04 6.988  +01   11.
 1.133  -04 7.543  +01   12.
 1.135  -04 7.857  +01   12.
 1.137  -04 8.268  +01   12.
 1.138  -04 8.569  +01   13.
 1.140  -04 8.441  +01   13.
 1.142  -04 7.881  +01   12.
 1.144  -04 8.257  +01   12.
 1.146  -04 8.731  +01   12.
 1.147  -04 8.440  +01   13.
 1.149  -04 7.038  +01   16.
 1.151  -04 5.328  +01   16.
 1.153  -04 3.434  +01   13.
 1.155  -04 2.782  +01   13.
 1.157  -04 2.373  +01   12.
 1.159  -04 2.550  +01   12.
 1.161  -04 2.747  +01   11.
 1.162  -04 2.754  +01   12.
 1.164  -04 2.888  +01   11.
 1.166  -04 3.126  +01   11.
 1.168  -04 3.715  +01   12.
 1.170  -04 4.227  +01   12.
 1.172  -04 5.176  +01   12.
 1.174  -04 5.936  +01   12.
 1.176  -04 6.947  +01   12.
 1.178  -04 8.222  +01   12.
 1.180  -04 1.056  +02   12.
 1.181  -04 1.240  +02   14.
 1.183  -04 1.236  +02   16.
 1.185  -04 9.266  +01   19.
 1.187  -04 5.819  +01   15.
 1.189  -04 4.465  +01   13.
 1.191  -04 3.952  +01   12.
 1.193  -04 3.892  +01   12.
 1.195  -04 4.266  +01   12.
 1.197  -04 4.971  +01   12.
 1.199  -04 4.813  +01   13.
 1.201  -04 4.304  +01   13.
 1.203  -04 3.918  +01   12.
 1.205  -04 3.809  +01   12.
 1.207  -04 3.520  +01   12.
 1.209  -04 3.530  +01   12.
 1.211  -04 3.584  +01   13.
 1.213  -04 3.815  +01   13.
 1.215  -04 4.164  +01   12.
 1.217  -04 4.246  +01   14.
 1.219  -04 3.795  +01   12.
 1.221  -04 3.953  +01   12.
 1.223  -04 4.151  +01   12.
 1.225  -04 4.433  +01   12.
 1.227  -04 4.215  +01   11.
 1.229  -04 4.388  +01   11.
 1.231  -04 4.615  +01   12.
 1.233  -04 4.868  +01   11.
 1.235  -04 5.022  +01   11.
 1.237  -04 5.567  +01   12.
 1.239  -04 6.313  +01   12.
 1.241  -04 7.318  +01   12.
 1.243  -04 8.702  +01   14.
 1.245  -04 8.818  +01   15.
 1.248  -04 6.996  +01   18.
 1.250  -04 4.826  +01   18.
 1.252  -04 3.817  +01   15.
 1.254  -04 3.111  +01   14.
 1.256  -04 3.071  +01   14.
 1.258  -04 2.945  +01   12.
 1.260  -04 2.950  +01   12.
 1.262  -04 3.156  +01   12.
 1.264  -04 3.150  +01   13.
 1.267  -04 2.749  +01   15.
 1.269  -04 2.215  +01   13.
 1.271  -04 1.856  +01   12.
 1.273  -04 1.901  +01   12.
 1.275  -04 2.105  +01   12.
 1.277  -04 2.181  +01   12.
 1.280  -04 2.391  +01   13.
 1.282  -04 2.455  +01   12.
 1.284  -04 2.530  +01   13.
 1.286  -04 2.365  +01   12.
 1.288  -04 2.205  +01   14.
 1.290  -04 1.951  +01   13.
 1.293  -04 1.698  +01   14.
 1.295  -04 1.426  +01   13.
 1.297  -04 1.411  +01   16.
 1.299  -04 1.462  +01   13.
 1.302  -04 1.462  +01   12.
 1.304  -04 1.668  +01   13.
 1.306  -04 1.855  +01   13.
 1.308  -04 2.010  +01   12.
 1.310  -04 2.079  +01   14.
 1.313  -04 2.140  +01   13.
 1.315  -04 2.469  +01   12.
 1.317  -04 2.731  +01   12.
 1.320  -04 3.032  +01   11.
 1.322  -04 3.605  +01   13.
 1.324  -04 4.288  +01   12.
 1.326  -04 5.037  +01   13.
 1.329  -04 5.461  +01   12.
 1.331  -04 6.195  +01   13.
 1.333  -04 7.270  +01   13.
 1.336  -04 8.151  +01   14.
 1.338  -04 7.734  +01   13.
 1.340  -04 6.876  +01   13.
 1.343  -04 6.258  +01   13.
 1.345  -04 5.825  +01   15.
 1.347  -04 4.945  +01   13.
 1.350  -04 4.665  +01   11.
 1.352  -04 4.861  +01   12.
 1.354  -04 5.576  +01   13.
 1.357  -04 6.111  +01   14.
 1.359  -04 5.494  +01   18.
 1.361  -04 3.808  +01   16.
 1.364  -04 3.096  +01   18.
 1.366  -04 2.408  +01   19.
 1.369  -04 1.951  +01   18.
 1.371  -04 1.562  +01   16.
 1.373  -04 1.340  +01   16.
 1.376  -04 1.169  +01   14.
 1.378  -04 1.042  +01   13.
 1.381  -04 1.026  +01   12.
 1.383  -04 1.083  +01   13.
 1.386  -04 1.141  +01   12.
 1.388  -04 1.269  +01   12.
 1.391  -04 1.544  +01   13.
 1.393  -04 1.865  +01   12.
 1.395  -04 2.075  +01   13.
 1.398  -04 2.223  +01   13.
 1.400  -04 2.415  +01   12.
 1.403  -04 2.565  +01   13.
 1.405  -04 2.884  +01   12.
 1.408  -04 3.332  +01   12.
 1.410  -04 3.410  +01   11.
 1.413  -04 3.620  +01   12.
 1.416  -04 3.908  +01   12.
 1.418  -04 4.275  +01   13.
 1.421  -04 4.621  +01   12.
 1.423  -04 4.627  +01   14.
 1.426  -04 4.060  +01   13.
 1.428  -04 4.065  +01   12.
 1.431  -04 4.447  +01   13.
 1.433  -04 4.094  +01   18.
 1.436  -04 3.158  +01   18.
 1.439  -04 2.750  +01   12.
 1.441  -04 2.757  +01   12.
 1.444  -04 2.805  +01   12.
 1.446  -04 2.866  +01   12.
 1.449  -04 3.078  +01   13.
 1.452  -04 3.426  +01   13.
 1.454  -04 4.013  +01   14.
 1.457  -04 5.249  +01   15.
 1.459  -04 5.305  +01   18.
 1.462  -04 3.627  +01   17.
 1.465  -04 3.081  +01   16.
 1.467  -04 2.611  +01   15.
 1.470  -04 2.278  +01   12.
 1.473  -04 2.407  +01   12.
 1.476  -04 2.614  +01   12.
 1.478  -04 2.748  +01   12.
 1.481  -04 2.971  +01   12.
 1.484  -04 3.284  +01   12.
 1.486  -04 3.780  +01   12.
 1.489  -04 4.087  +01   12.
 1.492  -04 4.458  +01   12.
 1.495  -04 5.103  +01   13.
 1.497  -04 5.180  +01   15.
 1.500  -04 4.020  +01   13.
 1.503  -04 3.784  +01   12.
 1.506  -04 3.682  +01   12.
 1.508  -04 3.632  +01   12.
 1.511  -04 3.860  +01   11.
 1.514  -04 4.005  +01   12.
 1.517  -04 4.289  +01   14.
 1.520  -04 4.780  +01   12.
 1.522  -04 4.540  +01   15.
 1.525  -04 3.955  +01   14.
 1.528  -04 3.566  +01   15.
 1.531  -04 2.907  +01   18.
 1.534  -04 2.482  +01   14.
 1.537  -04 2.187  +01   12.
 1.539  -04 2.298  +01   12.
 1.542  -04 2.344  +01   16.
 1.545  -04 2.192  +01   17.
 1.548  -04 1.895  +01   14.
 1.551  -04 1.918  +01   14.
 1.554  -04 1.983  +01   14.
 1.557  -04 2.143  +01   12.
 1.560  -04 2.447  +01   15.
 1.563  -04 2.474  +01   15.
 1.566  -04 2.280  +01   14.
 1.569  -04 2.454  +01   13.
 1.571  -04 2.766  +01   14.
 1.574  -04 2.326  +01   16.
 1.577  -04 1.765  +01   16.
 1.580  -04 1.531  +01   14.
 1.583  -04 1.391  +01   14.
 1.586  -04 1.319  +01   14.
 1.589  -04 1.286  +01   14.
 1.592  -04 1.331  +01   13.
 1.595  -04 1.579  +01   12.
 1.598  -04 1.740  +01   11.
 1.601  -04 1.877  +01   12.
 1.605  -04 2.115  +01   14.
 1.608  -04 2.482  +01   14.
 1.608  -04 2.490  +01   14.
 1.611  -04 2.885  +01   12.
 1.614  -04 3.465  +01   13.
 1.617  -04 3.803  +01   12.
 1.620  -04 4.434  +01   12.
 1.623  -04 5.195  +01   13.
 1.626  -04 5.150  +01   12.
 1.630  -04 5.331  +01   13.
 1.633  -04 5.081  +01   14.
 1.636  -04 4.558  +01   12.
 1.639  -04 4.719  +01   12.
 1.642  -04 4.562  +01   14.
 1.645  -04 4.647  +01   13.
 1.648  -04 4.892  +01   12.
 1.652  -04 5.541  +01   12.
 1.655  -04 6.350  +01   14.
 1.658  -04 6.528  +01   15.
 1.661  -04 5.702  +01   14.
 1.665  -04 5.104  +01   14.
 1.668  -04 4.479  +01   16.
 1.671  -04 3.838  +01   12.
 1.674  -04 4.128  +01   13.
 1.677  -04 4.394  +01   12.
 1.681  -04 4.709  +01   13.
 1.684  -04 4.432  +01   12.
 1.687  -04 4.456  +01   12.
 1.691  -04 4.924  +01   15.
 1.694  -04 4.193  +01   18.
 1.697  -04 3.714  +01   12.
 1.701  -04 3.627  +01   14.
 1.704  -04 3.153  +01   14.
 1.707  -04 2.738  +01   13.
 1.711  -04 2.626  +01   13.
 1.714  -04 2.795  +01   15.
 1.717  -04 2.792  +01   13.
 1.721  -04 2.586  +01   13.
 1.724  -04 2.455  +01   13.
 1.728  -04 2.381  +01   14.
 1.731  -04 2.311  +01   13.
 1.734  -04 2.569  +01   14.
 1.738  -04 2.710  +01   13.
 1.741  -04 2.982  +01   13.
 1.745  -04 3.273  +01   15.
 1.748  -04 3.506  +01   15.
 1.752  -04 3.626  +01   13.
 1.755  -04 3.662  +01   15.
 1.759  -04 3.424  +01   14.
 1.762  -04 2.943  +01   14.
 1.766  -04 2.586  +01   15.
 1.769  -04 2.169  +01   17.
 1.773  -04 2.053  +01   18.
 1.776  -04 1.725  +01   16.
 1.780  -04 1.677  +01   14.
 1.783  -04 1.782  +01   15.
 1.787  -04 1.693  +01   17.
 1.791  -04 1.622  +01   16.
 1.794  -04 1.389  +01   17.
 1.798  -04 1.416  +01   21.
 1.801  -04 1.331  +01   22.
 1.805  -04 1.065  +01   13.
 1.809  -04 1.206  +01   16.
 1.812  -04 1.227  +01   18.
 1.816  -04 1.388  +01   21.
 1.820  -04 1.401  +01   13.
 1.823  -04 1.420  +01   15.
 1.827  -04 1.630  +01   13.
 1.831  -04 1.962  +01   13.
 1.835  -04 2.131  +01   13.
 1.838  -04 1.988  +01   12.
 1.842  -04 2.279  +01   13.
 1.846  -04 2.442  +01   12.
 1.850  -04 2.464  +01   12.
 1.853  -04 2.567  +01   14.
 1.857  -04 2.659  +01   13.
 1.861  -04 2.926  +01   14.
 1.865  -04 3.354  +01   12.
 1.869  -04 3.316  +01   12.
 1.873  -04 3.728  +01   12.
 1.876  -04 3.991  +01   12.
 1.880  -04 4.422  +01   13.
 1.884  -04 4.764  +01   12.
 1.888  -04 5.025  +01   12.
 1.892  -04 5.316  +01   12.
 1.896  -04 5.393  +01   14.
 1.900  -04 5.815  +01   12.
 1.904  -04 5.900  +01   12.
 1.908  -04 5.906  +01   12.
 1.912  -04 5.913  +01   12.
 1.916  -04 5.607  +01   13.
 1.920  -04 5.005  +01   14.
 1.924  -04 4.504  +01   12.
 1.928  -04 4.559  +01   15.
 1.932  -04 3.879  +01   13.
 1.936  -04 3.430  +01   12.
 1.940  -04 3.214  +01   12.
 1.944  -04 3.285  +01   13.
 1.948  -04 3.152  +01   14.
 1.952  -04 3.081  +01   13.
 1.956  -04 3.304  +01   14.
 1.960  -04 3.478  +01   13.
 1.964  -04 3.950  +01   12.
 1.968  -04 4.333  +01   13.
 1.973  -04 4.398  +01   13.
 1.977  -04 4.645  +01   13.
 1.981  -04 4.817  +01   13.
 1.985  -04 4.469  +01   12.
 1.989  -04 4.499  +01   13.
 1.994  -04 4.461  +01   14.
 1.998  -04 3.717  +01   13.
 2.002  -04 3.352  +01   13.
 2.006  -04 3.812  +01   13.
 2.011  -04 3.719  +01   12.
 2.015  -04 3.380  +01   12.
 2.019  -04 3.707  +01   15.
 2.023  -04 3.871  +01   12.
 2.028  -04 3.523  +01   13.
 2.032  -04 3.601  +01   13.
 2.036  -04 4.158  +01   15.
 2.041  -04 3.704  +01   14.
 2.045  -04 3.581  +01   12.
 2.050  -04 3.865  +01   12.
 2.054  -04 4.184  +01   14.
 2.058  -04 4.857  +01   13.
 2.063  -04 5.056  +01   14.
 2.067  -04 5.214  +01   16.
 2.072  -04 5.758  +01   13.
 2.076  -04 5.617  +01   12.
 2.081  -04 6.033  +01   14.
 2.085  -04 5.860  +01   16.
 2.090  -04 5.254  +01   13.
 2.094  -04 5.049  +01   13.
 2.099  -04 4.900  +01   15.
 2.104  -04 4.476  +01   17.
 2.108  -04 3.898  +01   19.
 2.113  -04 3.044  +01   13.
 2.117  -04 3.025  +01   12.
 2.122  -04 3.247  +01   13.
 2.127  -04 3.433  +01   14.
 2.131  -04 3.304  +01   12.
 2.136  -04 3.399  +01   12.
 2.141  -04 3.462  +01   12.
 2.145  -04 3.673  +01   13.
 2.150  -04 4.064  +01   15.
 2.155  -04 4.275  +01   13.
 2.160  -04 4.456  +01   13.
 2.164  -04 4.832  +01   14.
 2.169  -04 5.437  +01   12.
 2.174  -04 5.547  +01   13.
 2.179  -04 6.034  +01   12.
 2.184  -04 6.373  +01   14.
 2.189  -04 7.132  +01   15.
 2.194  -04 6.288  +01   12.
 2.198  -04 6.732  +01   17.
 2.203  -04 5.464  +01   21.
 2.208  -04 4.190  +01   12.
 2.213  -04 4.374  +01   16.
 2.218  -04 3.740  +01   14.
 2.223  -04 3.447  +01   14.
 2.228  -04 3.278  +01   12.
 2.233  -04 3.474  +01   13.
 2.238  -04 3.661  +01   13.
 2.243  -04 3.694  +01   16.
 2.248  -04 4.394  +01   21.
 2.253  -04 4.391  +01   26.
 2.258  -04 1.836  +01   17.
 2.263  -04 1.868  +01   24.
 2.269  -04 1.631  +01   16.
 2.274  -04 1.633  +01   15.
 2.279  -04 1.759  +01   12.
 2.284  -04 1.977  +01   14.
 2.289  -04 2.109  +01   17.
 2.295  -04 1.985  +01   12.
 2.300  -04 2.456  +01   13.
 2.305  -04 2.672  +01   15.
 2.310  -04 3.081  +01   12.
 2.316  -04 3.444  +01   16.
 2.321  -04 3.318  +01   14.
 2.326  -04 3.092  +01   15.
 2.332  -04 3.263  +01   13.
 2.337  -04 3.569  +01   16.
 2.342  -04 3.185  +01   13.
 2.348  -04 4.179  +01   19.
 2.353  -04 4.865  +01   22.
 2.359  -04 3.881  +01   21.
 2.364  -04 3.486  +01   14.
 2.369  -04 3.771  +01   15.
 2.375  -04 3.767  +01   13.
 2.380  -04 3.971  +01   13.
 2.386  -04 3.627  +01   15.
 2.392  -04 3.354  +01   20.
 2.397  -04 2.699  +01   15.
 2.403  -04 2.543  +01   17.
 2.408  -04 2.656  +01   16.
 2.414  -04 2.644  +01   14.
 2.418  -04 3.045  +01   16.
 2.423  -04 3.175  +01   17.
 2.429  -04 2.798  +01   14.
 2.435  -04 3.006  +01   13.
 2.441  -04 3.621  +01   17.
 2.446  -04 3.495  +01   19.
 2.452  -04 3.038  +01   14.
 2.458  -04 3.148  +01   12.
 2.464  -04 3.247  +01   17.
 2.470  -04 3.026  +01   13.
 2.475  -04 3.180  +01   12.
 2.481  -04 3.757  +01   13.
 2.487  -04 4.132  +01   13.
 2.493  -04 4.831  +01   14.
 2.499  -04 5.368  +01   17.
 2.505  -04 4.597  +01   15.
 2.511  -04 4.125  +01   13.
 2.517  -04 5.584  +01   18.
 2.523  -04 6.219  +01   22.
 2.529  -04 4.633  +01   18.
 2.535  -04 5.090  +01   19.
 2.541  -04 5.640  +01   25.
 2.547  -04 3.227  +01   23.
 2.553  -04 2.664  +01   17.
 2.559  -04 2.775  +01   20.
 2.566  -04 2.549  +01   20.
 2.572  -04 2.028  +01   21.
 2.578  -04 1.827  +01   20.
 2.584  -04 1.830  +01   26.
 2.590  -04 1.779  +01   19.
 2.597  -04 1.569  +01   16.
 2.603  -04 1.662  +01   17.
 2.609  -04 1.778  +01   17.
 2.616  -04 1.550  +01   15.
 2.622  -04 1.690  +01   14.
 2.629  -04 1.900  +01   16.
 2.635  -04 2.190  +01   16.
 2.641  -04 2.621  +01   19.
 2.648  -04 2.460  +01   18.
 2.654  -04 2.285  +01   17.
 2.661  -04 2.138  +01   12.
 2.667  -04 2.589  +01   19.
 2.674  -04 2.531  +01   17.
 2.681  -04 2.820  +01   21.
 2.687  -04 2.390  +01   24.
 2.694  -04 2.311  +01   17.
 2.700  -04 3.306  +01   22.
 2.707  -04 3.254  +01   24.
 2.714  -04 2.397  +01   20.
 2.721  -04 2.346  +01   16.
 2.727  -04 2.517  +01   19.
 2.734  -04 2.628  +01   14.
 2.741  -04 3.155  +01   20.
 2.748  -04 2.936  +01   16.
 2.755  -04 4.075  +01   19.
 2.762  -04 4.259  +01   17.
 2.768  -04 4.347  +01   14.
 2.775  -04 4.494  +01   13.
 2.782  -04 4.733  +01   15.
 2.789  -04 4.382  +01   20.
 2.796  -04 3.764  +01   15.
 2.803  -04 4.059  +01   17.
 2.810  -04 3.938  +01   21.
 2.818  -04 3.635  +01   18.
 2.820  -04 2.888  +01   17.
 2.827  -04 3.682  +01   23.
 2.834  -04 4.062  +01   22.
 2.841  -04 2.681  +01   17.
 2.849  -04 2.570  +01   14.
 2.856  -04 3.237  +01   15.
 2.863  -04 3.422  +01   14.
 2.870  -04 3.041  +01   15.
 2.878  -04 2.729  +01   15.
 2.885  -04 2.422  +01   14.
 2.892  -04 2.905  +01   19.
 2.900  -04 2.672  +01   16.
 2.907  -04 2.689  +01   19.
 2.915  -04 3.443  +01   18.
 2.922  -04 2.799  +01   13.
 2.930  -04 2.505  +01   14.
 2.937  -04 2.837  +01   15.
 2.945  -04 3.624  +01   16.
 2.953  -04 4.592  +01   14.
 2.960  -04 4.403  +01   13.
 2.968  -04 5.684  +01   17.
 2.976  -04 6.218  +01   15.
 2.983  -04 4.980  +01   13.
 2.991  -04 4.872  +01   14.
 2.999  -04 6.478  +01   14.
 3.007  -04 9.495  +01   16.
 3.015  -04 5.416  +01   31.
 3.022  -04 2.834  +01   17.
 3.030  -04 2.100  +01   15.
 3.038  -04 2.425  +01   28.
 3.046  -04 2.918  +01   20.
 3.054  -04 1.699  +01   24.
 3.062  -04 1.310  +01   18.
 3.070  -04 1.334  +01   16.
 3.079  -04 1.334  +01   17.
 3.087  -04 1.311  +01   17.
 3.095  -04 1.536  +01   16.
 3.103  -04 1.608  +01   15.
 3.111  -04 1.684  +01   14.
 3.120  -04 2.009  +01   20.
 3.128  -04 2.235  +01   17.
 3.136  -04 2.603  +01   17.
 3.145  -04 2.427  +01   19.
 3.153  -04 2.251  +01   17.
 3.161  -04 2.938  +01   22.
 3.170  -04 3.515  +01   20.
 3.178  -04 2.657  +01   14.
 3.187  -04 2.275  +01   13.
 3.196  -04 2.116  +01   14.
 3.204  -04 2.104  +01   14.
 3.213  -04 2.307  +01   20.
 3.218  -04 3.248  +01   15.
 3.221  -04 2.872  +01   15.
 3.223  -04 2.820  +01   14.
 3.227  -04 2.710  +01   13.
 3.231  -04 2.644  +01   21.
 3.236  -04 2.981  +01   17.
 3.240  -04 3.439  +01   17.
 3.244  -04 4.193  +01   13.
 3.249  -04 4.312  +01   13.
 3.253  -04 5.761  +01   13.
 3.258  -04 6.763  +01   17.
 3.262  -04 8.345  +01   13.
 3.266  -04 6.797  +01   13.
 3.271  -04 4.754  +01   13.
 3.275  -04 3.874  +01   16.
 3.280  -04 3.163  +01   16.
 3.284  -04 3.249  +01   17.
 3.289  -04 2.976  +01   18.
 3.293  -04 4.396  +01   14.
 3.298  -04 4.233  +01   12.
 3.302  -04 3.348  +01   13.
 3.307  -04 2.464  +01   14.
 3.316  -04 2.653  +01   16.
 3.320  -04 2.431  +01   14.
 3.325  -04 2.798  +01   18.
 3.329  -04 4.638  +01   14.
 3.334  -04 5.832  +01   13.
 3.338  -04 4.490  +01   21.
 3.343  -04 3.250  +01   13.
 3.347  -04 2.919  +01   14.
 3.352  -04 2.365  +01   24.
 3.357  -04 1.662  +01   22.
 3.361  -04 2.440  +01   15.
 3.366  -04 2.576  +01   17.
 3.371  -04 2.691  +01   15.
 3.375  -04 2.659  +01   16.
 3.380  -04 2.964  +01   17.
 3.384  -04 4.438  +01   17.
 3.389  -04 4.368  +01   13.
 3.394  -04 4.776  +01   17.
 3.398  -04 4.361  +01   15.
 3.403  -04 2.947  +01   17.
 3.408  -04 2.189  +01   14.
 3.413  -04 1.994  +01   19.
 3.417  -04 1.692  +01   20.
 3.422  -04 2.831  +01   17.
 3.427  -04 3.308  +01   17.
 3.432  -04 2.998  +01   15.
 3.436  -04 2.195  +01   15.
 3.441  -04 2.700  +01   17.
 3.446  -04 2.885  +01   17.
 3.451  -04 2.367  +01   15.
 3.455  -04 2.950  +01   17.
 3.460  -04 2.074  +01   15.
 3.465  -04 1.382  +01   18.
 3.470  -04 1.230  +01   23.
 3.475  -04 1.694  +01   20.
 3.480  -04 1.817  +01   15.
 3.485  -04 1.931  +01   14.
 3.489  -04 2.276  +01   14.
 3.494  -04 2.013  +01   15.
 3.504  -04 1.944  +01   17.
 3.509  -04 2.174  +01   14.
 3.514  -04 2.525  +01   14.
 3.519  -04 2.436  +01   15.
 3.524  -04 2.025  +01   14.
 3.529  -04 1.385  +01   16.
 3.534  -04 1.903  +01   20.
 3.539  -04 2.668  +01   14.
 3.544  -04 2.115  +01   14.
 3.549  -04 2.285  +01   14.
 3.554  -04 1.432  +01   25.
 3.559  -04 1.123  +01   16.
 3.564  -04 1.023  +01   20.
 3.569  -04 1.528  +01   16.
 3.574  -04 2.165  +01   22.
 3.579  -04 2.276  +01   15.
 3.584  -04 2.154  +01   17.
 3.589  -04 1.919  +01   14.
 3.594  -04 1.521  +01   18.
 3.599  -04 1.732  +01   15.
 3.604  -04 2.210  +01   16.
 3.610  -04 2.020  +01   15.
 3.615  -04 2.064  +01   15.
 3.620  -04 1.989  +01   18.
 3.625  -04 2.237  +01   15.
 3.630  -04 3.597  +01   16.
 3.635  -04 4.731  +01   13.
 3.641  -04 4.035  +01   14.
 3.646  -04 3.789  +01   17.
 3.651  -04 5.799  +01   15.
 3.656  -04 6.553  +01   15.
 3.661  -04 5.845  +01   16.
 3.667  -04 6.751  +01   13.
 3.672  -04 6.283  +01   13.
 3.677  -04 4.893  +01   22.
 3.682  -04 3.309  +01   19.
 3.688  -04 3.268  +01   13.
 3.693  -04 3.374  +01   15.
 3.698  -04 3.669  +01   15.
 3.709  -04 4.052  +01   17.
 3.714  -04 6.125  +01   13.
 3.720  -04 6.499  +01   13.
 3.725  -04 4.624  +01   17.
 3.731  -04 2.816  +01   14.
 3.736  -04 3.555  +01   18.
 3.741  -04 5.414  +01   14.
 3.747  -04 4.825  +01   18.
 3.752  -04 3.115  +01   18.
 3.758  -04 2.808  +01   15.
 3.763  -04 2.653  +01   16.
 3.769  -04 1.916  +01   16.
 3.774  -04 2.144  +01   16.
 3.780  -04 1.945  +01   16.
 3.785  -04 1.671  +01   15.
 3.791  -04 1.365  +01   16.
 3.796  -04 1.384  +01   15.
 3.802  -04 1.466  +01   16.
 3.807  -04 1.525  +01   16.
 3.813  -04 2.785  +01   23.
 3.818  -04 2.975  +01   15.
 3.824  -04 3.297  +01   19.
 3.830  -04 3.033  +01   13.
 3.835  -04 3.579  +01   16.
 3.841  -04 2.673  +01   18.
 3.846  -04 3.294  +01   17.
 3.852  -04 3.131  +01   16.
 3.858  -04 2.651  +01   16.
 3.881  -04 2.060  +01   15.
 3.886  -04 2.199  +01   14.
 3.892  -04 2.861  +01   15.
 3.898  -04 3.349  +01   14.
 3.904  -04 4.069  +01   13.
 3.909  -04 3.826  +01   13.
 3.915  -04 4.065  +01   13.
 3.921  -04 4.261  +01   15.
 3.933  -04 5.900  +01   13.
 3.938  -04 4.142  +01   19.
 3.944  -04 2.820  +01   14.
 3.950  -04 3.177  +01   19.
 3.956  -04 4.166  +01   13.
 3.962  -04 3.627  +01   13.
 3.968  -04 2.515  +01   23.
 3.974  -04 1.404  +01   19.
 3.980  -04 1.486  +01   24.
 3.986  -04 1.491  +01   25.
 3.992  -04 1.665  +01   14.
 3.998  -04 1.360  +01   18.
 4.004  -04 1.018  +01   18.
 4.010  -04 8.894  +00   21.
 4.016  -04 9.798  +00   21.
 4.022  -04 1.241  +01   18.
 4.028  -04 1.881  +01   16.
 4.034  -04 2.428  +01   15.
 4.040  -04 1.896  +01   15.
 4.046  -04 1.735  +01   15.
 4.052  -04 1.442  +01   19.
 4.058  -04 1.347  +01   17.
 4.064  -04 1.109  +01   31.
 4.070  -04 1.158  +01   19.
 4.077  -04 1.352  +01   16.
 4.083  -04 9.576  +00   24.
 4.089  -04 1.040  +01   19.
 4.095  -04 1.388  +01   18.
 4.101  -04 1.162  +01   17.
 4.107  -04 9.079  +00   20.
 4.114  -04 1.533  +01   17.
 4.120  -04 1.708  +01   15.
 4.126  -04 1.433  +01   19.
 4.133  -04 1.176  +01   24.
 4.139  -04 1.030  +01   18.
 4.145  -04 1.416  +01   18.
 4.151  -04 1.928  +01   18.
 4.158  -04 2.808  +01   15.
 4.164  -04 2.450  +01   17.
 4.177  -04 1.347  +01   17.
 4.183  -04 1.095  +01   16.
 4.190  -04 1.285  +01   18.
 4.196  -04 1.453  +01   14.
 4.203  -04 1.560  +01   15.
 4.209  -04 1.530  +01   19.
 4.222  -04 1.207  +01   19.
 4.229  -04 1.822  +01   14.
 4.235  -04 2.199  +01   14.
 4.242  -04 2.277  +01   15.
 4.248  -04 1.750  +01   15.
 4.255  -04 1.208  +01   19.
 4.261  -04 1.403  +01   23.
 4.268  -04 1.667  +01   16.
 4.274  -04 1.578  +01   14.
 4.281  -04 1.724  +01   17.
 4.288  -04 1.460  +01   15.
 4.294  -04 9.594  +00   22.
 4.301  -04 1.215  +01   20.
 4.308  -04 8.846  +00   35.
 4.314  -04 1.171  +01   18.
 4.321  -04 9.917  +00   20.
 4.328  -04 1.173  +01   18.
 4.335  -04 1.463  +01   23.
 4.341  -04 1.311  +01   17.
 4.348  -04 2.157  +01   14.
 4.369  -04 1.653  +01   17.
 4.375  -04 1.829  +01   15.
 4.382  -04 1.533  +01   19.
 4.389  -04 1.672  +01   15.
 4.396  -04 1.411  +01   17.
 4.403  -04 1.370  +01   16.
 4.410  -04 1.250  +01   21.
 4.417  -04 9.329  +00   24.
 4.424  -04 1.532  +01   19.
 4.431  -04 1.414  +01   19.
 4.438  -04 4.623  +00   44.
 4.445  -04 9.461  +00   23.
 4.452  -04 1.228  +01   17.
 4.459  -04 2.802  +01   26.
 4.466  -04 3.960  +01   17.
 4.473  -04 1.991  +01   22.
 4.480  -04 1.515  +01   16.
 4.487  -04 1.408  +01   16.
 4.494  -04 1.640  +01   16.
 4.501  -04 1.268  +01   20.
 4.509  -04 7.966  +00   22.
 4.516  -04 9.179  +00   21.
 4.523  -04 1.139  +01   17.
 4.530  -04 9.381  +00   21.
 4.537  -04 1.154  +01   17.
 4.545  -04 1.174  +01   20.
 4.552  -04 1.390  +01   15.
 4.559  -04 1.230  +01   15.
 4.566  -04 1.482  +01   15.
 4.581  -04 2.329  +01   20.
 4.588  -04 3.088  +01   15.
 4.596  -04 2.046  +01   15.
 4.603  -04 1.752  +01   17.
 4.611  -04 1.385  +01   16.
 4.618  -04 1.216  +01   25.
 4.625  -04 1.437  +01   16.
 4.633  -04 1.630  +01   15.
 4.640  -04 2.498  +01   18.
 4.648  -04 2.854  +01   15.
 4.671  -04 2.724  +01   14.
 4.678  -04 1.988  +01   14.
 4.686  -04 2.521  +01   16.
 4.693  -04 2.370  +01   13.
 4.701  -04 1.695  +01   26.
 4.709  -04 1.255  +01   16.
 4.716  -04 2.031  +01   15.
 4.739  -04 2.011  +01   22.
 4.747  -04 3.267  +01   14.
 4.755  -04 3.031  +01   15.
 4.763  -04 2.305  +01   15.
 4.770  -04 2.347  +01   19.
 4.778  -04 2.496  +01   17.
 4.786  -04 1.937  +01   16.
 4.794  -04 1.690  +01   19.
 4.802  -04 3.100  +01   27.
 4.810  -04 4.475  +01   13.
 4.817  -04 3.531  +01   18.
 4.825  -04 2.675  +01   16.
 4.833  -04 3.173  +01   23.
 4.841  -04 2.905  +01   15.
 4.849  -04 2.159  +01   16.
 4.857  -04 1.876  +01   17.
 4.865  -04 1.576  +01   18.
 4.873  -04 2.455  +01   22.
 4.881  -04 4.645  +01   22.
 4.890  -04 4.408  +01   20.
 4.898  -04 2.503  +01   27.
 4.906  -04 1.551  +01   17.
 4.914  -04 1.506  +01   18.
 4.922  -04 1.814  +01   18.
 4.930  -04 2.064  +01   21.
 4.938  -04 2.000  +01   23.
 4.947  -04 3.233  +01   16.
 4.955  -04 2.454  +01   23.
 4.963  -04 1.859  +01   16.
 4.971  -04 1.530  +01   15.
 4.980  -04 1.641  +01   15.
 4.988  -04 1.621  +01   22.
 4.996  -04 1.607  +01   15.
 5.013  -04 2.542  +01   17.
 5.022  -04 3.687  +01   14.
 5.030  -04 2.803  +01   27.
 5.039  -04 1.678  +01   14.
 5.047  -04 2.041  +01   19.
 5.064  -04 2.377  +01   15.
 5.073  -04 2.267  +01   14.
 5.081  -04 2.226  +01   19.
 5.090  -04 1.323  +01   17.
 5.098  -04 1.460  +01   17.
 5.107  -04 2.008  +01   15.
 5.116  -04 1.558  +01   16.
 5.124  -04 2.320  +01   22.
 5.133  -04 3.042  +01   18.
 5.142  -04 2.293  +01   20.
 5.150  -04 1.946  +01   15.
 5.159  -04 1.764  +01   16.
 5.168  -04 2.413  +01   22.
 5.177  -04 3.017  +01   17.
 5.186  -04 3.891  +01   13.
 5.194  -04 3.273  +01   17.
 5.203  -04 3.335  +01   16.
 5.212  -04 3.109  +01   15.
 5.221  -04 2.604  +01   21.
 5.230  -04 1.464  +01   15.
 5.239  -04 1.421  +01   17.
 5.248  -04 1.936  +01   16.
 5.257  -04 1.946  +01   26.
 5.312  -04 2.304  +01   18.
 5.321  -04 2.186  +01   19.
 5.330  -04 1.704  +01   20.
 5.339  -04 2.793  +01   16.
 5.349  -04 3.173  +01   14.
 5.358  -04 2.659  +01   13.
 5.367  -04 2.584  +01   21.
 5.376  -04 3.540  +01   14.
 5.386  -04 2.037  +01   27.
 5.395  -04 2.100  +01   16.
 5.405  -04 1.267  +01   21.
 5.423  -04 1.235  +01   16.
 5.433  -04 1.320  +01   16.
 5.442  -04 1.632  +01   16.
 5.452  -04 3.018  +01   23.
 5.461  -04 3.892  +01   15.
 5.471  -04 4.168  +01   14.
 5.481  -04 3.083  +01   15.
 5.490  -04 2.109  +01   24.
 5.500  -04 1.735  +01   20.
 5.510  -04 1.958  +01   14.
 5.519  -04 1.575  +01   16.
 5.529  -04 1.540  +01   17.
 5.539  -04 1.035  +01   22.
 5.548  -04 1.166  +01   22.
 5.558  -04 1.287  +01   17.
 5.568  -04 1.648  +01   17.
 5.578  -04 1.514  +01   20.
 5.588  -04 2.064  +01   23.
 5.598  -04 3.043  +01   17.
 5.608  -04 2.369  +01   17.
 5.618  -04 1.377  +01   18.
 5.628  -04 1.414  +01   15.
 5.638  -04 1.718  +01   33.
 5.648  -04 2.977  +01   15.
 5.658  -04 2.406  +01   14.
 5.668  -04 2.733  +01   20.
 5.678  -04 2.794  +01   21.
 5.688  -04 2.706  +01   15.
 5.698  -04 1.940  +01   14.
 5.708  -04 1.826  +01   14.
 5.719  -04 2.468  +01   17.
 5.729  -04 3.228  +01   19.
 5.739  -04 3.193  +01   17.
 5.749  -04 1.451  +01   17.
 5.760  -04 9.677  +00   21.
 5.770  -04 1.162  +01   17.
 5.781  -04 1.398  +01   19.
 5.791  -04 1.720  +01   22.
 5.822  -04 2.666  +01   13.
 5.833  -04 3.053  +01   14.
 5.844  -04 2.039  +01   14.
 5.854  -04 2.200  +01   18.
 5.865  -04 2.714  +01   14.
 5.875  -04 3.028  +01   16.
 5.886  -04 2.601  +01   22.
 5.908  -04 2.552  +01   15.
 5.918  -04 3.463  +01   15.
 5.929  -04 2.188  +01   17.
 5.940  -04 1.219  +01   18.
 5.951  -04 1.102  +01   21.
 5.962  -04 1.088  +01   17.
 5.973  -04 1.609  +01   15.
 5.983  -04 1.653  +01   15.
 5.994  -04 1.645  +01   16.
 6.003  -04 1.332  +01   15.
 6.014  -04 1.188  +01   21.
 6.025  -04 1.361  +01   15.
 6.036  -04 1.158  +01   18.
 6.047  -04 1.273  +01   16.
 6.058  -04 1.750  +01   18.
 6.069  -04 2.254  +01   15.
 6.103  -04 2.773  +01   19.
 6.114  -04 2.340  +01   15.
 6.126  -04 1.906  +01   15.
 6.137  -04 2.555  +01   14.
 6.148  -04 2.419  +01   18.
 6.160  -04 2.778  +01   16.
 6.171  -04 2.887  +01   13.
 6.183  -04 2.182  +01   17.
 6.194  -04 2.090  +01   18.
 6.206  -04 2.398  +01   16.
 6.217  -04 1.887  +01   15.
 6.229  -04 2.740  +01   24.
 6.241  -04 4.466  +01   15.
 6.264  -04 3.283  +01   19.
 6.276  -04 3.002  +01   20.
 6.288  -04 4.837  +01   17.
 6.300  -04 5.641  +01   17.
 6.311  -04 3.485  +01   15.
 6.323  -04 3.288  +01   16.
 6.335  -04 3.745  +01   14.
 6.347  -04 3.316  +01   14.
 6.359  -04 2.264  +01   15.
 6.371  -04 3.150  +01   18.
 6.383  -04 4.547  +01   14.
 6.395  -04 3.545  +01   16.
 6.407  -04 2.226  +01   15.
 6.420  -04 1.612  +01   16.
 6.432  -04 1.415  +01   19.
 6.444  -04 1.388  +01   21.
 6.456  -04 1.661  +01   18.
 6.469  -04 1.137  +01   18.
 6.481  -04 1.418  +01   16.
 6.493  -04 2.850  +01   21.
 6.506  -04 3.102  +01   19.
 6.518  -04 2.274  +01   15.
 6.531  -04 1.532  +01   16.
 6.543  -04 1.738  +01   22.
 6.556  -04 3.025  +01   14.
 6.568  -04 2.360  +01   20.
 6.581  -04 1.248  +01   20.
 6.594  -04 2.598  +01   28.
 6.606  -04 3.816  +01   14.
 6.619  -04 3.669  +01   14.
 6.632  -04 2.688  +01   25.
 6.645  -04 1.795  +01   15.
 6.657  -04 1.769  +01   20.
 6.670  -04 1.434  +01   15.
 6.683  -04 2.038  +01   14.
 6.696  -04 2.330  +01   16.
 6.709  -04 1.833  +01   14.
 6.722  -04 1.650  +01   14.
 6.735  -04 2.241  +01   17.
 6.762  -04 2.796  +01   17.
 6.775  -04 2.167  +01   17.
 6.788  -04 3.004  +01   19.
 6.801  -04 2.807  +01   17.
 6.815  -04 2.006  +01   16.
 6.828  -04 1.539  +01   17.
 6.841  -04 2.113  +01   15.
 6.855  -04 1.543  +01   16.
 6.868  -04 1.560  +01   16.
 6.882  -04 2.298  +01   18.
 6.895  -04 3.378  +01   15.
 6.909  -04 2.805  +01   17.
 6.922  -04 2.266  +01   15.
 6.936  -04 1.460  +01   16.
 6.950  -04 1.826  +01   18.
 6.963  -04 2.979  +01   16.
 6.977  -04 2.443  +01   21.
 6.991  -04 1.433  +01   18.
 7.005  -04 1.916  +01   23.
 7.019  -04 1.658  +01   15.
 7.033  -04 1.506  +01   15.
 7.047  -04 1.465  +01   24.
 7.061  -04 1.840  +01   16.
 7.075  -04 2.081  +01   16.
 7.089  -04 1.887  +01   16.
 7.103  -04 1.666  +01   17.
 7.117  -04 2.420  +01   16.
 7.132  -04 3.071  +01   15.
 7.175  -04 2.479  +01   16.
 7.189  -04 2.111  +01   15.
 7.203  -04 1.560  +01   16.
 7.218  -04 1.791  +01   14.
 7.232  -04 1.586  +01   14.
 7.247  -04 1.285  +01   23.
 7.262  -04 1.010  +01   17.
 7.276  -04 9.254  +00   31.
 7.291  -04 1.134  +01   25.
 7.321  -04 2.081  +01   20.
 7.336  -04 1.208  +01   17.
 7.350  -04 1.253  +01   18.
 7.365  -04 2.694  +01   19.
 7.380  -04 2.105  +01   26.
 7.395  -04 1.492  +01   28.
 7.410  -04 2.078  +01   18.
 7.426  -04 2.149  +01   19.
 7.441  -04 1.438  +01   20.
 7.456  -04 1.373  +01   19.
 7.471  -04 1.529  +01   16.
 7.487  -04 2.121  +01   15.
 7.502  -04 2.480  +01   15.
 7.517  -04 2.804  +01   14.
 7.533  -04 2.026  +01   15.
 7.548  -04 2.527  +01   15.
 7.564  -04 2.167  +01   16.
 7.579  -04 2.279  +01   15.
 7.595  -04 2.401  +01   14.
 7.611  -04 3.294  +01   17.
 7.627  -04 2.250  +01   16.
 7.642  -04 1.934  +01   16.
 7.658  -04 1.551  +01   16.
 7.674  -04 2.020  +01   48.
 7.690  -04 1.054  +01   21.
 7.738  -04 1.887  +01   22.
 7.754  -04 2.335  +01   15.
 7.771  -04 2.639  +01   15.
 7.787  -04 1.602  +01   18.
 7.803  -04 1.825  +01   16.
 7.819  -04 1.810  +01   17.
 7.836  -04 1.544  +01   16.
 7.852  -04 1.403  +01   16.
 7.869  -04 1.237  +01   15.
 7.885  -04 1.123  +01   20.
 7.902  -04 1.353  +01   21.
 7.919  -04 1.843  +01   22.
 7.952  -04 1.108  +01   22.
 7.969  -04 1.825  +01   26.
 7.986  -04 1.634  +01   17.
 8.003  -04 1.270  +01   16.
 8.020  -04 1.070  +01   20.
 8.037  -04 1.707  +01   16.
 8.054  -04 2.501  +01   15.
 8.071  -04 2.219  +01   15.
 8.088  -04 2.720  +01   14.
 8.105  -04 2.282  +01   28.
 8.193  -04 1.819  +01   18.
 8.210  -04 2.595  +01   16.
 8.228  -04 2.245  +01   17.
 8.246  -04 2.315  +01   14.
 8.263  -04 2.491  +01   14.
 8.281  -04 1.673  +01   21.
 8.299  -04 2.664  +01   22.
 8.317  -04 3.513  +01   13.
 8.335  -04 2.959  +01   17.
 8.353  -04 1.653  +01   17.
 8.444  -04 1.595  +01   18.
 8.463  -04 1.856  +01   19.
 8.481  -04 1.518  +01   16.
 8.500  -04 1.896  +01   25.
 8.518  -04 2.759  +01   16.
 8.537  -04 2.415  +01   16.
 8.555  -04 2.480  +01   18.
 8.574  -04 2.632  +01   16.
 8.593  -04 2.162  +01   15.
 8.612  -04 2.308  +01   16.
 8.650  -04 2.026  +01   21.
 8.669  -04 2.739  +01   20.
 8.688  -04 2.146  +01   19.
 8.707  -04 3.361  +01   15.
 8.727  -04 3.397  +01   24.
 8.746  -04 1.802  +01   16.
 8.765  -04 2.261  +01   19.
 8.785  -04 2.358  +01   16.
 8.804  -04 1.577  +01   23.
 8.824  -04 2.493  +01   16.
 8.844  -04 1.312  +01   16.
 8.863  -04 2.312  +01   14.
 8.883  -04 1.772  +01   15.
 8.903  -04 1.408  +01   18.
 8.923  -04 1.453  +01   19.
 8.943  -04 1.437  +01   16.
 8.963  -04 1.384  +01   17.
 8.983  -04 1.289  +01   17.
 9.003  -04 1.565  +01   17.
 9.024  -04 2.248  +01   15.
 9.044  -04 2.580  +01   22.
 9.064  -04 2.554  +01   17.
 9.085  -04 1.764  +01   26.
 9.105  -04 1.642  +01   15.
 9.126  -04 1.999  +01   16.
 9.147  -04 1.479  +01   18.
 9.168  -04 1.399  +01   15.
 9.188  -04 2.646  +01   18.
 9.209  -04 2.622  +01   15.
 9.230  -04 2.409  +01   17.
 9.251  -04 2.743  +01   13.
 9.272  -04 2.555  +01   17.
 9.315  -04 1.795  +01   18.
 9.336  -04 1.244  +01   18.
 9.358  -04 1.675  +01   21.
 9.379  -04 1.248  +01   22.
 9.401  -04 1.097  +01   18.
 9.422  -04 1.504  +01   19.
 9.466  -04 1.469  +01   22.
 9.488  -04 1.300  +01   20.
 9.509  -04 1.067  +01   17.
 9.531  -04 1.302  +01   33.
 9.554  -04 1.497  +01   23.
 9.576  -04 1.121  +01   19.
 9.598  -04 1.341  +01   15.
 9.620  -04 1.802  +01   14.
 9.643  -04 1.540  +01   18.
 9.665  -04 1.570  +01   25.
 9.688  -04 1.583  +01   18.
 9.710  -04 1.602  +01   15.
 9.733  -04 1.828  +01   15.
 9.756  -04 1.600  +01   22.
 9.779  -04 1.336  +01   16.
 9.802  -04 1.482  +01   22.
 9.825  -04 8.713  +00   18.
 9.848  -04 6.569  +00   21.
 9.871  -04 1.367  +01   24.
 9.894  -04 1.038  +01   24.
 9.918  -04 1.392  +01   27.
 9.941  -04 1.544  +01   16.
 9.965  -04 1.705  +01   17.
 9.988  -04 1.857  +01   23.
 1.000  -03 2.125  +01   15.
 1.003  -03 2.393  +01   13.
 1.005  -03 2.241  +01   26.
 1.007  -03 1.474  +01   26.
 1.010  -03 1.011  +01   14.
 1.012  -03 1.041  +01   17.
 1.015  -03 9.018  +00   17.
 1.017  -03 1.296  +01   18.
 1.019  -03 1.468  +01   25.
 1.022  -03 9.667  +00   14.
 1.024  -03 1.441  +01   24.
 1.027  -03 1.400  +01   13.
 1.029  -03 1.305  +01   20.
 1.032  -03 1.197  +01   19.
 1.034  -03 1.189  +01   20.
 1.037  -03 1.036  +01   19.
 1.042  -03 1.073  +01   14.
 1.044  -03 9.010  +00   14.
 1.047  -03 1.108  +01   31.
 1.049  -03 1.948  +01   15.
 1.052  -03 1.776  +01   15.
 1.054  -03 1.376  +01   14.
 1.057  -03 1.606  +01   16.
 1.060  -03 1.144  +01   18.
 1.062  -03 1.276  +01   15.
 1.065  -03 1.662  +01   25.
 1.067  -03 1.189  +01   13.
 1.070  -03 9.519  +00   17.
 1.073  -03 1.098  +01   16.
 1.075  -03 1.260  +01   15.
 1.078  -03 1.711  +01   16.
 1.081  -03 1.815  +01   15.
 1.083  -03 1.895  +01   24.
 1.086  -03 1.165  +01   18.
 1.089  -03 1.501  +01   21.
 1.091  -03 1.193  +01   19.
 1.094  -03 1.076  +01   15.
 1.097  -03 1.774  +01   13.
 1.099  -03 1.870  +01   28.
 1.102  -03 1.503  +01   16.
 1.105  -03 2.076  +01   19.
 1.108  -03 1.406  +01   14.
 1.110  -03 1.139  +01   14.
 1.113  -03 1.498  +01   21.
 1.116  -03 2.184  +01   26.
 1.119  -03 1.723  +01   20.
 1.122  -03 1.337  +01   13.
 1.124  -03 1.486  +01   17.
 1.127  -03 1.918  +01   23.
 1.130  -03 1.721  +01   22.
 1.133  -03 2.129  +01   19.
 1.136  -03 1.238  +01   15.
 1.139  -03 1.524  +01   16.
 1.142  -03 1.765  +01   15.
 1.147  -03 1.652  +01   13.
 1.150  -03 1.995  +01   20.
 1.153  -03 1.455  +01   19.
 1.156  -03 1.561  +01   15.
 1.159  -03 1.500  +01   15.
 1.162  -03 1.670  +01   20.
 1.165  -03 1.306  +01   14.
 1.168  -03 1.694  +01   20.
 1.171  -03 2.173  +01   22.
 1.174  -03 2.308  +01   20.
 1.177  -03 1.547  +01   25.
 1.180  -03 9.769  +00   14.
 1.183  -03 1.669  +01   15.
 1.186  -03 1.988  +01   16.
 1.189  -03 1.438  +01   16.
 1.192  -03 1.504  +01   14.
 1.195  -03 1.715  +01   13.
 1.199  -03 2.302  +01   16.
 1.202  -03 1.757  +01   29.
 1.205  -03 1.689  +01   32.
 1.208  -03 7.660  +00   16.
 1.211  -03 9.176  +00   23.
 1.214  -03 1.199  +01   17.
 1.217  -03 1.660  +01   20.
 1.221  -03 1.065  +01   16.
 1.224  -03 1.339  +01   14.
 1.227  -03 1.227  +01   19.
 1.230  -03 1.169  +01   16.
 1.234  -03 1.312  +01   18.
 1.237  -03 1.635  +01   18.
 1.240  -03 1.739  +01   21.
 1.243  -03 1.659  +01   23.
 1.247  -03 2.017  +01   28.
 1.250  -03 1.416  +01   16.
 1.253  -03 8.953  +00   15.
 1.257  -03 1.137  +01   19.
 1.260  -03 1.381  +01   17.
 1.263  -03 1.227  +01   30.
 1.267  -03 1.353  +01   19.
 1.270  -03 9.245  +00   26.
 1.273  -03 8.488  +00   20.
 1.277  -03 9.791  +00   16.
 1.280  -03 1.243  +01   14.
 1.284  -03 1.345  +01   22.
 1.287  -03 9.804  +00   15.
 1.291  -03 1.189  +01   15.
 1.294  -03 1.404  +01   18.
 1.298  -03 1.908  +01   20.
 1.301  -03 1.292  +01   22.
 1.305  -03 1.424  +01   18.
 1.308  -03 2.283  +01   24.
 1.312  -03 2.280  +01   18.
 1.315  -03 1.545  +01   21.
 1.319  -03 1.277  +01   15.
 1.322  -03 1.470  +01   14.
 1.326  -03 1.409  +01   14.
 1.330  -03 1.547  +01   14.
 1.333  -03 1.903  +01   19.
 1.337  -03 2.329  +01   19.
 1.341  -03 1.642  +01   33.
 1.344  -03 1.046  +01   15.
 1.348  -03 1.463  +01   18.
 1.352  -03 2.023  +01   21.
 1.356  -03 2.544  +01   18.
 1.359  -03 2.381  +01   13.
 1.363  -03 2.313  +01   16.
 1.367  -03 1.607  +01   21.
 1.371  -03 1.547  +01   19.
 1.374  -03 1.484  +01   32.
 1.378  -03 6.433  +00   21.
 1.382  -03 9.700  +00   20.
 1.386  -03 1.146  +01   19.
 1.390  -03 1.306  +01   22.
 1.394  -03 1.214  +01   17.
 1.398  -03 1.059  +01   18.
 1.402  -03 1.005  +01   20.
 1.405  -03 1.158  +01   25.
 1.409  -03 8.426  +00   17.
 1.413  -03 8.886  +00   18.
 1.421  -03 1.264  +01   16.
 1.425  -03 1.387  +01   14.
 1.429  -03 1.285  +01   14.
 1.434  -03 1.157  +01   14.
 1.438  -03 1.205  +01   17.
 1.442  -03 1.851  +01   14.
 1.446  -03 1.270  +01   14.
 1.450  -03 1.491  +01   14.
 1.454  -03 1.407  +01   24.
 1.458  -03 1.042  +01   15.
 1.462  -03 9.488  +00   15.
 1.467  -03 9.384  +00   17.
 1.471  -03 1.285  +01   14.
 1.475  -03 1.250  +01   15.
 1.479  -03 1.825  +01   13.
 1.484  -03 1.981  +01   13.
 1.488  -03 1.992  +01   15.
 1.492  -03 9.355  +00   28.
 1.497  -03 8.725  +00   17.
 1.501  -03 8.074  +00   16.
 1.505  -03 9.198  +00   17.
 1.510  -03 1.287  +01   22.
 1.514  -03 6.697  +00   21.
 1.518  -03 9.636  +00   22.
 1.523  -03 1.549  +01   14.
 1.527  -03 1.382  +01   15.
 1.532  -03 1.390  +01   14.
 1.536  -03 1.165  +01   15.
 1.541  -03 1.399  +01   15.
 1.545  -03 1.441  +01   18.
 1.550  -03 1.060  +01   18.
 1.555  -03 7.617  +00   18.
 1.559  -03 1.143  +01   16.
 1.564  -03 1.041  +01   21.
 1.568  -03 9.656  +00   16.
 1.573  -03 9.322  +00   15.
 1.578  -03 1.491  +01   14.
 1.582  -03 1.227  +01   17.
 1.587  -03 1.264  +01   17.
 1.597  -03 9.549  +00   18.
 1.602  -03 9.330  +00   17.
 1.606  -03 1.376  +01   14.
 1.611  -03 9.497  +00   15.
 1.616  -03 9.041  +00   17.
 1.621  -03 1.079  +01   16.
 1.626  -03 9.766  +00   17.
 1.631  -03 8.842  +00   15.
 1.636  -03 9.146  +00   18.
 1.641  -03 9.211  +00   16.
 1.646  -03 6.716  +00   19.
 1.651  -03 8.143  +00   17.
 1.656  -03 1.432  +01   28.
 1.661  -03 1.264  +01   17.
 1.666  -03 8.781  +00   17.
 1.671  -03 1.443  +01   23.
 1.676  -03 1.200  +01   14.
 1.681  -03 1.090  +01   17.
 1.686  -03 9.114  +00   20.
 1.692  -03 9.061  +00   15.
 1.697  -03 1.010  +01   15.
 1.702  -03 9.565  +00   15.
 1.707  -03 7.570  +00   17.
 1.713  -03 1.077  +01   15.
 1.718  -03 1.022  +01   14.
 1.723  -03 9.960  +00   18.
 1.729  -03 1.967  +01   17.
 1.734  -03 1.278  +01   14.
 1.740  -03 1.174  +01   14.
 1.745  -03 9.737  +00   15.
 1.750  -03 8.738  +00   15.
 1.756  -03 8.550  +00   16.
 1.762  -03 9.936  +00   17.
 1.767  -03 9.617  +00   14.
 1.773  -03 9.280  +00   15.
 1.778  -03 9.498  +00   14.
 1.784  -03 6.930  +00   22.
 1.790  -03 8.396  +00   15.
 1.795  -03 9.191  +00   17.
 1.807  -03 1.011  +01   14.
 1.812  -03 9.211  +00   14.
 1.818  -03 1.107  +01   27.
 1.824  -03 1.207  +01   15.
 1.830  -03 8.419  +00   15.
 1.836  -03 1.197  +01   14.
 1.842  -03 1.255  +01   16.
 1.848  -03 1.193  +01   21.
 1.854  -03 1.323  +01   16.
 1.860  -03 1.279  +01   13.
 1.866  -03 9.448  +00   16.
 1.872  -03 1.014  +01   16.
 1.878  -03 1.314  +01   15.
 1.890  -03 8.586  +00   19.
 1.896  -03 1.028  +01   24.
 1.902  -03 1.156  +01   16.
 1.909  -03 7.906  +00   18.
 1.915  -03 9.003  +00   15.
 1.921  -03 1.327  +01   15.
 1.928  -03 9.508  +00   15.
 1.934  -03 1.563  +01   20.
 1.940  -03 1.390  +01   17.
 1.947  -03 8.237  +00   20.
 1.953  -03 1.055  +01   21.
 1.960  -03 7.088  +00   19.
 1.966  -03 6.707  +00   18.
 1.973  -03 6.530  +00   15.
 1.979  -03 8.928  +00   15.
 1.986  -03 7.606  +00   15.
 1.993  -03 7.867  +00   15.
 1.999  -03 6.531  +00   18.
 2.006  -03 7.288  +00   14.
 2.013  -03 9.149  +00   14.
 2.020  -03 9.527  +00   13.
 2.026  -03 8.173  +00   14.
 2.033  -03 8.207  +00   15.
 2.040  -03 8.295  +00   15.
 2.047  -03 7.623  +00   18.
 2.061  -03 1.049  +01   15.
 2.068  -03 1.214  +01   14.
 2.075  -03 1.103  +01   15.
 2.082  -03 1.584  +01   18.
 2.089  -03 9.509  +00   15.
 2.097  -03 7.048  +00   16.
 2.104  -03 9.044  +00   33.
 2.111  -03 8.827  +00   23.
 2.118  -03 9.448  +00   16.
 2.126  -03 6.364  +00   19.
 2.133  -03 7.249  +00   16.
 2.140  -03 9.431  +00   15.
 2.148  -03 8.392  +00   16.
 2.155  -03 9.123  +00   16.
 2.163  -03 8.637  +00   14.
 2.170  -03 8.978  +00   15.
 2.178  -03 9.325  +00   14.
 2.186  -03 1.114  +01   14.
 2.193  -03 7.835  +00   15.
 2.201  -03 8.898  +00   16.
 2.209  -03 1.176  +01   13.
 2.217  -03 8.245  +00   15.
 2.224  -03 8.577  +00   20.
 2.232  -03 7.593  +00   16.
 2.240  -03 8.172  +00   14.
 2.248  -03 1.069  +01   27.
 2.256  -03 6.663  +00   16.
 2.264  -03 8.333  +00   16.
 2.272  -03 7.827  +00   14.
 2.281  -03 6.830  +00   17.
 2.289  -03 8.174  +00   14.
 2.297  -03 8.748  +00   19.
 2.305  -03 7.913  +00   14.
 2.314  -03 7.984  +00   14.
 2.322  -03 8.620  +00   14.
 2.330  -03 1.123  +01   13.
 2.339  -03 1.050  +01   14.
 2.347  -03 1.048  +01   29.
 2.356  -03 6.509  +00   28.
 2.373  -03 8.467  +00   16.
 2.382  -03 1.268  +01   15.
 2.391  -03 1.284  +01   14.
 2.399  -03 6.956  +00   17.
 2.408  -03 8.229  +00   19.
 2.417  -03 1.084  +01   14.
 2.426  -03 1.198  +01   15.
 2.435  -03 8.420  +00   16.
 2.444  -03 1.088  +01   16.
 2.453  -03 1.146  +01   16.
 2.462  -03 1.118  +01   17.
 2.471  -03 1.000  +01   16.
 2.481  -03 1.054  +01   15.
 2.490  -03 1.126  +01   14.
 2.499  -03 1.151  +01   14.
 2.509  -03 1.089  +01   17.
 2.518  -03 1.117  +01   16.
 2.528  -03 9.158  +00   15.
 2.537  -03 7.554  +00   18.
 2.547  -03 1.015  +01   27.
 2.556  -03 7.137  +00   16.
 2.566  -03 8.257  +00   15.
 2.576  -03 8.074  +00   18.
 2.586  -03 7.788  +00   15.
 2.596  -03 6.570  +00   15.
 2.606  -03 7.628  +00   14.
 2.616  -03 8.431  +00   14.
 2.626  -03 9.554  +00   14.
 2.636  -03 8.601  +00   14.
 2.646  -03 9.527  +00   15.
 2.656  -03 1.015  +01   16.
 2.667  -03 7.284  +00   15.
 2.677  -03 7.541  +00   15.
 2.687  -03 7.568  +00   15.
 2.698  -03 8.415  +00   19.
 2.708  -03 6.627  +00   14.
 2.719  -03 6.078  +00   15.
 2.730  -03 7.407  +00   25.
 2.740  -03 1.028  +01   21.
 2.751  -03 3.625  +00   34.
 2.762  -03 4.209  +00   16.
 2.773  -03 5.965  +00   15.
 2.784  -03 6.500  +00   15.
 2.795  -03 7.216  +00   14.
 2.806  -03 6.871  +00   15.
 2.817  -03 7.233  +00   15.
 2.828  -03 8.388  +00   16.
 2.840  -03 9.142  +00   14.
 2.851  -03 1.009  +01   15.
 2.863  -03 9.218  +00   16.
 2.874  -03 8.004  +00   16.
 2.886  -03 6.111  +00   15.
 2.897  -03 6.993  +00   15.
 2.909  -03 9.760  +00   15.
 2.921  -03 7.430  +00   14.
 2.933  -03 7.896  +00   19.
 2.945  -03 7.010  +00   15.
 2.957  -03 7.241  +00   14.
 2.969  -03 8.314  +00   15.
 2.981  -03 7.786  +00   15.
 2.993  -03 8.691  +00   18.
 3.006  -03 4.836  +00   17.
 3.018  -03 6.020  +00   24.
 3.030  -03 6.945  +00   16.
 3.043  -03 8.050  +00   16.
 3.056  -03 7.308  +00   14.
 3.068  -03 7.736  +00   15.
 3.081  -03 5.633  +00   19.
 3.094  -03 6.679  +00   17.
 3.107  -03 7.087  +00   18.
 3.120  -03 6.089  +00   15.
 3.133  -03 6.416  +00   14.
 3.146  -03 9.117  +00   14.
 3.160  -03 8.279  +00   16.
 3.173  -03 6.957  +00   15.
 3.186  -03 9.503  +00   18.
 3.200  -03 8.157  +00   14.
 3.214  -03 5.930  +00   18.
 3.227  -03 6.201  +00   25.
 3.241  -03 6.925  +00   16.
 3.255  -03 6.875  +00   16.
 3.269  -03 7.204  +00   19.
 3.283  -03 6.972  +00   22.
 3.297  -03 7.396  +00   16.
 3.311  -03 8.043  +00   16.
 3.326  -03 8.224  +00   20.
 3.340  -03 7.536  +00   19.
 3.355  -03 6.812  +00   25.
 3.369  -03 6.610  +00   15.
 3.384  -03 6.759  +00   20.
 3.399  -03 6.550  +00   14.
 3.414  -03 5.759  +00   24.
 3.429  -03 6.094  +00   17.
 3.444  -03 7.121  +00   24.
 3.459  -03 7.266  +00   17.
 3.474  -03 8.089  +00   16.
 3.490  -03 8.220  +00   22.
 3.505  -03 8.168  +00   22.
 3.521  -03 6.097  +00   21.
 3.537  -03 6.768  +00   16.
 3.553  -03 6.566  +00   19.
 3.568  -03 7.022  +00   13.
 3.585  -03 7.646  +00   58.
 3.601  -03 5.693  +00   17.
 3.617  -03 5.756  +00   26.
 3.633  -03 6.320  +00   22.
 3.650  -03 6.660  +00   22.
 3.666  -03 6.468  +00   13.
 3.683  -03 7.340  +00   25.
 3.700  -03 7.205  +00   22.
 3.717  -03 6.730  +00   23.
 3.734  -03 6.642  +00   20.
 3.751  -03 5.706  +00   25.
 3.768  -03 5.814  +00   24.
 3.786  -03 6.399  +00   22.
 3.803  -03 5.936  +00   19.
 3.821  -03 5.843  +00   18.
 3.839  -03 6.525  +00   16.
 3.857  -03 9.239  +00   15.
 3.875  -03 5.818  +00   15.
 3.893  -03 6.711  +00   17.
 3.911  -03 6.054  +00   25.
 3.930  -03 5.566  +00   23.
 3.948  -03 4.988  +00   19.
 3.967  -03 6.735  +00   19.
 3.986  -03 7.471  +00   28.
 4.005  -03 7.813  +00   16.
 4.024  -03 6.731  +00   28.
 4.043  -03 5.976  +00   18.
 4.062  -03 6.348  +00   18.
 4.082  -03 6.836  +00   20.
 4.101  -03 5.510  +00   22.
 4.121  -03 5.770  +00   22.
 4.141  -03 5.534  +00   20.
 4.161  -03 5.478  +00   19.
 4.181  -03 5.460  +00   13.
 4.202  -03 5.494  +00   18.
 4.222  -03 5.192  +00   14.
 4.243  -03 5.528  +00   22.
 4.264  -03 5.353  +00   24.
 4.285  -03 6.709  +00   16.
 4.306  -03 5.981  +00   19.
 4.327  -03 6.083  +00   19.
 4.349  -03 5.720  +00   16.
 4.370  -03 5.903  +00   19.
 4.392  -03 6.378  +00   31.
 4.414  -03 4.572  +00   19.
 4.436  -03 5.316  +00   21.
 4.458  -03 5.941  +00   19.
 4.481  -03 6.697  +00   19.
 4.503  -03 6.734  +00   30.
 4.526  -03 5.213  +00   24.
 4.549  -03 4.591  +00   23.
 4.572  -03 5.288  +00   21.
 4.596  -03 5.244  +00   23.
 4.619  -03 5.374  +00   21.
 4.643  -03 5.418  +00   21.
 4.666  -03 5.398  +00   27.
 4.690  -03 5.147  +00   18.
 4.715  -03 5.599  +00   16.
 4.739  -03 5.708  +00   15.
 4.764  -03 4.974  +00   18.
 4.788  -03 4.961  +00   19.
 4.813  -03 6.047  +00   13.
 4.839  -03 7.003  +00   17.
 4.864  -03 6.848  +00   19.
 4.890  -03 7.044  +00   17.
 4.915  -03 5.732  +00   18.
 4.941  -03 4.487  +00   17.
 4.967  -03 4.576  +00   16.
 4.994  -03 4.643  +00   15.
 5.020  -03 4.979  +00   13.
 5.047  -03 4.456  +00   14.
 5.074  -03 4.454  +00   15.
 5.102  -03 4.876  +00   17.
 5.129  -03 3.635  +00   27.
 5.157  -03 4.976  +00   16.
 5.185  -03 4.752  +00   16.
 5.213  -03 5.895  +00   17.
 5.241  -03 5.471  +00   16.
 5.270  -03 5.335  +00   14.
 5.299  -03 4.725  +00   17.
 5.328  -03 4.694  +00   15.
 5.357  -03 4.459  +00   13.
 5.387  -03 4.449  +00   13.
 5.416  -03 5.022  +00   13.
 5.446  -03 5.351  +00   13.
 5.477  -03 4.921  +00   16.
 5.507  -03 4.600  +00   16.
 5.538  -03 4.805  +00   18.
 5.569  -03 4.874  +00   14.
 5.600  -03 4.149  +00   15.
 5.632  -03 4.344  +00   14.
 5.664  -03 5.031  +00   21.
 5.696  -03 5.642  +00   21.
 5.729  -03 4.246  +00   16.
 5.761  -03 3.715  +00   19.
 5.794  -03 3.828  +00   15.
 5.827  -03 5.029  +00   24.
 5.861  -03 5.099  +00   13.
 5.895  -03 5.196  +00   15.
 5.929  -03 5.420  +00   17.
 5.963  -03 4.778  +00   17.
 5.998  -03 4.872  +00   13.
 6.033  -03 4.932  +00   18.
 6.069  -03 4.522  +00   20.
 6.104  -03 4.967  +00   16.
 6.140  -03 5.015  +00   13.
 6.177  -03 5.237  +00   18.
 6.213  -03 5.497  +00   17.
 6.250  -03 4.240  +00   16.
 6.287  -03 4.416  +00   24.
 6.325  -03 4.870  +00   21.
 6.363  -03 4.872  +00   23.
 6.401  -03 4.666  +00   16.
 6.440  -03 4.820  +00   15.
 6.479  -03 4.847  +00   21.
 6.518  -03 4.338  +00   19.
 6.558  -03 4.933  +00   14.
 6.598  -03 4.730  +00   19.
 6.638  -03 5.005  +00   18.
 6.679  -03 5.487  +00   18.
 6.720  -03 4.474  +00   18.
 6.762  -03 4.117  +00   24.
 6.804  -03 4.397  +00   17.
 6.846  -03 4.697  +00   14.
 6.889  -03 4.451  +00   15.
 6.932  -03 3.896  +00   13.
 6.976  -03 5.133  +00   14.
 7.020  -03 5.311  +00   14.
 7.064  -03 4.478  +00   13.
 7.109  -03 4.486  +00   15.
 7.154  -03 4.212  +00   18.
 7.200  -03 4.136  +00   17.
 7.246  -03 3.990  +00   17.
 7.293  -03 4.230  +00   18.
 7.340  -03 4.463  +00   28.
 7.387  -03 5.225  +00   20.
 7.435  -03 3.936  +00   27.
 7.484  -03 4.126  +00   14.
 7.532  -03 4.142  +00   21.
 7.582  -03 3.784  +00   16.
 7.632  -03 4.250  +00   16.
 7.682  -03 3.908  +00   14.
 7.733  -03 3.849  +00   14.
 7.784  -03 4.047  +00   14.
 7.836  -03 4.046  +00   15.
 7.888  -03 4.319  +00   16.
 7.941  -03 3.883  +00   19.
 7.995  -03 4.529  +00   14.
 8.049  -03 4.511  +00   17.
 8.103  -03 5.008  +00   15.
 8.158  -03 4.015  +00   16.
 8.214  -03 4.413  +00   14.
 8.270  -03 4.631  +00   17.
 8.327  -03 3.757  +00   14.
 8.385  -03 4.446  +00   18.
 8.443  -03 4.807  +00   17.
 8.501  -03 4.471  +00   13.
 8.560  -03 4.079  +00   14.
 8.620  -03 4.264  +00   14.
 8.681  -03 4.590  +00   15.
 8.742  -03 4.746  +00   16.
 8.804  -03 4.598  +00   14.
 8.866  -03 4.354  +00   13.
 8.929  -03 3.903  +00   16.
 8.993  -03 4.054  +00   15.
 9.057  -03 4.099  +00   13.
 9.123  -03 4.025  +00   21.
 9.188  -03 4.080  +00   19.
 9.255  -03 4.061  +00   16.
 9.322  -03 3.480  +00   15.
 9.390  -03 3.780  +00   16.
 9.459  -03 3.630  +00   19.
 9.529  -03 3.938  +00   15.
 9.599  -03 4.579  +00   18.
 9.670  -03 3.875  +00   17.
 9.742  -03 4.407  +00   14.
 9.815  -03 4.713  +00   17.
 9.888  -03 3.958  +00   22.
 9.963  -03 4.463  +00   17.
 9.981  -03 4.684  +00   14.
 1.003  -02 4.499  +00   16.
 1.007  -02 4.110  +00   14.
 1.012  -02 4.302  +00   15.
 1.016  -02 4.630  +00   16.
 1.021  -02 4.811  +00   16.
 1.026  -02 4.884  +00   13.
 1.030  -02 5.282  +00   14.
 1.035  -02 5.864  +00   14.
 1.040  -02 5.619  +00   14.
 1.045  -02 4.615  +00   16.
 1.049  -02 4.605  +00   14.
 1.054  -02 4.448  +00   16.
 1.059  -02 3.572  +00   14.
 1.064  -02 3.879  +00   14.
 1.069  -02 4.368  +00   18.
 1.074  -02 3.796  +00   14.
 1.079  -02 4.090  +00   15.
 1.084  -02 4.362  +00   16.
 1.089  -02 4.094  +00   14.
 1.094  -02 4.117  +00   18.
 1.099  -02 4.457  +00   14.
 1.105  -02 4.260  +00   15.
 1.110  -02 4.229  +00   15.
 1.115  -02 4.224  +00   18.
 1.121  -02 3.631  +00   20.
 1.126  -02 3.029  +00   32.
 1.131  -02 3.607  +00   18.
 1.137  -02 4.602  +00   20.
 1.142  -02 5.505  +00   15.
 1.148  -02 5.384  +00   17.
 1.153  -02 4.464  +00   14.
 1.159  -02 4.787  +00   17.
 1.165  -02 4.553  +00   15.
 1.170  -02 4.719  +00   14.
 1.176  -02 4.667  +00   21.
 1.182  -02 3.707  +00   15.
 1.188  -02 3.321  +00   19.
 1.193  -02 3.474  +00   15.
 1.199  -02 3.685  +00   14.
 1.205  -02 4.176  +00   14.
 1.211  -02 4.226  +00   17.
 1.217  -02 3.363  +00   20.
 1.223  -02 4.006  +00   19.
 1.229  -02 4.803  +00   20.
 1.236  -02 5.767  +00   15.
 1.242  -02 5.111  +00   14.
 1.248  -02 4.523  +00   14.
 1.254  -02 4.328  +00   14.
 1.261  -02 4.275  +00   14.
 1.267  -02 3.773  +00   19.
 1.274  -02 4.672  +00   16.
 1.280  -02 4.901  +00   17.
 1.287  -02 4.320  +00   14.
 1.293  -02 3.872  +00   14.
 1.300  -02 3.750  +00   17.
 1.307  -02 3.810  +00   20.
 1.313  -02 3.326  +00   15.
 1.320  -02 3.127  +00   18.
 1.327  -02 3.285  +00   16.
 1.334  -02 3.322  +00   18.
 1.341  -02 3.755  +00   18.
 1.355  -02 3.100  +00   21.
 1.362  -02 3.460  +00   15.
 1.369  -02 3.774  +00   14.
 1.376  -02 3.883  +00   14.
 1.384  -02 3.825  +00   16.
 1.391  -02 3.771  +00   15.
 1.399  -02 4.679  +00   14.
 1.406  -02 5.473  +00   15.
 1.414  -02 5.432  +00   14.
 1.421  -02 5.201  +00   16.
 1.429  -02 5.706  +00   14.
 1.437  -02 4.558  +00   15.
 1.444  -02 3.676  +00   15.
 1.452  -02 3.271  +00   15.
 1.460  -02 3.337  +00   15.
 1.468  -02 4.348  +00   15.
 1.476  -02 4.722  +00   14.
 1.484  -02 4.852  +00   16.
 1.492  -02 5.261  +00   29.
 1.501  -02 6.266  +00   20.
 1.509  -02 6.137  +00   16.
 1.517  -02 5.901  +00   16.
 1.526  -02 5.047  +00   22.
 1.534  -02 4.293  +00   20.
 1.543  -02 5.204  +00   20.
 1.552  -02 3.943  +00   19.
 1.560  -02 3.078  +00   21.
 1.569  -02 3.914  +00   19.
 1.578  -02 2.772  +00   19.
 1.587  -02 3.653  +00   19.
 1.596  -02 4.431  +00   15.
 1.605  -02 4.414  +00   15.
 1.614  -02 4.082  +00   14.
 1.624  -02 4.013  +00   15.
 1.633  -02 3.057  +00   23.
 1.643  -02 3.621  +00   19.
 1.652  -02 4.316  +00   16.
 1.662  -02 4.336  +00   19.
 1.671  -02 4.175  +00   18.
 1.681  -02 4.577  +00   19.
 1.691  -02 3.912  +00   16.
 1.701  -02 3.108  +00   18.
 1.711  -02 2.822  +00   20.
 1.721  -02 3.887  +00   16.
 1.731  -02 4.141  +00   14.
 1.742  -02 4.051  +00   16.
 1.752  -02 3.873  +00   17.
 1.763  -02 3.615  +00   15.
 1.773  -02 3.831  +00   15.
 1.784  -02 4.416  +00   16.
 1.795  -02 4.341  +00   22.
 1.806  -02 3.290  +00   19.
 1.817  -02 2.992  +00   15.
 1.828  -02 2.872  +00   17.
 1.839  -02 2.806  +00   19.
 1.850  -02 3.210  +00   23.
 1.861  -02 3.525  +00   24.
 1.873  -02 2.641  +00   15.
 1.885  -02 2.930  +00   16.
 1.896  -02 3.431  +00   17.
 1.908  -02 3.247  +00   14.
 1.920  -02 3.395  +00   14.
 1.932  -02 3.918  +00   14.
 1.944  -02 3.655  +00   17.
 1.957  -02 3.875  +00   16.
 1.981  -02 2.927  +00   22.
 1.994  -02 3.500  +00   16.
 2.007  -02 3.799  +00   13.
 2.020  -02 4.289  +00   15.
 2.033  -02 4.418  +00   15.
 2.046  -02 4.414  +00   15.
 2.059  -02 4.028  +00   14.
 2.072  -02 3.931  +00   15.
 2.086  -02 3.676  +00   14.
 2.100  -02 3.926  +00   15.
 2.113  -02 4.499  +00   15.
 2.127  -02 3.832  +00   17.
 2.141  -02 3.404  +00   15.
 2.156  -02 3.095  +00   14.
 2.170  -02 3.142  +00   14.
 2.184  -02 2.682  +00   14.
 2.199  -02 2.364  +00   15.
 2.214  -02 2.608  +00   16.
 2.229  -02 3.305  +00   20.
 2.244  -02 4.053  +00   14.
 2.259  -02 4.027  +00   14.
 2.274  -02 4.036  +00   13.
 2.290  -02 4.224  +00   16.
 2.306  -02 4.369  +00   17.
 2.322  -02 3.972  +00   14.
 2.338  -02 3.521  +00   13.
 2.354  -02 3.180  +00   13.
 2.370  -02 3.310  +00   14.
 2.387  -02 3.594  +00   14.
 2.403  -02 3.534  +00   15.
 2.420  -02 3.689  +00   17.
 2.437  -02 3.537  +00   13.
 2.455  -02 3.682  +00   16.
 2.472  -02 3.520  +00   15.
 2.490  -02 3.126  +00   14.
 2.508  -02 3.123  +00   16.
 2.526  -02 3.036  +00   20.
 2.544  -02 3.241  +00   15.
 2.562  -02 3.467  +00   14.
 2.581  -02 3.396  +00   14.
 2.600  -02 3.312  +00   14.
 2.619  -02 2.557  +00   20.
 2.638  -02 2.443  +00   21.
 2.657  -02 3.303  +00   15.
 2.677  -02 2.916  +00   14.
 2.697  -02 2.757  +00   14.
 2.717  -02 3.075  +00   16.
 2.737  -02 3.064  +00   13.
 2.758  -02 3.033  +00   15.
 2.779  -02 3.051  +00   13.
 2.800  -02 2.975  +00   16.
 2.821  -02 2.288  +00   18.
 2.842  -02 2.355  +00   14.
 2.864  -02 2.544  +00   16.
 2.886  -02 2.025  +00   14.
 2.908  -02 2.265  +00   15.
 2.931  -02 2.611  +00   15.
 2.954  -02 2.950  +00   16.
 2.977  -02 3.278  +00   13.
 3.000  -02 3.270  +00   15.
 3.024  -02 3.009  +00   17.
 3.047  -02 3.339  +00   21.
 3.072  -02 3.079  +00   13.
 3.096  -02 2.999  +00   18.
 3.121  -02 2.807  +00   16.
 3.146  -02 2.906  +00   19.
 3.197  -02 3.387  +00   15.
 3.223  -02 3.087  +00   13.
 3.249  -02 3.281  +00   13.
 3.276  -02 3.367  +00   14.
 3.303  -02 3.664  +00   14.
 3.330  -02 3.462  +00   15.
 3.357  -02 3.239  +00   14.
 3.385  -02 3.228  +00   13.
 3.414  -02 3.365  +00   15.
 3.442  -02 3.144  +00   13.
 3.471  -02 2.768  +00   17.
 3.501  -02 2.889  +00   13.
 3.530  -02 2.672  +00   15.
 3.561  -02 2.401  +00   14.
 3.591  -02 2.528  +00   16.
 3.622  -02 2.516  +00   13.
 3.653  -02 2.551  +00   14.
 3.685  -02 2.527  +00   13.
 3.717  -02 2.661  +00   13.
 3.750  -02 2.664  +00   16.
 3.783  -02 2.823  +00   13.
 3.816  -02 3.009  +00   13.
 3.850  -02 3.193  +00   12.
 3.885  -02 2.923  +00   19.
 3.919  -02 2.733  +00   16.
 3.955  -02 2.905  +00   13.
 3.990  -02 2.721  +00   13.
 4.027  -02 2.586  +00   13.
 4.063  -02 2.639  +00   21.
 4.101  -02 2.567  +00   15.
 4.138  -02 2.610  +00   14.
 4.177  -02 2.569  +00   13.
 4.216  -02 3.176  +00   20.
 4.255  -02 3.043  +00   18.
 4.295  -02 2.919  +00   13.
 4.335  -02 3.058  +00   15.
 4.376  -02 2.940  +00   18.
 4.418  -02 3.111  +00   13.
 4.460  -02 3.031  +00   12.
 4.503  -02 2.933  +00   14.
 4.547  -02 2.508  +00   12.
 4.591  -02 2.229  +00   12.
 4.636  -02 2.373  +00   15.
 4.681  -02 2.590  +00   13.
 4.727  -02 2.476  +00   14.
 4.774  -02 2.471  +00   15.
 4.822  -02 2.586  +00   13.
 4.870  -02 2.408  +00   13.
 4.919  -02 2.417  +00   15.
 4.968  -02 2.501  +00   13.
 5.019  -02 2.348  +00   13.
 5.070  -02 2.274  +00   13.
 5.122  -02 2.204  +00   14.
 5.175  -02 2.142  +00   13.
 5.229  -02 2.271  +00   12.
 5.283  -02 2.284  +00   14.
 5.338  -02 2.170  +00   14.
 5.395  -02 2.052  +00   13.
 5.452  -02 1.901  +00   15.
 5.510  -02 2.025  +00   15.
 5.569  -02 1.846  +00   13.
 5.629  -02 1.744  +00   17.
 5.689  -02 1.811  +00   15.
 5.751  -02 1.992  +00   13.
 5.814  -02 2.157  +00   15.
 5.943  -02 2.063  +00   14.
 6.009  -02 2.091  +00   13.
 6.076  -02 1.950  +00   13.
 6.145  -02 1.830  +00   13.
 6.214  -02 2.113  +00   13.
 6.285  -02 2.390  +00   13.
 6.357  -02 2.356  +00   13.
 6.430  -02 2.356  +00   13.
 6.505  -02 2.453  +00   13.
 6.580  -02 2.490  +00   12.
 6.657  -02 2.397  +00   13.
 6.736  -02 2.441  +00   12.
 6.816  -02 2.379  +00   13.
 6.897  -02 2.471  +00   12.
 6.980  -02 2.248  +00   15.
 7.064  -02 2.390  +00   13.
 7.150  -02 2.363  +00   12.
 7.237  -02 2.311  +00   12.
 7.326  -02 2.355  +00   12.
 7.417  -02 2.383  +00   12.
 7.509  -02 2.291  +00   12.
 7.603  -02 2.216  +00   15.
 7.699  -02 2.070  +00   25.
 7.796  -02 2.793  +00   21.
 7.896  -02 2.776  +00   18.
 7.997  -02 2.426  +00   15.
 8.101  -02 1.989  +00   13.
 8.206  -02 2.244  +00   13.
 8.314  -02 2.440  +00   13.
 8.424  -02 2.535  +00   13.
 8.535  -02 2.439  +00   12.
 8.650  -02 2.462  +00   12.
 8.766  -02 2.373  +00   13.
 8.885  -02 2.110  +00   13.
 9.006  -02 2.209  +00   13.
 9.130  -02 2.125  +00   13.
 9.256  -02 2.064  +00   13.
 9.385  -02 2.190  +00   13.
 9.517  -02 1.994  +00   14.
 9.652  -02 1.911  +00   12.
 9.789  -02 1.967  +00   12.
 9.929  -02 1.957  +00   13.
 1.002  -01 1.981  +00   12.
 1.017  -01 2.090  +00   12.
 1.032  -01 2.104  +00   13.
 1.047  -01 1.971  +00   12.
 1.062  -01 1.773  +00   17.
 1.078  -01 1.839  +00   15.
 1.094  -01 2.221  +00   12.
 1.111  -01 2.314  +00   15.
 1.128  -01 2.192  +00   16.
 1.145  -01 2.205  +00   12.
 1.163  -01 2.397  +00   12.
 1.181  -01 2.183  +00   13.
 1.200  -01 2.031  +00   12.
 1.219  -01 1.980  +00   14.
 1.239  -01 1.997  +00   15.
 1.259  -01 1.672  +00   13.
 1.279  -01 1.961  +00   13.
 1.300  -01 2.123  +00   12.
 1.322  -01 2.120  +00   12.
 1.344  -01 2.061  +00   16.
 1.367  -01 2.147  +00   13.
 1.390  -01 2.086  +00   15.
 1.414  -01 2.039  +00   13.
 1.463  -01 2.108  +00   15.
 1.489  -01 2.126  +00   13.
 1.516  -01 2.021  +00   12.
 1.543  -01 2.045  +00   13.
 1.571  -01 2.055  +00   13.
 1.600  -01 1.927  +00   13.
 1.629  -01 2.314  +00   12.
 1.659  -01 2.259  +00   13.
 1.691  -01 2.471  +00   14.
 1.723  -01 2.507  +00   13.
 1.756  -01 2.544  +00   13.
 1.790  -01 2.374  +00   13.
 1.825  -01 2.348  +00   13.
 1.861  -01 2.155  +00   13.
 1.898  -01 2.239  +00   13.
 1.936  -01 2.378  +00   13.
 1.975  -01 2.386  +00   12.
 2.016  -01 2.424  +00   12.
 2.058  -01 2.239  +00   12.
 2.101  -01 2.198  +00   13.
 2.146  -01 2.007  +00   13.
 2.192  -01 2.185  +00   13.
 2.239  -01 2.248  +00   13.
 2.288  -01 2.443  +00   13.
 2.339  -01 2.361  +00   13.
 2.392  -01 2.244  +00   13.
 2.446  -01 2.165  +00   13.
 2.502  -01 2.078  +00   12.
 2.560  -01 2.140  +00   12.
 2.620  -01 2.243  +00   13.
 2.683  -01 2.165  +00   13.
 2.747  -01 2.067  +00   13.
 2.814  -01 2.159  +00   13.
 2.884  -01 2.140  +00   12.
 2.956  -01 1.971  +00   13.
 3.031  -01 2.025  +00   13.
 3.108  -01 2.008  +00   12.
 3.189  -01 2.050  +00   12.
 3.273  -01 1.942  +00   13.
 3.361  -01 1.876  +00   13.
 3.452  -01 1.648  +00   15.
 3.546  -01 1.710  +00   12.
 3.645  -01 1.739  +00   12.
 3.748  -01 1.630  +00   12.
 3.856  -01 1.689  +00   12.
 3.968  -01 1.848  +00   12.
 4.085  -01 1.728  +00   12.
 4.207  -01 1.768  +00   12.
 4.335  -01 1.818  +00   12.
 4.470  -01 1.941  +00   12.
 4.610  -01 1.928  +00   12.
 4.757  -01 1.945  +00   12.
 4.912  -01 1.768  +00   13.
 5.074  -01 1.747  +00   13.
 5.244  -01 1.948  +00   13.
 5.424  -01 1.849  +00   12.
 5.612  -01 1.954  +00   13.
 5.811  -01 2.104  +00   12.
 6.021  -01 1.953  +00   13.
 6.242  -01 1.979  +00   12.
 6.476  -01 1.905  +00   13.
 6.723  -01 1.726  +00   12.
 6.985  -01 1.657  +00   12.
 7.263  -01 1.599  +00   11.
 7.871  -01 1.619  +00   14.
 8.205  -01 1.739  +00   12.
 8.560  -01 1.717  +00   11.
 8.940  -01 1.748  +00   12.
 9.345  -01 1.742  +00   12.
 9.779  -01 1.890  +00   12.
ENDDATA           3049
ENDSUBENT         3056
ENDENTRY             2
