ENTRY            10404   20181102   20190110   20190109       1444
SUBENT        10404001   20181102   20190110   20190109       1444
BIB                 10         17
INSTITUTE  (1USAISU,1USAMTR)
REFERENCE  (T,SERPA,1970) Master's thesis
           (P,IN-1407,43,197012)
AUTHOR     (M.R.Serpa)
TITLE      Total neutron cross section on 94Nb
FACILITY   (CHOPF,1USAMTR) MTR fast chopper
METHOD     (TOF) Time-of-flight. 20-m flight path.
DETECTOR   (PROPC) BF3 detector with 4096-multichannel time-of-
            flight analyzer.
CORRECTION Corrected for: background, contaminants, and dead time.
STATUS     No reply to author proof.
HISTORY    (19740609C)
           (19760302U) INSTITUTE corrected
           (19830527A) Converted to REACTION formalism
           (20030207A) Updated to new date formats, lower case.
           (20181014A) OS. 2nd reference corrected. REACTION in
            subs. 7,8 corrected
ENDBIB              17
NOCOMMON             0          0
ENDSUBENT           20
SUBENT        10404002   20181102   20190110   20190109       1444
BIB                  5         11
REACTION   (41-NB-94(N,TOT),,SIG)
            Includes 95Nb contribution
SAMPLE     (41-NB-94,ENR=0.0423)
           (41-NB-93,ENR=0.908)
           (41-NB-95,ENR=0.0011)
           (41-NB-96,ENR=0.04)
           (41-NB-97,ENR=0.01)
ERR-ANALYS No information on uncertainties.
FLAG       (1.) Thick sample - 185.2 b/atom.
           (2.) Thin sample - 2222. b/atom.
STATUS     (TABLE) Data received on magnetic tape.
ENDBIB              11
NOCOMMON             0          0
DATA                 3        809
EN         DATA       FLAG
EV         B          NO-DIM
   8.14      9.71      1.
   8.15     13.99      1.
   8.17     10.80      1.
   8.18     13.54      1.
   8.20     11.59      1.
   8.22      7.99      1.
   8.23     12.99      1.
   8.25     10.80      1.
   8.27     10.34      1.
   8.28     12.70      1.
   8.30     13.07      1.
   8.31     11.92      1.
   8.33     12.41      1.
   8.35     13.02      1.
   8.36     11.25      1.
   8.38      8.99      1.
   8.40     14.28      1.
   8.41     12.73      1.
   8.43     11.88      1.
   8.45     15.64      1.
   8.47     15.41      1.
   8.48     10.40      1.
   8.50      6.95      1.
   8.52      8.70      1.
   8.53     13.73      1.
   8.55      9.93      1.
   8.57     15.83      1.
   8.59     11.42      1.
   8.60     13.79      1.
   8.62     10.25      1.
   8.64     11.78      1.
   8.66     12.59      1.
   8.67     11.14      1.
   8.69     15.26      1.
   8.71     16.15      1.
   8.73     11.93      1.
   8.75     17.50      1.
   8.76     14.08      1.
   8.78     10.53      1.
   8.80      7.70      1.
   8.82     18.27      1.
   8.84     14.44      1.
   8.85     12.26      1.
   8.87      8.55      1.
   8.89     14.74      1.
   8.91     12.85      1.
   8.93     16.31      1.
   8.95     13.03      1.
   8.96     15.68      1.
   8.98     14.79      1.
   9.00     18.68      1.
   9.02     12.17      1.
   9.04     13.85      1.
   9.06     16.24      1.
   9.08     14.93      1.
   9.10     15.56      1.
   9.11     13.18      1.
   9.13     15.31      1.
   9.15     12.11      1.
   9.17     14.33      1.
   9.19     13.30      1.
   9.21     17.59      1.
   9.23      9.71      1.
   9.25     13.37      1.
   9.27     16.33      1.
   9.29     13.09      1.
   9.31      9.87      1.
   9.33     17.58      1.
   9.35      9.65      1.
   9.37     13.42      1.
   9.39      9.32      1.
   9.41     12.59      1.
   9.43     14.62      1.
   9.45      7.58      1.
   9.47     11.52      1.
   9.49     11.82      1.
   9.51     11.75      1.
   9.53     16.69      1.
   9.55     16.27      1.
   9.57     13.17      1.
   9.59     16.83      1.
   9.61     21.55      1.
   9.63     14.72      1.
   9.65     13.79      1.
   9.67     16.21      1.
   9.69     23.04      1.
   9.71     17.85      1.
   9.73     15.53      1.
   9.75     19.61      1.
   9.78     13.31      1.
   9.80     18.27      1.
   9.82     16.70      1.
   9.84     19.79      1.
   9.86     20.19      1.
   9.88     13.56      1.
   9.90     16.67      1.
   9.93     21.83      1.
   9.95     21.70      1.
   9.97     13.67      1.
   9.99     16.05      1.
  10.01     20.89      1.
  10.03     19.96      1.
  10.06     23.29      1.
  10.08     20.94      1.
  10.10     16.30      1.
  10.12     20.35      1.
  10.15     21.03      1.
  10.17     19.39      1.
  10.19     15.19      1.
  10.21     13.10      1.
  10.24     16.02      1.
  10.26     12.08      1.
  10.28     13.34      1.
  10.30     12.57      1.
  10.33     10.61      1.
  10.35     11.41      1.
  10.37     10.56      1.
  10.40     12.30      1.
  10.42     24.15      1.
  10.44     21.44      1.
  10.47     28.73      1.
  10.49     29.89      1.
  10.51     39.30      1.
  10.54     38.26      1.
  10.56     38.00      1.
  10.58     40.58      1.
  10.61     42.79      1.
  10.63     44.49      1.
  10.66     48.63      1.
  10.68     49.46      1.
  10.70     54.12      1.
  10.73     55.34      1.
  10.75     57.26      1.
  10.78     57.98      1.
  10.80     63.09      1.
  10.83     69.82      1.
  10.85     75.17      1.
  10.88     75.49      1.
  10.90     74.57      1.
  10.93     89.14      1.
  10.95     90.21      1.
  10.98    106.79      1.
  11.00    115.21      1.
  11.03    122.86      1.
  11.05    139.33      1.
  11.08    146.57      1.
  11.10    167.00      1.
  11.13    190.65      1.
  11.15    213.67      1.
  11.18    239.76      1.
  11.21    268.90      1.
  11.23    309.61      1.
  11.28     341.73     2.
  11.31     384.06     2.
  11.33     466.30     2.
  11.36     532.99     2.
  11.39     695.89     2.
  11.41     891.09     2.
  11.44     902.07     2.
  11.47    1267.54     2.
  11.49    1561.47     2.
  11.52    1772.37     2.
  11.55    1993.70     2.
  11.57    2223.51     2.
  11.60    2433.04     2.
  11.63    2260.72     2.
  11.66    2214.15     2.
  11.68    2174.97     2.
  11.71    1786.31     2.
  11.74    1569.86     2.
  11.77    1164.55     2.
  11.80    1140.78     2.
  11.82     757.90     2.
  11.85     620.67     2.
  11.88     470.94     2.
  11.91     434.18     2.
  11.94     327.68     2.
  11.97     250.90     2.
  11.99     237.66     2.
  12.02     229.63     2.
  12.05    169.80      1.
  12.08    144.32      1.
  12.11    137.75      1.
  12.14    119.73      1.
  12.17    109.17      1.
  12.20    106.03      1.
  12.23     89.44      1.
  12.26     83.14      1.
  12.29     77.33      1.
  12.32     67.04      1.
  12.35     63.19      1.
  12.38     65.96      1.
  12.41     54.75      1.
  12.44     57.78      1.
  12.47     50.81      1.
  12.50     51.48      1.
  12.53     46.03      1.
  12.56     44.47      1.
  12.59     44.13      1.
  12.62     46.36      1.
  12.66     42.25      1.
  12.69     39.84      1.
  12.72     33.79      1.
  12.75     35.32      1.
  12.78     32.24      1.
  12.81     36.27      1.
  12.84     28.44      1.
  12.88     30.93      1.
  12.91     34.17      1.
  12.94     28.45      1.
  12.97     29.59      1.
  13.01     28.71      1.
  13.04     25.11      1.
  13.07     26.69      1.
  13.10     26.63      1.
  13.14     28.02      1.
  13.17     24.90      1.
  13.20     24.42      1.
  13.24     24.20      1.
  13.27     21.77      1.
  13.30     24.55      1.
  13.34     27.50      1.
  13.37     26.67      1.
  13.40     31.07      1.
  13.44     25.51      1.
  13.47     23.80      1.
  13.51     26.83      1.
  13.54     25.79      1.
  13.57     22.07      1.
  13.61     20.43      1.
  13.64     16.54      1.
  13.68     15.59      1.
  13.71     20.01      1.
  13.75     18.09      1.
  13.78     14.51      1.
  13.82     11.90      1.
  13.86     12.11      1.
  13.89     14.88      1.
  13.93     10.65      1.
  13.96     16.78      1.
  14.00     18.89      1.
  14.03     20.96      1.
  14.07     15.32      1.
  14.11     13.38      1.
  14.15     13.26      1.
  14.18     15.12      1.
  14.22     11.33      1.
  14.26     13.78      1.
  14.29     16.18      1.
  14.33     11.18      1.
  14.37     12.30      1.
  14.41     11.92      1.
  14.44     14.28      1.
  14.48     13.36      1.
  14.52     13.20      1.
  14.56     12.32      1.
  14.60     14.45      1.
  14.64      8.29      1.
  14.67     13.43      1.
  14.71     10.62      1.
  14.75      7.58      1.
  14.79     10.69      1.
  14.83      8.22      1.
  14.87     12.29      1.
  14.91     15.27      1.
  14.95      7.74      1.
  14.99     11.31      1.
  15.03     10.45      1.
  15.07      9.83      1.
  15.11     11.36      1.
  15.15     13.39      1.
  15.19     14.44      1.
  15.23     13.83      1.
  15.28     13.08      1.
  15.32     13.96      1.
  15.36     10.37      1.
  15.40     11.22      1.
  15.44     11.76      1.
  15.48     13.56      1.
  15.53     10.56      1.
  15.57     11.76      1.
  15.61      7.44      1.
  15.65     11.62      1.
  15.70     13.95      1.
  15.74      5.39      1.
  15.78     12.65      1.
  15.83      6.53      1.
  15.87     15.24      1.
  15.91      9.43      1.
  15.96     10.31      1.
  16.00      8.84      1.
  16.05     10.65      1.
  16.09     12.48      1.
  16.14     10.78      1.
  16.18     15.16      1.
  16.23     10.80      1.
  16.27      5.90      1.
  16.32     16.18      1.
  16.36     10.26      1.
  16.41     13.03      1.
  16.45      9.59      1.
  16.50     14.34      1.
  16.55      8.67      1.
  16.59      7.19      1.
  16.64      8.70      1.
  16.69     12.41      1.
  16.74     11.15      1.
  16.78      9.91      1.
  16.83     10.33      1.
  16.88      9.11      1.
  16.93      9.03      1.
  16.97     14.24      1.
  17.02     10.88      1.
  17.07      8.00      1.
  17.12     10.19      1.
  17.17     12.63      1.
  17.22     10.53      1.
  17.27     11.43      1.
  17.32      7.21      1.
  17.37      9.62      1.
  17.42      7.35      1.
  17.47     12.48      1.
  17.52      7.36      1.
  17.57     13.49      1.
  17.62     10.63      1.
  17.67      6.76      1.
  17.72      2.98      1.
  17.78      8.88      1.
  17.83      9.28      1.
  17.88      6.90      1.
  17.93      3.67      1.
  17.99      7.00      1.
  18.04      8.81      1.
  18.09      2.88      1.
  18.14      4.60      1.
  18.20      7.39      1.
  18.25      5.41      1.
  18.31      1.69      1.
  18.36     -0.93      1.
  18.41     -7.92      1.
  18.47     -6.01      1.
  18.52    -11.42      1.
  18.58    -14.88      1.
  18.64    -22.46      1.
  18.69    -30.04      1.
  18.75    -28.82      1.
  18.80    -34.30      1.
  18.86    -31.96      1.
  18.92    -34.53      1.
  18.97    -25.28      1.
  19.03    -15.32      1.
  19.09     -9.42      1.
  19.15     -9.44      1.
  19.20     -5.52      1.
  19.26     -0.18      1.
  19.32     -0.78      1.
  19.38      4.16      1.
  19.44      3.62      1.
  19.50      4.56      1.
  19.56      1.45      1.
  19.62      6.22      1.
  19.68     10.20      1.
  19.74      7.40      1.
  19.80      7.16      1.
  19.86      6.04      1.
  19.92      6.37      1.
  19.98      1.71      1.
  20.05     10.38      1.
  20.11     13.02      1.
  20.17      7.44      1.
  20.23      6.16      1.
  20.30      7.79      1.
  20.36      6.24      1.
  20.42      8.31      1.
  20.49     13.97      1.
  20.55      7.57      1.
  20.62      4.42      1.
  20.68      6.28      1.
  20.75     11.16      1.
  20.81      5.14      1.
  20.88      7.21      1.
  20.94      2.84      1.
  21.01     -3.83      1.
  21.08     -0.98      1.
  21.14      1.24      1.
  21.21      4.47      1.
  21.28      5.32      1.
  21.35      9.84      1.
  21.41      6.74      1.
  21.48     10.36      1.
  21.55      6.51      1.
  21.62      9.82      1.
  21.69     12.85      1.
  21.76      9.04      1.
  21.83      8.20      1.
  21.90      8.85      1.
  21.97     16.90      1.
  22.05     15.20      1.
  22.12     14.57      1.
  22.19     18.99      1.
  22.26     28.46      1.
  22.34     39.30      1.
  22.41     39.78      1.
  22.48     54.61      1.
  22.56     88.12      1.
  22.63    104.23      1.
  22.70    127.87      1.
  22.78    137.20      1.
  22.86    120.46      1.
  22.93    104.47      1.
  23.01     76.45      1.
  23.08     53.58      1.
  23.16     39.69      1.
  23.24     30.09      1.
  23.32     22.42      1.
  23.39     12.93      1.
  23.47     11.19      1.
  23.55     12.03      1.
  23.63     10.26      1.
  23.71      8.91      1.
  23.79      7.03      1.
  23.87     -0.44      1.
  23.95     -1.48      1.
  24.03      6.55      1.
  24.11      4.17      1.
  24.20      0.02      1.
  24.28      7.59      1.
  24.36      9.37      1.
  24.44      5.89      1.
  24.53     11.37      1.
  24.61     11.51      1.
  24.70     10.90      1.
  24.78     12.16      1.
  24.87      7.67      1.
  24.95      2.03      1.
  25.04     11.83      1.
  25.13     10.17      1.
  25.21     11.60      1.
  25.30      8.17      1.
  25.39     10.97      1.
  25.48      8.86      1.
  25.57     11.12      1.
  25.66      8.49      1.
  25.75      8.09      1.
  25.84     10.64      1.
  25.93      8.86      1.
  26.02     10.71      1.
  26.11     10.50      1.
  26.21     14.08      1.
  26.30     10.88      1.
  26.39     13.86      1.
  26.49     11.36      1.
  26.58     12.71      1.
  26.68      8.70      1.
  26.77     14.25      1.
  26.87     19.46      1.
  26.96     20.24      1.
  27.06     17.49      1.
  27.16     17.07      1.
  27.26     16.53      1.
  27.36     15.91      1.
  27.46     15.70      1.
  27.56     10.06      1.
  27.66     12.63      1.
  27.76     14.96      1.
  27.86      9.80      1.
  27.96     14.18      1.
  28.06      9.61      1.
  28.17      4.53      1.
  28.27      7.87      1.
  28.38     10.46      1.
  28.48      5.82      1.
  28.58      6.88      1.
  28.69     10.45      1.
  28.80     11.29      1.
  28.90      5.67      1.
  29.01      9.27      1.
  29.12      8.89      1.
  29.23      5.10      1.
  29.34     10.32      1.
  29.45      8.77      1.
  29.56      7.65      1.
  29.67      6.61      1.
  29.78      8.57      1.
  29.90     10.19      1.
  30.01      8.00      1.
  30.12      6.74      1.
  30.24     10.84      1.
  30.35     10.50      1.
  30.47      9.66      1.
  30.59     14.95      1.
  30.70      7.68      1.
  30.82      7.43      1.
  30.94     10.90      1.
  31.06      7.69      1.
  31.18     13.00      1.
  31.30     11.19      1.
  31.42      8.51      1.
  31.54     10.42      1.
  31.67     12.04      1.
  31.79      5.27      1.
  31.91      9.73      1.
  32.04      9.51      1.
  32.16      8.82      1.
  32.29      8.97      1.
  32.42      9.51      1.
  32.55     10.45      1.
  32.68      5.34      1.
  32.81     11.36      1.
  32.94     10.72      1.
  33.07      5.69      1.
  33.20     10.09      1.
  33.33      9.90      1.
  33.46      5.89      1.
  33.60     14.67      1.
  33.73      6.63      1.
  33.87     10.18      1.
  34.01      9.44      1.
  34.14      5.65      1.
  34.28      8.41      1.
  34.42      5.58      1.
  34.56      9.96      1.
  34.70      4.87      1.
  34.84      6.06      1.
  34.99      3.76      1.
  35.13      2.57      1.
  35.27      3.47      1.
  35.42      0.09      1.
  35.57      9.86      1.
  35.71      7.50      1.
  35.86      1.58      1.
  36.01      4.76      1.
  36.16      6.85      1.
  36.31     10.39      1.
  36.46     10.22      1.
  36.62     12.92      1.
  36.77     13.45      1.
  36.93      9.59      1.
  37.08      9.89      1.
  37.24     11.94      1.
  37.40      7.85      1.
  37.55      8.19      1.
  37.71      8.94      1.
  37.87     11.97      1.
  38.04     10.63      1.
  38.20      9.98      1.
  38.36     11.31      1.
  38.53     14.96      1.
  38.69      4.48      1.
  38.86     -0.59      1.
  39.03     -1.89      1.
  39.20     -3.42      1.
  39.37      2.16      1.
  39.54      6.27      1.
  39.71     12.80      1.
  39.89     12.47      1.
  40.06     16.04      1.
  40.24     16.71      1.
  40.41     17.35      1.
  40.59     15.83      1.
  40.77     17.11      1.
  40.95     13.72      1.
  41.13     27.29      1.
  41.32     21.20      1.
  41.50     27.46      1.
  41.69     31.34      1.
  41.87     41.47      1.
  42.06     49.21      1.
  42.25     52.68      1.
  42.44     64.03      1.
  42.63     75.23      1.
  42.83     91.45      1.
  43.02    107.31      1.
  43.22    139.94      1.
  43.41    187.04      1.
  43.61    252.50      1.
  43.81    344.32      1.
  44.20     678.47     2.
  44.40     959.91     2.
  44.60    1535.59     2.
  44.81    2007.31     2.
  45.02    1931.07     2.
  45.23    1470.89     2.
  45.44    1048.25     2.
  45.65     608.87     2.
  45.67    243.34      1.
  45.89    187.65      1.
  46.10    156.42      1.
  46.32    120.45      1.
  46.54     97.96      1.
  46.76     83.53      1.
  46.98     72.62      1.
  47.21     60.39      1.
  47.43     52.77      1.
  47.66     50.02      1.
  47.89     41.11      1.
  48.12     39.89      1.
  48.35     35.66      1.
  48.58     30.26      1.
  48.82     28.44      1.
  49.05     29.21      1.
  49.29     24.31      1.
  49.53     25.21      1.
  49.77     23.77      1.
  50.02     26.14      1.
  50.26     20.65      1.
  50.51     21.09      1.
  50.76     17.44      1.
  51.01     20.66      1.
  51.26     18.43      1.
  51.52     12.69      1.
  51.77     13.82      1.
  52.03     18.02      1.
  52.29     14.54      1.
  52.56     17.10      1.
  52.82     13.07      1.
  53.09     18.27      1.
  53.36     19.13      1.
  53.63     16.37      1.
  53.90     14.58      1.
  54.17     18.62      1.
  54.45     16.16      1.
  54.73     12.52      1.
  55.01     11.95      1.
  55.29     17.92      1.
  55.58     16.89      1.
  55.87     13.85      1.
  56.16     13.59      1.
  56.45     10.95      1.
  56.74     11.27      1.
  57.04     12.35      1.
  57.34     14.09      1.
  57.64     16.72      1.
  57.94     16.96      1.
  58.25     10.58      1.
  58.56     16.89      1.
  58.87     13.65      1.
  59.18     16.40      1.
  59.50     11.73      1.
  59.82     13.23      1.
  60.14     13.97      1.
  60.46     11.60      1.
  60.79     12.76      1.
  61.12      8.32      1.
  61.45      8.51      1.
  61.79     18.37      1.
  62.12      9.78      1.
  62.46     13.56      1.
  62.81     11.39      1.
  63.15      9.61      1.
  63.50     12.69      1.
  63.85      7.82      1.
  64.21      8.47      1.
  64.56     12.06      1.
  64.92      8.91      1.
  65.29     13.80      1.
  65.65     15.16      1.
  66.02     10.77      1.
  66.40      7.20      1.
  66.77     12.42      1.
  67.15      7.87      1.
  67.53     10.62      1.
  67.92      6.73      1.
  68.31     12.92      1.
  68.70      8.56      1.
  69.09      8.91      1.
  69.49     11.10      1.
  69.90     11.66      1.
  70.30     10.75      1.
  70.71      9.98      1.
  71.12     10.13      1.
  71.54     11.78      1.
  71.96      9.57      1.
  72.38      5.04      1.
  72.81     10.70      1.
  73.24      8.59      1.
  73.68     11.86      1.
  74.12      7.46      1.
  74.56      7.77      1.
  75.01     15.57      1.
  75.46      8.89      1.
  75.92     10.17      1.
  76.38     13.43      1.
  76.84     16.36      1.
  77.31      3.76      1.
  77.78     10.85      1.
  78.26     16.58      1.
  78.74     15.20      1.
  79.22      9.44      1.
  79.71     11.72      1.
  80.21     14.91      1.
  80.70     10.98      1.
  81.21     10.68      1.
  81.72     12.33      1.
  82.23      9.27      1.
  82.75      9.93      1.
  83.27      9.15      1.
  83.80     11.87      1.
  84.33      5.04      1.
  84.87      8.31      1.
  85.42     10.47      1.
  85.97      6.65      1.
  86.52      5.75      1.
  87.08     12.86      1.
  87.64      7.56      1.
  88.21     12.30      1.
  88.79     10.39      1.
  89.37      4.98      1.
  89.96     10.63      1.
  90.55      9.56      1.
  91.15      8.81      1.
  91.75      6.36      1.
  92.37      7.28      1.
  92.98     11.77      1.
  93.61      9.75      1.
  94.23      9.47      1.
  94.87      6.92      1.
  95.51     11.28      1.
  96.16     11.09      1.
  96.82     11.16      1.
  97.48      6.90      1.
  98.15      7.04      1.
  98.82      5.43      1.
  99.50      4.87      1.
 100.20     11.87      1.
 100.89      8.86      1.
 101.60      8.17      1.
 102.31      9.94      1.
 103.03      9.62      1.
 103.76      3.05      1.
 104.49      7.40      1.
 105.24      8.46      1.
 105.99      7.53      1.
 106.74     11.54      1.
 107.51     13.37      1.
 108.29     11.09      1.
 109.07      7.74      1.
 109.86     10.83      1.
 110.66     10.37      1.
 111.47     12.33      1.
 112.29     10.70      1.
 113.12      3.78      1.
 113.96      5.89      1.
 114.80      8.15      1.
 115.66      7.55      1.
 116.52      7.33      1.
 117.40      4.42      1.
 118.28      9.09      1.
 119.18      9.66      1.
 120.08     11.69      1.
 121.00      6.47      1.
 121.92     11.53      1.
 122.86     10.41      1.
 123.81     11.10      1.
 124.76      7.63      1.
 125.73     15.24      1.
 126.71     20.97      1.
 127.71     33.23      1.
 128.71     63.20      1.
 129.73    109.76      1.
 130.75    128.05      1.
 131.79    105.43      1.
 132.85     58.97      1.
 133.91     31.41      1.
 134.99     18.86      1.
 136.08     14.52      1.
 137.19     17.16      1.
 138.30     15.47      1.
 139.44     10.59      1.
 140.58      7.73      1.
 141.74     11.34      1.
 142.92      7.37      1.
 144.10     14.13      1.
 145.31     11.72      1.
 146.53     11.51      1.
 147.76     10.33      1.
 149.01     10.94      1.
 150.28     11.74      1.
 151.56     13.72      1.
 152.86     12.01      1.
 154.17     11.71      1.
 155.51     17.92      1.
 156.86     21.44      1.
 158.22     26.47      1.
 159.61     23.65      1.
 161.01     22.00      1.
 162.44     17.51      1.
 163.88     14.89      1.
 165.34     11.78      1.
 166.82      8.70      1.
 168.32     11.15      1.
 169.84     12.10      1.
 171.38      8.10      1.
 172.94      7.32      1.
 174.53     10.68      1.
 176.13     12.77      1.
 177.76     18.79      1.
 179.41     24.06      1.
 181.08     36.99      1.
 182.78     42.02      1.
 184.50     31.07      1.
 186.25     24.32      1.
 188.02     17.27      1.
 189.81     12.65      1.
 191.64     19.80      1.
 193.48     10.86      1.
 195.36     15.77      1.
 197.26     12.94      1.
 199.19     17.20      1.
ENDDATA            811
ENDSUBENT          827
SUBENT        10404003   20181102   20190110   20190109       1444
BIB                  4         12
REACTION   (41-NB-94(N,TOT),,SIG)
            Includes 95Nb contribution
SAMPLE     Isotopic composition of sample: 93Nb (90.8%),
             94Nb (4.23%), 95Nb (0.11%), 95Mo (4.0%), 96Mo (1.0%).
           Sample thickness 185.2 b/atom.
           (41-NB-94,ENR=0.0423)
           (41-NB-93,ENR=0.908)
           (41-NB-95,ENR=0.0011)
           (41-NB-96,ENR=0.04)
           (41-NB-97,ENR=0.01)
ERR-ANALYS No information on uncertainties.
STATUS     (TABLE) Data received on magnetic tape.
ENDBIB              12
NOCOMMON             0          0
DATA                 2         66
EN         DATA
EV         B
  0.51101    16.40
  0.52757    16.93
  0.55396    16.90
  0.58177    15.79
  0.61107    17.13
  0.64192    16.99
  0.67364    17.20
  0.70695    16.80
  0.74279    16.18
  0.78047    15.75
  0.81903    15.75
  0.85943    16.60
  0.90289    15.95
  0.94845    16.14
  0.99617    14.84
  1.04611    14.03
  1.09830    14.85
  1.15279    14.69
  1.20959    15.12
  1.27070    15.69
  1.33442    15.21
  1.40076    15.44
  1.46970    15.29
  1.54387    13.82
  1.62093    15.36
  1.70084    13.31
  1.78681    14.20
  1.87591    14.07
  1.97184    14.37
  2.07119    14.48
  2.17380    14.88
  2.28424    14.58
  2.39816    15.36
  2.51529    14.36
  2.64122    13.25
  2.77046    14.95
  2.90943    13.05
  3.05912    14.80
  3.21268    12.76
  3.36954    14.62
  3.53817    14.74
  3.71978    15.05
  3.90505    15.43
  4.10451    14.35
  4.30725    14.80
  4.51212    15.55
  4.73196    12.91
  4.96826    14.51
  5.22272    14.05
  5.49724    13.96
  5.77474    12.97
  6.05314    13.85
  6.35217    14.22
  6.67392    15.08
  7.02076    13.63
  7.36761    14.19
  7.71111    17.51
  8.11106    15.24
  8.54295    16.99
  8.97299    16.03
  9.39637    17.68
  9.85043    21.31
 10.33823    22.91
 10.86317    66.71
 11.42914   316.16
 11.98293   311.36
ENDDATA             68
ENDSUBENT           85
SUBENT        10404004   20181102   20190110   20190109       1444
BIB                  4          9
REACTION   (41-NB-94(N,TOT),,SIG)
SAMPLE     (41-NB-94,ENR=0.0423)
           (41-NB-93,ENR=0.908)
           (41-NB-95,ENR=0.0011)
           (41-NB-96,ENR=0.04)
           (41-NB-97,ENR=0.01)
           Sample thickness 7.60 b/atom.
ERR-ANALYS No information on uncertainties.
STATUS     (TABLE) Data received on magnetic tape.
ENDBIB               9
NOCOMMON             0          0
DATA                 2         50
EN         DATA
EV         B
 0.00119    10.59
 0.00125    10.25
 0.00132     9.87
 0.00138     9.91
 0.00145     9.65
 0.00152     9.56
 0.00160     9.41
 0.00168     9.20
 0.00176     9.08
 0.00185     8.73
 0.00194     8.63
 0.00204     8.45
 0.00214     8.28
 0.00225     8.04
 0.00236     7.94
 0.00248     7.73
 0.00260     7.56
 0.00273     7.47
 0.00287     7.28
 0.00301     7.26
 0.00317     7.12
 0.00332     7.00
 0.00348     6.98
 0.00365     7.46
 0.00384    14.94
 0.00404    14.33
 0.00424    12.66
 0.00444    11.74
 0.00466    11.13
 0.00490    10.26
 0.00515    10.17
 0.00541    10.22
 0.00569     9.96
 0.00598     9.62
 0.00626     9.37
 0.00656     9.19
 0.00691     8.98
 0.00725     8.89
 0.00759     9.15
 0.00799     9.11
 0.00842     8.97
 0.00882     8.92
 0.00924     8.83
 0.00973     8.74
 0.01022     8.75
 0.01070     8.73
 0.01121     9.62
 0.01176    10.87
 0.01235    10.72
 0.01299    10.58
ENDDATA             52
ENDSUBENT           66
SUBENT        10404005   20181102   20190110   20190109       1444
BIB                  4          9
REACTION   (41-NB-94(N,TOT),,SIG)
SAMPLE     (41-NB-94,ENR=0.0423)
           (41-NB-93,ENR=0.908)
           (41-NB-95,ENR=0.0011)
           (41-NB-96,ENR=0.04)
           (41-NB-97,ENR=0.01)
           Sample thickness 7.60 b/atom.
ERR-ANALYS No information on uncertainties.
STATUS     (TABLE) Data received on magnetic tape.
ENDBIB               9
NOCOMMON             0          0
DATA                 2        130
EN         DATA
EV         B
 0.00607     9.94
 0.00637     9.72
 0.00669     9.18
 0.00701     9.18
 0.00736     8.96
 0.00774     9.13
 0.00813     9.10
 0.00854     8.96
 0.00897     8.80
 0.00942     8.65
 0.00988     8.65
 0.01038     8.61
 0.01089     8.49
 0.01144     9.73
 0.01203    10.46
 0.01263    10.38
 0.01325    10.22
 0.01392    10.23
 0.01463    10.01
 0.01537    10.78
 0.01611    10.33
 0.01691     9.67
 0.01776     9.19
 0.01863     8.83
 0.01957     9.15
 0.02057     8.84
 0.02159     8.76
 0.02261     8.57
 0.02378     8.46
 0.02504     8.23
 0.02623     8.24
 0.02749     9.11
 0.02896     8.84
 0.03043     8.51
 0.03189     8.32
 0.03346     8.15
 0.03515     8.43
 0.03696     8.15
 0.03876     8.18
 0.04068     8.15
 0.04276     8.08
 0.04478     7.99
 0.04696     8.02
 0.04929     8.06
 0.05181     8.27
 0.05452     8.01
 0.05714     7.88
 0.05996     7.83
 0.06300     7.76
 0.06627     7.71
 0.06981     7.71
 0.07319     7.72
 0.07682     7.71
 0.08074     7.68
 0.08496     7.63
 0.08893     7.58
 0.09318     7.46
 0.09775     7.47
 0.10266     7.48
 0.10796     7.48
 0.11283     7.44
 0.11893     7.38
 0.12555     7.37
 0.13167     7.33
 0.13826     7.34
 0.14534     7.35
 0.15167     7.31
 0.15843     7.30
 0.16715     7.27
 0.17660     7.28
 0.18511     7.30
 0.19425     7.20
 0.20408     7.20
 0.21249     7.17
 0.22376     7.30
 0.23595     7.30
 0.24643     7.23
 0.25763     7.12
 0.27273     7.15
 0.28921     7.16
 0.30348     7.04
 0.31884     7.12
 0.33540     7.08
 0.34867     7.18
 0.36276     7.03
 0.38290     7.08
 0.40477     7.03
 0.42242     7.06
 0.44126     6.92
 0.46840     7.03
 0.49043     7.11
 0.51405     7.01
 0.53943     6.85
 0.56673     6.97
 0.59615     6.89
 0.62793     6.98
 0.66231     6.90
 0.68683     6.93
 0.72624     6.83
 0.76915     7.13
 0.79990     6.92
 0.83253     6.87
 0.86720     6.84
 0.92340     6.94
 0.98526     6.88
 1.03002     6.87
 1.07790     6.89
 1.12919     6.88
 1.18423     6.94
 1.24340     6.83
 1.30712     6.88
 1.37587     6.81
 1.45018     6.75
 1.53068     6.81
 1.61808     6.76
 1.71318     6.88
 1.81692     6.92
 1.93037     6.86
 2.05479     6.83
 2.19164     6.76
 2.34263     6.79
 2.50978     6.72
 2.69548     6.81
 2.90257     6.76
 3.13449     6.76
 3.39535     6.74
 3.69018     6.77
 4.02516     6.66
 4.40790     6.68
 4.84795     6.87
ENDDATA            132
ENDSUBENT          146
SUBENT        10404006   20181102   20190110   20190109       1444
BIB                  4          4
REACTION   (41-NB-93(N,TOT),,SIG)
SAMPLE     Natural Nb metal, sample thickness 8.29 b/atom.
ERR-ANALYS No information on uncertainties.
STATUS     (TABLE) Data received on magnetic tape.
ENDBIB               4
NOCOMMON             0          0
DATA                 2        220
EN         DATA
EV         B
 0.00119    5.78
 0.00125    5.72
 0.00132    5.45
 0.00138    5.28
 0.00145    5.17
 0.00152    5.06
 0.00160    4.91
 0.00168    4.92
 0.00176    4.79
 0.00185    4.59
 0.00194    4.48
 0.00204    4.31
 0.00214    4.25
 0.00225    4.16
 0.00236    4.04
 0.00248    3.97
 0.00260    3.86
 0.00273    3.75
 0.00287    3.68
 0.00301    3.61
 0.00317    3.53
 0.00332    3.43
 0.00348    3.34
 0.00365    3.60
 0.00384    6.17
 0.00404    5.31
 0.00424    5.05
 0.00444    4.82
 0.00466    4.60
 0.00490    4.03
 0.00515    4.34
 0.00541    4.63
 0.00569    4.58
 0.00598    4.44
 0.00607    5.04
 0.00626    4.24
 0.00637    4.68
 0.00656    4.16
 0.00669    4.40
 0.00691    4.05
 0.00701    4.38
 0.00725    4.00
 0.00736    4.38
 0.00759    4.20
 0.00774    4.31
 0.00799    4.05
 0.00813    4.19
 0.00842    4.00
 0.00854    4.15
 0.00882    3.94
 0.00897    4.00
 0.00924    3.87
 0.00942    3.95
 0.00973    3.91
 0.00988    4.01
 0.01022    4.02
 0.01038    4.02
 0.01070    3.98
 0.01089    3.94
 0.01121    4.69
 0.01144    4.85
 0.01176    5.29
 0.01203    5.15
 0.01235    5.20
 0.01263    5.09
 0.01299    5.19
 0.01325    5.02
 0.01368    5.33
 0.01392    5.16
 0.01434    5.56
 0.01463    5.29
 0.01506    6.07
 0.01537    5.97
 0.01583    5.98
 0.01611    5.75
 0.01656    5.62
 0.01691    5.30
 0.01746    5.38
 0.01776    5.07
 0.01842    5.32
 0.01863    5.02
 0.01935    5.55
 0.01957    5.35
 0.02022    5.57
 0.02057    5.27
 0.02115    5.56
 0.02159    5.31
 0.02229    5.41
 0.02261    5.23
 0.02337    5.32
 0.02378    5.16
 0.02452    5.24
 0.02504    5.11
 0.02577    5.48
 0.02623    5.23
 0.02711    6.00
 0.02749    6.02
 0.02857    5.82
 0.02896    5.83
 0.02990    5.64
 0.03043    5.68
 0.03134    5.46
 0.03189    5.62
 0.03288    5.39
 0.03346    5.56
 0.03454    5.59
 0.03515    5.94
 0.03632    5.51
 0.03696    5.79
 0.03825    5.47
 0.03876    5.93
 0.03998    5.43
 0.04068    5.98
 0.04182    5.36
 0.04276    5.97
 0.04421    5.28
 0.04478    5.93
 0.04637    5.33
 0.04696    6.06
 0.04868    5.38
 0.04929    6.18
 0.05117    5.43
 0.05181    6.44
 0.05330    5.29
 0.05452    6.24
 0.05616    5.21
 0.05714    6.25
 0.05925    5.18
 0.05996    6.29
 0.06191    5.13
 0.06300    6.24
 0.06476    5.09
 0.06627    6.27
 0.06780    5.15
 0.06981    6.26
 0.07107    5.21
 0.07319    6.36
 0.07458    5.33
 0.07682    6.42
 0.07836    5.42
 0.08074    6.45
 0.08242    5.47
 0.08496    6.47
 0.08682    5.52
 0.08893    6.44
 0.09158    5.62
 0.09318    6.37
 0.09673    5.72
 0.09775    6.40
 0.10089    5.82
 0.10266    6.40
 0.10533    5.99
 0.10796    6.51
 0.11171    6.17
 0.11283    6.49
 0.11688    6.23
 0.11893    6.44
 0.12243    6.33
 0.12555    6.46
 0.12837    6.41
 0.13167    6.43
 0.13476    6.52
 0.13826    6.47
 0.14164    6.69
 0.14534    6.51
 0.14906    6.69
 0.15167    6.48
 0.15843    6.48
 0.16715    6.45
 0.17660    6.40
 0.18511    6.49
 0.19425    6.49
 0.20408    6.51
 0.21249    6.47
 0.22376    6.55
 0.23595    6.50
 0.24643    6.55
 0.25763    6.53
 0.27273    6.53
 0.28921    6.50
 0.30348    6.49
 0.31884    6.44
 0.33540    6.50
 0.34867    6.63
 0.36276    6.44
 0.38290    6.53
 0.40477    6.57
 0.42242    6.56
 0.44126    6.48
 0.46840    6.49
 0.49043    6.46
 0.51405    6.55
 0.53943    6.40
 0.56673    6.51
 0.59615    6.38
 0.62793    6.53
 0.66231    6.54
 0.68683    6.42
 0.72624    6.35
 0.76915    6.44
 0.79990    6.48
 0.83253    6.66
 0.86720    6.35
 0.92340    6.51
 0.98526    6.57
 1.03002    6.57
 1.07790    6.42
 1.12919    6.53
 1.18423    6.47
 1.24340    6.61
 1.30712    6.54
 1.37587    6.41
 1.45018    6.38
 1.53068    6.39
 1.61808    6.42
 1.71318    6.56
 1.81692    6.53
 1.93037    6.38
 2.05479    6.68
 2.19164    6.41
ENDDATA            222
ENDSUBENT          231
SUBENT        10404007   20181102   20190110   20190109       1444
BIB                  4          4
REACTION   (41-NB-93(N,G)41-NB-94,,SIG)
ERR-ANALYS (DATA-ERR) No information on source of uncertainties.
STATUS     (TABLE) Data Taken from IN-1407.
HISTORY    (20181014A) REACTION SF3 changed to G
ENDBIB               4
NOCOMMON             0          0
DATA                 3          1
EN         DATA       DATA-ERR
EV         B          B
 0.0253     1.2        0.2
ENDDATA              3
ENDSUBENT           12
SUBENT        10404008   20181102   20190110   20190109       1444
BIB                  4          5
REACTION   (41-NB-94(N,G)41-NB-95,,SIG)
ERR-ANALYS (DATA-ERR) No information on source of uncertainties.
STATUS     (TABLE) Data Taken from IN-1407.
HISTORY    (20030207A) Data from thesis replaced.
           (20181014A) REACTION SF3 changed to G
ENDBIB               5
NOCOMMON             0          0
DATA                 3          1
EN         DATA       DATA-ERR
EV         B          B
 0.0253     15.        7.
ENDDATA              3
ENDSUBENT           13
SUBENT        10404009   20181102   20190110   20190109       1444
BIB                  6          9
REACTION  1(41-NB-94(N,EL),,WID/RED)
          2(41-NB-94(N,G),,WID)
ANALYSIS   (SLA) Single-level Breit-Wigner analysis using ACSAP
            program.
ASSUMED    (ASSUM,41-NB-94(N,G),,WID)
ERR-ANALYS (DATA-ERR) No information on source of uncertainties.
STATUS     (TABLE) Data Taken from IN-1407.
HISTORY    (20030207A) Data for subentries 9-11 from thesis
                       replaced.
ENDBIB               9
COMMON               1          3
MOMENTUM L
NO-DIM
 0.
ENDCOMMON            3
DATA                 6          2
EN-RES     DATA      1DATA-ERR  1DATA      2DATA-ERR  2ASSUM
EV         MILLI-EV   MILLI-EV   MILLI-EV   MILLI-EV   MILLI-EV
 11.58       1.8        0.1       165.        20.
 22.78       0.19       0.02                            165.
ENDDATA              4
ENDSUBENT           22
NOSUBENT      10404010   20030207   20030306   20050926       0000
NOSUBENT      10404011   20030207   20030306   20050926       0000
SUBENT        10404012   20030207   20030306   20050926       0000
BIB                  3          8
REACTION  1(42-MO-95(N,TOT),,WID)
          2(42-MO-95(N,EL),,WID)
          3(42-MO-95(N,EL),,WID/RED)
          4(42-MO-95(N,G),,WID)
ANALYSIS   (AREA) Area analysis. Since the amount of 95Mo in
            the thick and thin samples is not well known, the
            accuracy of these parameters is limited.
ERR-ANALYS No information on uncertainties.
ENDBIB               8
COMMON               1          3
MOMENTUM L
NO-DIM
 0.
ENDCOMMON            3
DATA                 5          1
EN-RES     DATA      1DATA      2DATA      3DATA      4
EV         MILLI-EV   MILLI-EV   MILLI-EV   MILLI-EV
 44.62      417.       181.0       27.1      236.
ENDDATA              3
ENDSUBENT           20
ENDENTRY            12
