ENTRY            10410   20110812   20111215   20111113       1374
SUBENT        10410001   20110812   20111215   20111113       1374
BIB                 11         17
INSTITUTE  (1USACOL)
REFERENCE  (J,PR/C,11,457,197502)
AUTHOR     (H.I.Liou,J.Rainwater,G.Hacken,U.N.Singh)
TITLE      Neutron resonance spectroscopy: Argon
FACILITY   (SYNCH,1USACOL) Nevis synchrocyclotron
SAMPLE     Natural argon
METHOD     (TOF) Time-of-flight
DETECTOR   (NAICR) Sodium-iodide crystals for viewing a boron slab
CORRECTION Data corrected for background and air in sample
            container.
STATUS     (APRVD) H.I.Liou, 1983/8/3.
HISTORY    (19750820C)
           (19830527A) Converted to REACTION formalism
           (19830811U) BIB correction
           (20030207A) Updated to new date formats, lower case.
           (20110812A) SD: in Subent 004 one REACTION added.
           Cosmetic corrections: (TABLE) added to STATUS.
ENDBIB              17
NOCOMMON             0          0
ENDSUBENT           20
SUBENT        10410002   20110812   20111215   20111113       1374
BIB                  3          5
REACTION  1(18-AR-40(N,0),,EN)
          2(18-AR-40(N,EL),,WID)
          3(18-AR-40(N,0),,L)
ERR-ANALYS (DATA-ERR) No information on source of uncertainties.
STATUS     (TABLE) Data taken from table I in PR/C,11,457,1975.
ENDBIB               5
NOCOMMON             0          0
DATA                 5          6
DATA      1DATA-ERR  1DATA      2DATA-ERR  2DATA      3
KEV        KEV        KEV        KEV        NO-DIM
 76.2      0.4        5.5        0.4         0.
171.7      0.5        4.5        0.4         0.
219.4      0.5        1.8        0.2         0.
254.3      0.5        3.4        0.4         0.
267.6      0.5        0.52       0.12        0.
390.6      0.9        1.4        0.3         0.
ENDDATA              8
ENDSUBENT           18
SUBENT        10410003   20110812   20111215   20111113       1374
BIB                  3          6
REACTION  1(18-AR-40(N,0),,EN)
          2(18-AR-40(N,EL),,WID,,G)
          3(18-AR-40(N,0),,J)
          4(18-AR-40(N,0),,L)
ERR-ANALYS (DATA-ERR) No information on source of uncertainties.
STATUS     (TABLE) Data taken from Table II in PR/C,11,457,1975.
ENDBIB               6
NOCOMMON             0          0
DATA                 6         18
DATA      1DATA-ERR  1DATA      2DATA-ERR  2DATA      3DATA      4
KEV        KEV        EV         EV         NO-DIM     NO-DIM
 11.17     0.01          0.14      0.03                 1.
 17.95     0.02          0.42      0.07                 1.
 59.25     0.05          5.9       0.8                  1.
115.7      0.2         390.       50.       0.5         1.
180.4      0.3         220.       50.                   1.
192.8      0.3          90.       25.                   1.
274.7      0.5         260.       80.                   1.
296.9      0.6         300.       90.                   1.
301.1      0.6         150.       50.                   1.
340.8      0.7         720.      100.       1.5         1.
363.0      0.8         105.       35.                   1.
371.3      0.8         740.      160.                   1.
401.7      0.9         410.      120.                   1.
455.4      1.1         530.      140.                   1.
469.3      1.1        1700.      400.       1.5         1.
531.6      1.4         520.      150.                   1.
552.8      1.4         300.       90.                   1.
569.3      1.5        2700.      800.                   1.
ENDDATA             20
ENDSUBENT           31
SUBENT        10410004   20110812   20111215   20111113       1374
BIB                  4          9
REACTION  1(18-AR-40(N,0),,D)
          2(18-AR-40(N,EL),,STF)
          3(18-AR-40(N,0),,L)
ERR-ANALYS (DATA-ERR) No information on source of uncertainties.
STATUS     (TABLE) Data taken from reference text
                                             of PR/C,11,457,1975.
HISTORY    (20030207A) Subentries 4,5 combined.
           (20110812A) EN-MAX changed to EN-RES-MAX, EN-RES-MIN
             added. REACTION 3 added.
ENDBIB               9
NOCOMMON             0          0
DATA                10          2
EN-RES-MAX EN-RES-MIN MOMENTUM L DATA      1+DATA-ERR 1-DATA-ERR 1
DATA      2+DATA-ERR 2-DATA-ERR 2DATA      3
KEV        KEV        NO-DIM     KEV        KEV        KEV
NO-DIM     NO-DIM     NO-DIM     NO-DIM
 596.        76.2       0.         87.        13.        11.
   0.91E-04   0.77E-04   0.37E-04   0.
569.3        11.17      1.         24.         5.         4.
   0.33E-04   0.14E-04   0.09E-04   1.
ENDDATA              8
ENDSUBENT           22
NOSUBENT      10410005   20030207   20030306   20050926       0000
SUBENT        10410006   20110812   20111215   20111113       1374
BIB                  4          6
REACTION   (18-AR-0(N,TOT),,SIG)
ERR-ANALYS No information on uncertainties.
STATUS     (TABLE) Data received on magnetic tape from Liou,
                                                      April 1974.
HISTORY    (19790625A) BIB correction
           (19830606A) Data compiled
ENDBIB               6
NOCOMMON             0          0
DATA                 2       6178
EN         DATA
KEV        B
   1.00022   0.881
   1.00109   0.931
   1.00195   0.896
   1.00282   0.646
   1.00369   0.629
   1.00456   1.010
   1.00544   0.463
   1.00631   0.679
   1.00719   0.613
   1.00806   0.618
   1.00894   0.638
   1.00982   0.745
   1.01070   0.859
   1.01158   0.767
   1.01246   0.800
   1.01334   0.865
   1.01422   0.363
   1.01511   0.668
   1.01600   0.989
   1.01688   0.616
   1.01777   0.646
   1.01866   0.812
   1.01955   0.926
   1.02044   0.729
   1.02134   0.746
   1.02223   0.559
   1.02313   0.663
   1.02402   0.584
   1.02492   0.597
   1.02582   0.948
   1.02672   0.310
   1.02762   0.875
   1.02852   0.793
   1.02943   0.595
   1.03033   1.032
   1.03124   0.872
   1.03215   0.669
   1.03306   0.516
   1.03397   0.749
   1.03488   0.681
   1.03579   0.592
   1.03670   0.555
   1.03762   0.712
   1.03853   0.750
   1.03945   0.766
   1.04037   0.763
   1.04129   0.421
   1.04221   0.946
   1.04313   0.852
   1.04405   0.861
   1.04498   0.996
   1.04590   0.922
   1.04683   0.678
   1.04776   0.893
   1.04869   1.016
   1.04962   0.392
   1.05055   1.140
   1.05148   0.669
   1.05242   0.819
   1.05335   0.513
   1.05429   0.715
   1.05523   0.774
   1.05617   0.585
   1.05711   0.884
   1.05805   0.550
   1.05899   0.548
   1.05994   0.893
   1.06088   0.763
   1.06183   0.601
   1.06278   0.562
   1.06373   0.463
   1.06468   0.502
   1.06563   0.834
   1.06658   0.549
   1.06754   0.492
   1.06849   0.710
   1.06945   0.984
   1.07041   0.650
   1.07137   0.381
   1.07233   0.664
   1.07329   0.821
   1.07425   0.895
   1.07522   0.865
   1.07619   0.913
   1.07715   0.945
   1.07812   0.877
   1.07909   0.514
   1.08006   0.708
   1.08104   0.672
   1.08201   0.615
   1.08298   0.601
   1.08396   0.992
   1.08494   0.876
   1.08592   0.922
   1.08690   1.022
   1.08788   0.966
   1.08886   0.598
   1.08985   0.517
   1.09083   0.717
   1.09182   0.756
   1.09281   0.645
   1.09380   0.690
   1.09479   0.585
   1.09578   0.775
   1.09678   0.675
   1.09777   0.722
   1.09877   0.413
   1.09977   0.821
   1.10077   0.873
   1.10177   0.679
   1.10277   1.246
   1.10377   0.714
   1.10478   0.697
   1.10578   0.537
   1.10679   0.919
   1.10780   0.717
   1.10881   0.653
   1.10982   0.764
   1.11084   0.784
   1.11185   0.704
   1.11287   0.622
   1.11388   0.614
   1.11490   0.714
   1.11592   0.516
   1.11694   0.247
   1.11797   0.436
   1.11899   0.522
   1.12002   0.478
   1.12104   0.770
   1.12207   0.791
   1.12310   0.710
   1.12413   0.493
   1.12517   0.602
   1.12620   0.938
   1.12724   0.584
   1.12827   0.841
   1.12931   0.978
   1.13035   0.596
   1.13139   0.976
   1.13244   0.729
   1.13348   0.397
   1.13453   0.540
   1.13557   0.584
   1.13662   0.661
   1.13767   0.806
   1.13872   1.068
   1.13978   0.785
   1.14083   0.543
   1.14189   0.395
   1.14294   0.349
   1.14400   0.909
   1.14506   0.602
   1.14612   0.411
   1.14719   0.764
   1.14825   0.845
   1.14932   0.884
   1.15039   0.879
   1.15145   0.956
   1.15253   0.640
   1.15360   0.482
   1.15467   0.757
   1.15575   1.028
   1.15682   0.635
   1.15790   0.840
   1.15898   0.741
   1.16006   0.974
   1.16115   0.758
   1.16223   0.446
   1.16332   0.660
   1.16440   0.616
   1.16549   0.755
   1.16658   0.690
   1.16767   0.784
   1.16877   0.767
   1.16986   0.756
   1.17096   0.849
   1.17206   0.920
   1.17315   0.387
   1.17426   0.448
   1.17536   0.482
   1.17646   0.777
   1.17757   0.910
   1.17868   0.735
   1.17979   0.723
   1.18090   0.738
   1.18201   0.632
   1.18312   0.743
   1.18424   0.454
   1.18535   0.417
   1.18647   0.959
   1.18759   0.466
   1.18871   0.842
   1.18984   0.734
   1.19096   0.503
   1.19209   0.520
   1.19321   0.871
   1.19434   0.460
   1.19547   0.575
   1.19661   1.053
   1.19774   0.516
   1.19888   0.688
   1.20002   0.490
   1.20115   0.858
   1.20230   0.864
   1.20344   1.180
   1.20458   0.607
   1.20573   0.744
   1.20687   0.573
   1.20802   0.527
   1.20917   0.713
   1.21033   0.579
   1.21148   0.482
   1.21264   0.604
   1.21379   0.621
   1.21495   0.739
   1.21611   0.790
   1.21727   0.769
   1.21844   0.624
   1.21960   0.349
   1.22077   0.640
   1.22194   0.358
   1.22311   0.458
   1.22428   1.054
   1.22546   0.839
   1.22663   0.612
   1.22781   0.597
   1.22899   0.769
   1.23017   0.949
   1.23135   0.631
   1.23253   0.887
   1.23372   0.833
   1.23491   0.652
   1.23610   0.734
   1.23729   0.850
   1.23848   0.984
   1.23967   1.075
   1.24087   0.984
   1.24207   0.839
   1.24327   0.625
   1.24447   0.661
   1.24567   0.520
   1.24688   0.737
   1.24808   0.785
   1.24929   0.582
   1.25050   0.697
   1.25171   0.611
   1.25293   0.637
   1.25414   1.029
   1.25536   0.756
   1.25658   0.724
   1.25780   1.168
   1.25902   0.811
   1.26024   1.048
   1.26147   0.753
   1.26270   0.685
   1.26393   0.770
   1.26516   0.743
   1.26639   0.793
   1.26763   0.318
   1.26886   0.979
   1.27010   1.029
   1.27134   1.046
   1.27258   0.792
   1.27383   0.999
   1.27508   0.626
   1.27632   0.656
   1.27757   0.402
   1.27882   0.800
   1.28008   0.500
   1.28133   0.769
   1.28259   0.471
   1.28385   0.259
   1.28511   0.983
   1.28637   0.770
   1.28763   0.715
   1.28890   0.551
   1.29017   0.228
   1.29144   0.856
   1.29271   0.216
   1.29398   0.520
   1.29526   0.618
   1.29654   0.412
   1.29782   0.692
   1.29910   0.865
   1.30038   0.578
   1.30167   0.409
   1.30295   0.418
   1.30424   0.633
   1.30553   0.733
   1.30683   0.435
   1.30812   0.736
   1.30942   0.401
   1.31071   0.817
   1.31202   0.568
   1.31332   0.678
   1.31462   0.524
   1.31593   1.055
   1.31723   0.833
   1.31855   0.602
   1.31986   0.982
   1.32117   0.910
   1.32249   0.552
   1.32381   0.831
   1.32513   0.921
   1.32645   0.970
   1.32777   0.288
   1.32910   0.559
   1.33042   1.017
   1.33176   0.785
   1.33309   0.880
   1.33442   0.519
   1.33576   0.704
   1.33709   0.870
   1.33843   0.841
   1.33978   0.539
   1.34112   0.659
   1.34247   0.846
   1.34381   0.839
   1.34516   0.587
   1.34652   0.598
   1.34787   0.930
   1.34923   0.949
   1.35058   0.533
   1.35194   0.794
   1.35331   0.583
   1.35467   1.086
   1.35604   0.593
   1.35740   0.870
   1.35878   0.302
   1.36015   0.682
   1.36152   0.506
   1.36290   0.925
   1.36428   0.734
   1.36566   0.560
   1.36704   0.430
   1.36843   0.578
   1.36981   1.272
   1.37120   0.699
   1.37259   0.720
   1.37399   0.836
   1.37538   0.401
   1.37678   0.950
   1.37818   0.819
   1.37958   0.692
   1.38099   0.755
   1.38239   0.890
   1.38380   0.828
   1.38521   0.736
   1.38662   0.846
   1.38804   0.851
   1.38946   0.800
   1.39088   0.578
   1.39230   0.914
   1.39372   0.756
   1.39515   0.769
   1.39658   0.557
   1.39801   0.771
   1.39944   0.852
   1.40087   0.415
   1.40231   0.650
   1.40375   0.850
   1.40519   0.626
   1.40663   0.892
   1.40808   1.032
   1.40953   0.619
   1.41098   1.097
   1.41243   0.527
   1.41388   1.147
   1.41534   0.474
   1.41680   0.758
   1.41826   0.672
   1.41973   0.596
   1.42119   0.594
   1.42266   0.503
   1.42413   0.918
   1.42560   0.704
   1.42708   0.650
   1.42856   0.619
   1.43003   0.939
   1.43152   1.253
   1.43300   0.958
   1.43449   0.844
   1.43598   0.663
   1.43747   0.636
   1.43896   0.692
   1.44046   0.801
   1.44196   0.872
   1.44346   0.813
   1.44496   0.574
   1.44646   0.521
   1.44797   0.623
   1.44948   0.534
   1.45099   0.561
   1.45251   0.667
   1.45402   0.583
   1.45555   0.651
   1.45707   0.466
   1.45859   0.869
   1.46012   0.825
   1.46165   0.557
   1.46318   0.550
   1.46471   0.890
   1.46625   0.888
   1.46779   0.510
   1.46933   0.609
   1.47087   0.919
   1.47242   0.691
   1.47396   0.671
   1.47552   0.563
   1.47707   0.727
   1.47863   0.725
   1.48018   0.698
   1.48174   1.066
   1.48331   0.485
   1.48487   0.627
   1.48644   0.827
   1.48801   0.755
   1.48958   0.726
   1.49116   0.632
   1.49274   0.840
   1.49432   0.728
   1.49590   0.531
   1.49749   0.545
   1.49907   0.864
   1.50066   0.954
   1.50226   1.044
   1.50385   1.009
   1.50545   0.550
   1.50705   0.786
   1.50865   0.629
   1.51026   0.701
   1.51187   0.406
   1.51348   0.760
   1.51509   0.513
   1.51671   0.941
   1.51833   0.889
   1.51995   0.360
   1.52157   0.998
   1.52320   0.617
   1.52483   0.873
   1.52646   0.340
   1.52810   0.406
   1.52973   0.779
   1.53137   0.532
   1.53302   0.488
   1.53466   0.652
   1.53631   0.983
   1.53796   0.738
   1.53961   0.600
   1.54127   0.767
   1.54293   0.879
   1.54459   0.695
   1.54625   0.843
   1.54792   0.822
   1.54958   0.768
   1.55126   0.635
   1.55293   0.699
   1.55461   0.843
   1.55629   0.640
   1.55797   0.513
   1.55966   0.476
   1.56134   0.513
   1.56303   0.373
   1.56473   0.520
   1.56642   0.495
   1.56812   0.391
   1.56983   0.712
   1.57153   0.540
   1.57324   0.929
   1.57495   0.675
   1.57666   0.737
   1.57838   0.909
   1.58009   0.827
   1.58181   0.741
   1.58354   0.965
   1.58527   0.900
   1.58700   0.804
   1.58873   0.684
   1.59046   1.144
   1.59220   0.361
   1.59394   0.740
   1.59569   0.750
   1.59743   0.988
   1.59918   0.898
   1.60094   0.993
   1.60269   0.831
   1.60445   0.781
   1.60621   0.716
   1.60798   0.982
   1.60974   0.617
   1.61151   0.931
   1.61329   0.603
   1.61506   0.760
   1.61684   0.679
   1.61862   0.815
   1.62041   0.754
   1.62220   0.569
   1.62399   0.785
   1.62578   0.896
   1.62757   0.651
   1.62938   0.677
   1.63118   0.642
   1.63298   0.714
   1.63479   0.489
   1.63660   0.698
   1.63842   0.379
   1.64023   0.644
   1.64206   0.832
   1.64388   0.461
   1.64570   0.998
   1.64754   0.852
   1.64937   0.478
   1.65120   0.836
   1.65304   0.829
   1.65488   0.695
   1.65673   0.586
   1.65858   0.617
   1.66043   0.776
   1.66228   0.572
   1.66414   0.741
   1.66600   0.683
   1.66786   0.816
   1.66973   1.044
   1.67160   0.829
   1.67347   0.944
   1.67535   1.003
   1.67723   0.683
   1.67911   0.509
   1.68100   0.552
   1.68289   0.559
   1.68478   0.404
   1.68667   0.484
   1.68857   0.591
   1.69047   0.517
   1.69238   0.743
   1.69429   0.947
   1.69620   0.692
   1.69811   1.215
   1.70003   0.920
   1.70195   0.366
   1.70388   0.880
   1.70580   0.439
   1.70773   0.642
   1.70967   0.482
   1.71160   0.855
   1.71355   0.656
   1.71549   0.798
   1.71744   0.653
   1.71939   0.443
   1.72134   0.981
   1.72330   0.797
   1.72526   0.853
   1.72722   0.487
   1.72919   0.501
   1.73116   0.559
   1.73314   0.740
   1.73511   0.901
   1.73709   0.958
   1.73908   0.585
   1.74106   0.485
   1.74306   0.533
   1.74505   0.842
   1.74705   0.944
   1.74905   0.751
   1.75105   0.767
   1.75306   0.998
   1.75507   0.581
   1.75709   0.834
   1.75911   0.588
   1.76113   0.588
   1.76316   1.010
   1.76519   0.818
   1.76722   0.892
   1.76925   1.064
   1.77129   0.535
   1.77334   0.755
   1.77538   0.645
   1.77743   0.723
   1.77949   0.692
   1.78154   0.975
   1.78361   1.058
   1.78567   0.703
   1.78774   0.713
   1.78981   0.723
   1.79188   0.944
   1.79396   0.408
   1.79605   0.836
   1.79813   0.836
   1.80022   0.768
   1.80231   0.847
   1.80441   0.523
   1.80651   0.542
   1.80862   0.749
   1.81072   0.736
   1.81283   0.715
   1.81495   1.007
   1.81707   0.682
   1.81919   0.495
   1.82132   1.042
   1.82345   0.933
   1.82559   0.804
   1.82772   0.955
   1.82986   0.667
   1.83201   0.595
   1.83416   1.039
   1.83631   1.108
   1.83847   0.941
   1.84063   0.628
   1.84279   0.696
   1.84496   0.556
   1.84713   0.766
   1.84931   0.722
   1.85149   0.653
   1.85367   0.621
   1.85586   0.765
   1.85805   0.878
   1.86024   0.567
   1.86244   0.535
   1.86465   0.747
   1.86685   0.709
   1.86907   0.758
   1.87128   0.707
   1.87350   0.685
   1.87572   0.480
   1.87795   0.459
   1.88018   0.599
   1.88241   0.571
   1.88465   0.650
   1.88689   0.568
   1.88914   0.516
   1.89139   0.637
   1.89364   0.485
   1.89590   0.857
   1.89816   0.765
   1.90043   0.607
   1.90270   0.558
   1.90498   0.765
   1.90725   0.683
   1.90954   0.776
   1.91182   0.902
   1.91412   0.930
   1.91641   0.914
   1.91871   0.635
   1.92101   0.512
   1.92332   0.584
   1.92563   0.665
   1.92795   0.610
   1.93027   0.855
   1.93259   0.980
   1.93492   0.795
   1.93726   0.688
   1.93959   0.707
   1.94193   0.725
   1.94428   0.989
   1.94663   1.065
   1.94898   0.839
   1.95134   0.491
   1.95370   0.535
   1.95607   0.771
   1.95844   0.776
   1.96082   0.521
   1.96320   1.016
   1.96558   0.790
   1.96797   0.734
   1.97036   0.369
   1.97276   0.816
   1.97516   0.594
   1.97756   0.878
   1.97998   0.885
   1.98239   0.753
   1.98481   0.541
   1.98723   0.481
   1.98966   0.685
   1.99209   0.696
   1.99453   0.636
   1.99697   0.881
   1.99942   0.943
   2.00187   0.556
   2.00432   0.716
   2.00678   0.771
   2.00925   0.507
   2.01172   0.837
   2.01419   0.614
   2.01666   0.702
   2.01915   0.723
   2.02164   0.633
   2.02413   0.857
   2.02662   0.716
   2.02912   0.565
   2.03163   0.644
   2.03414   0.746
   2.03665   0.567
   2.03917   0.805
   2.04169   0.757
   2.04422   1.043
   2.04676   0.765
   2.04930   0.980
   2.05184   0.824
   2.05438   0.693
   2.05694   0.603
   2.05949   0.841
   2.06206   0.625
   2.06462   0.908
   2.06719   1.055
   2.06977   0.702
   2.07235   0.749
   2.07494   0.691
   2.07753   0.887
   2.08012   0.869
   2.08272   0.755
   2.08533   0.799
   2.08794   0.653
   2.09055   0.557
   2.09317   0.509
   2.09579   1.108
   2.09843   0.839
   2.10106   0.922
   2.10370   0.497
   2.10634   0.935
   2.10899   0.342
   2.11165   0.498
   2.11431   0.600
   2.11697   0.821
   2.11964   0.871
   2.12232   0.847
   2.12500   0.896
   2.12768   0.660
   2.13037   0.754
   2.13307   0.698
   2.13577   0.989
   2.13848   0.559
   2.14118   0.691
   2.14390   0.456
   2.14662   0.915
   2.14934   0.362
   2.15208   0.820
   2.15481   0.896
   2.15756   0.670
   2.16030   0.747
   2.16305   0.454
   2.16581   0.632
   2.16858   0.667
   2.17134   0.414
   2.17412   0.857
   2.17689   0.888
   2.17968   0.909
   2.18247   0.935
   2.18526   0.989
   2.18806   0.777
   2.19087   0.846
   2.19368   1.004
   2.19650   0.855
   2.19932   0.812
   2.20214   0.686
   2.20497   0.773
   2.20781   0.642
   2.21066   0.831
   2.21350   0.702
   2.21636   0.805
   2.21922   0.908
   2.22209   0.745
   2.22496   0.715
   2.22783   0.731
   2.23071   0.738
   2.23360   0.863
   2.23650   0.474
   2.23940   0.648
   2.24230   0.631
   2.24521   0.639
   2.24812   0.542
   2.25105   0.874
   2.25398   0.772
   2.25691   0.720
   2.25985   0.994
   2.26279   0.661
   2.26574   0.612
   2.26870   0.608
   2.27166   0.885
   2.27463   0.604
   2.27760   0.727
   2.28058   0.656
   2.28357   0.600
   2.28656   0.723
   2.28955   0.634
   2.29256   0.842
   2.29557   0.651
   2.29858   0.695
   2.30160   0.656
   2.30463   1.090
   2.30766   0.599
   2.31070   0.925
   2.31374   0.914
   2.31679   0.493
   2.31985   0.810
   2.32291   0.935
   2.32598   0.721
   2.32906   0.709
   2.33214   0.745
   2.33522   0.763
   2.33832   0.682
   2.34142   0.649
   2.34452   0.802
   2.34763   0.498
   2.35075   0.421
   2.35388   0.784
   2.35701   0.417
   2.36014   0.799
   2.36329   0.766
   2.36643   0.876
   2.36959   0.758
   2.37275   0.704
   2.37592   0.483
   2.37909   0.808
   2.38227   0.864
   2.38546   0.836
   2.38866   0.969
   2.39186   0.766
   2.39506   0.811
   2.39827   0.689
   2.40149   0.679
   2.40472   0.490
   2.40795   0.648
   2.41119   0.591
   2.41444   1.015
   2.41769   0.898
   2.42095   0.494
   2.42421   0.756
   2.42748   0.658
   2.43076   0.517
   2.43404   0.892
   2.43734   0.636
   2.44064   0.563
   2.44394   0.615
   2.44725   0.389
   2.45057   0.519
   2.45390   0.694
   2.45723   0.699
   2.46057   0.740
   2.46391   0.740
   2.46726   0.853
   2.47063   0.689
   2.47399   0.749
   2.47736   0.764
   2.48074   0.741
   2.48413   0.624
   2.48667   0.906
   2.48837   0.808
   2.49007   0.894
   2.49177   0.787
   2.49348   1.076
   2.49518   0.902
   2.49689   0.876
   2.49860   0.829
   2.50031   0.903
   2.50202   0.359
   2.50374   0.899
   2.50545   0.687
   2.50717   0.670
   2.50889   0.785
   2.51061   0.471
   2.51234   0.852
   2.51406   0.755
   2.51579   0.301
   2.51751   0.128
   2.51925   0.644
   2.52098   0.364
   2.52271   1.128
   2.52445   0.755
   2.52618   0.581
   2.52792   0.780
   2.52967   0.794
   2.53141   0.940
   2.53315   0.774
   2.53490   0.849
   2.53665   1.076
   2.53840   0.488
   2.54015   0.706
   2.54190   0.466
   2.54366   0.685
   2.54542   0.656
   2.54718   0.998
   2.54894   0.751
   2.55070   0.811
   2.55246   0.666
   2.55423   1.002
   2.55600   0.977
   2.55777   0.478
   2.55954   0.592
   2.56131   0.563
   2.56309   0.712
   2.56487   0.493
   2.56664   0.928
   2.56843   0.837
   2.57021   1.349
   2.57199   0.565
   2.57378   0.533
   2.57557   0.226
   2.57736   0.422
   2.57915   0.733
   2.58095   1.298
   2.58275   0.897
   2.58454   0.565
   2.58634   0.407
   2.58814   0.914
   2.58995   1.048
   2.59176   0.559
   2.59356   0.619
   2.59537   0.620
   2.59718   0.755
   2.59899   0.495
   2.60081   0.663
   2.60263   0.840
   2.60445   0.683
   2.60626   0.432
   2.60809   0.383
   2.60992   0.667
   2.61174   0.491
   2.61357   0.856
   2.61540   0.748
   2.61723   0.361
   2.61907   0.805
   2.62090   0.731
   2.62274   0.473
   2.62458   0.690
   2.62642   0.563
   2.62827   0.702
   2.63011   0.626
   2.63196   0.626
   2.63381   0.224
   2.63566   0.426
   2.63752   0.498
   2.63937   0.597
   2.64123   0.667
   2.64308   0.666
   2.64495   0.566
   2.64681   0.578
   2.64868   0.927
   2.65055   0.651
   2.65241   0.475
   2.65428   0.859
   2.65616   0.805
   2.65803   0.380
   2.65991   1.049
   2.66179   0.973
   2.66367   0.638
   2.66556   1.129
   2.66744   0.869
   2.66933   0.948
   2.67121   0.775
   2.67311   0.904
   2.67500   0.261
   2.67689   0.594
   2.67879   0.547
   2.68069   0.641
   2.68259   0.620
   2.68450   0.684
   2.68640   0.758
   2.68831   0.858
   2.69022   1.136
   2.69213   0.547
   2.69405   0.721
   2.69596   0.665
   2.69788   0.853
   2.69979   0.566
   2.70172   0.611
   2.70364   0.603
   2.70557   0.458
   2.70750   0.955
   2.70942   0.501
   2.71136   1.030
   2.71329   0.860
   2.71523   0.764
   2.71716   0.561
   2.71910   0.596
   2.72105   0.696
   2.72299   0.800
   2.72494   0.948
   2.72689   0.589
   2.72884   0.707
   2.73079   0.759
   2.73275   0.822
   2.73470   0.897
   2.73666   0.390
   2.73862   0.978
   2.74059   0.645
   2.74255   0.789
   2.74452   0.189
   2.74649   0.704
   2.74846   0.490
   2.75043   0.801
   2.75241   0.506
   2.75439   0.990
   2.75637   0.911
   2.75835   0.924
   2.76033   0.623
   2.76232   0.653
   2.76431   0.687
   2.76630   0.859
   2.76829   0.939
   2.77029   0.888
   2.77229   0.821
   2.77429   0.702
   2.77629   0.574
   2.77829   0.781
   2.78030   1.089
   2.78231   0.876
   2.78432   0.309
   2.78633   0.653
   2.78834   1.018
   2.79036   0.894
   2.79238   0.596
   2.79440   0.591
   2.79643   0.351
   2.79845   0.869
   2.80048   0.935
   2.80251   0.755
   2.80454   0.813
   2.80658   1.031
   2.80861   0.985
   2.81065   0.707
   2.81269   0.631
   2.81474   0.649
   2.81678   0.934
   2.81883   0.813
   2.82088   0.582
   2.82293   0.439
   2.82499   0.604
   2.82705   0.818
   2.82910   0.600
   2.83117   1.061
   2.83323   0.762
   2.83529   0.778
   2.83737   0.601
   2.83943   0.402
   2.84151   0.549
   2.84358   0.509
   2.84566   0.238
   2.84774   0.579
   2.84982   0.822
   2.85190   0.544
   2.85399   0.673
   2.85608   1.036
   2.85817   1.050
   2.86026   1.076
   2.86236   0.685
   2.86446   0.531
   2.86656   0.639
   2.86866   0.482
   2.87076   0.829
   2.87287   0.745
   2.87498   0.897
   2.87709   1.095
   2.87921   0.784
   2.88132   0.573
   2.88344   0.702
   2.88556   0.589
   2.88768   0.445
   2.88981   0.622
   2.89194   0.537
   2.89407   0.924
   2.89620   0.706
   2.89834   0.488
   2.90048   1.307
   2.90261   0.483
   2.90476   0.005
   2.90690   0.662
   2.90905   0.308
   2.91120   0.873
   2.91335   0.473
   2.91551   0.565
   2.91766   0.393
   2.91982   0.826
   2.92198   0.337
   2.92414   0.715
   2.92631   0.691
   2.92848   0.328
   2.93065   0.912
   2.93283   1.046
   2.93500   0.576
   2.93718   0.604
   2.93936   0.885
   2.94154   0.510
   2.94373   0.591
   2.94591   0.656
   2.94810   0.699
   2.95030   0.965
   2.95249   0.949
   2.95469   0.760
   2.95689   0.974
   2.95909   0.678
   2.96130   0.841
   2.96351   1.004
   2.96572   0.700
   2.96793   0.777
   2.97015   0.774
   2.97236   0.510
   2.97458   0.703
   2.97681   0.564
   2.97903   0.377
   2.98126   0.854
   2.98349   0.681
   2.98572   0.770
   2.98796   0.428
   2.99019   0.700
   2.99243   0.754
   2.99468   0.659
   2.99692   0.957
   2.99917   0.912
   3.00141   0.611
   3.00367   0.675
   3.00593   0.326
   3.00818   0.535
   3.01044   0.860
   3.01270   0.523
   3.01497   1.031
   3.01724   0.647
   3.01951   0.677
   3.02178   0.747
   3.02406   0.667
   3.02633   0.553
   3.02862   0.765
   3.03090   -.031
   3.03319   0.638
   3.03547   0.463
   3.03776   0.388
   3.04006   0.510
   3.04235   0.822
   3.04465   0.359
   3.04695   0.886
   3.04926   0.576
   3.05157   0.732
   3.05387   0.759
   3.05619   0.492
   3.05850   0.830
   3.06082   0.482
   3.06314   0.762
   3.06546   0.708
   3.06779   0.829
   3.07011   0.665
   3.07244   0.486
   3.07478   0.652
   3.07711   1.177
   3.07945   0.354
   3.08179   0.519
   3.08413   0.603
   3.08648   0.851
   3.08883   0.826
   3.09119   0.726
   3.09354   0.419
   3.09589   0.731
   3.09826   0.628
   3.10061   0.877
   3.10298   0.796
   3.10535   0.903
   3.10772   0.769
   3.11010   0.704
   3.11247   0.495
   3.11485   0.437
   3.11723   0.631
   3.11961   0.261
   3.12200   0.577
   3.12439   0.500
   3.12679   0.876
   3.12918   0.619
   3.13158   0.697
   3.13398   0.454
   3.13638   0.574
   3.13879   0.475
   3.14119   0.368
   3.14361   0.612
   3.14603   0.875
   3.14844   0.554
   3.15086   0.453
   3.15328   0.576
   3.15571   0.748
   3.15814   0.678
   3.16057   0.348
   3.16300   0.857
   3.16544   0.726
   3.16788   0.706
   3.17033   0.536
   3.17276   0.308
   3.17522   0.616
   3.17766   0.904
   3.18012   0.653
   3.18258   0.748
   3.18504   0.489
   3.18750   0.599
   3.18996   0.959
   3.19243   0.799
   3.19491   0.736
   3.19738   0.647
   3.19985   0.833
   3.20233   0.813
   3.20482   0.647
   3.20731   0.967
   3.20979   0.590
   3.21228   0.607
   3.21478   0.887
   3.21727   0.910
   3.21978   0.545
   3.22227   0.667
   3.22478   1.005
   3.22729   0.831
   3.22980   1.069
   3.23232   0.908
   3.23483   0.377
   3.23736   0.575
   3.23988   0.656
   3.24240   0.449
   3.24494   0.593
   3.24747   0.424
   3.25000   0.441
   3.25254   0.792
   3.25508   0.578
   3.25762   0.254
   3.26017   0.743
   3.26272   0.837
   3.26527   0.979
   3.26783   0.906
   3.27039   0.579
   3.27295   0.838
   3.27551   0.855
   3.27808   0.873
   3.28065   0.670
   3.28323   0.622
   3.28580   0.490
   3.28838   0.538
   3.29097   0.586
   3.29355   0.337
   3.29614   0.865
   3.29874   0.981
   3.30133   0.704
   3.30393   0.584
   3.30653   0.890
   3.30914   0.726
   3.31174   0.698
   3.31436   0.444
   3.31697   0.997
   3.31959   1.072
   3.32221   0.946
   3.32483   0.640
   3.32746   0.910
   3.33009   0.507
   3.33272   0.689
   3.33535   1.025
   3.33799   0.933
   3.34064   0.680
   3.34328   0.674
   3.34593   0.351
   3.34858   0.684
   3.35123   0.402
   3.35389   0.984
   3.35655   0.824
   3.35922   0.811
   3.36189   0.372
   3.36456   0.657
   3.36723   0.998
   3.36991   0.943
   3.37259   0.446
   3.37527   0.885
   3.37795   0.869
   3.38064   0.791
   3.38334   0.711
   3.38603   0.761
   3.38873   0.878
   3.39143   0.803
   3.39414   0.741
   3.39685   0.518
   3.39956   0.693
   3.40228   0.356
   3.40500   0.859
   3.40772   0.833
   3.41044   0.664
   3.41317   0.352
   3.41590   0.324
   3.41864   0.663
   3.42138   0.435
   3.42412   1.047
   3.42686   0.476
   3.42961   1.144
   3.43236   0.401
   3.43512   1.240
   3.43788   0.532
   3.44064   0.559
   3.44340   1.114
   3.44617   0.096
   3.44894   0.506
   3.45172   0.510
   3.45450   0.491
   3.45728   0.494
   3.46006   0.189
   3.46285   0.719
   3.46564   0.742
   3.46844   0.550
   3.47124   0.585
   3.47404   0.699
   3.47684   0.378
   3.47965   0.832
   3.48246   0.491
   3.48528   0.450
   3.48810   0.743
   3.49092   0.450
   3.49374   0.560
   3.49657   0.653
   3.49941   0.529
   3.50224   1.012
   3.50508   0.782
   3.50793   0.533
   3.51077   0.577
   3.51362   1.094
   3.51647   0.422
   3.51933   0.203
   3.52219   0.597
   3.52505   0.513
   3.52792   0.483
   3.53079   0.918
   3.53367   0.578
   3.53654   0.672
   3.53943   0.530
   3.54231   0.774
   3.54520   0.670
   3.54809   0.745
   3.55099   0.475
   3.55389   0.334
   3.55679   0.783
   3.55969   0.322
   3.56260   0.752
   3.56552   1.061
   3.56843   0.554
   3.57135   0.784
   3.57428   0.661
   3.57721   0.717
   3.58014   0.850
   3.58307   0.620
   3.58601   0.657
   3.58895   0.535
   3.59190   0.735
   3.59485   0.937
   3.59780   0.987
   3.60075   0.856
   3.60372   0.358
   3.60668   0.730
   3.60965   0.932
   3.61262   0.669
   3.61559   0.289
   3.61857   0.529
   3.62155   0.257
   3.62454   0.824
   3.62753   0.763
   3.63052   0.342
   3.63352   0.514
   3.63652   0.552
   3.63952   1.137
   3.64253   0.765
   3.64554   0.848
   3.64856   0.786
   3.65158   0.885
   3.65460   0.725
   3.65763   0.605
   3.66066   0.749
   3.66369   0.436
   3.66673   0.833
   3.66977   0.617
   3.67282   0.503
   3.67587   0.663
   3.67892   0.687
   3.68198   0.920
   3.68504   0.536
   3.68810   1.179
   3.69117   0.282
   3.69424   0.957
   3.69732   0.632
   3.70040   0.647
   3.70348   1.144
   3.70657   0.409
   3.70966   0.728
   3.71276   0.450
   3.71586   0.883
   3.71896   0.573
   3.72207   0.617
   3.72518   0.503
   3.72829   0.862
   3.73141   0.693
   3.73454   0.540
   3.73766   0.740
   3.74079   0.705
   3.74393   0.490
   3.74707   0.396
   3.75021   0.425
   3.75335   0.595
   3.75650   0.502
   3.75966   0.915
   3.76282   0.638
   3.76598   0.785
   3.76915   0.627
   3.77232   0.399
   3.77549   0.648
   3.77867   0.209
   3.78185   0.389
   3.78504   0.911
   3.78823   0.371
   3.79142   0.441
   3.79462   0.206
   3.79782   0.502
   3.80103   0.407
   3.80424   0.632
   3.80745   0.478
   3.81067   0.807
   3.81389   0.537
   3.81712   0.689
   3.82035   0.551
   3.82359   0.347
   3.82683   0.688
   3.83007   0.841
   3.83332   0.953
   3.83657   0.355
   3.83982   0.525
   3.84308   0.657
   3.84635   0.662
   3.84962   0.808
   3.85289   0.413
   3.85616   0.645
   3.85945   0.443
   3.86273   1.371
   3.86602   0.599
   3.86931   1.293
   3.87261   0.806
   3.87591   0.717
   3.87922   0.403
   3.88253   0.498
   3.88584   0.529
   3.88916   0.295
   3.89248   0.467
   3.89581   0.663
   3.89914   0.952
   3.90248   0.752
   3.90582   0.675
   3.90916   0.520
   3.91251   0.617
   3.91586   0.677
   3.91922   0.642
   3.92258   0.792
   3.92595   0.537
   3.92932   0.553
   3.93269   0.755
   3.93607   0.672
   3.93945   0.639
   3.94284   0.463
   3.94623   0.502
   3.94963   0.479
   3.95303   0.708
   3.95644   0.718
   3.95984   0.500
   3.96326   0.677
   3.96668   0.578
   3.97010   0.829
   3.97353   0.703
   3.97696   0.674
   3.98039   0.598
   3.98383   0.546
   3.98728   0.598
   3.99073   0.576
   3.99418   0.541
   3.99764   0.598
   4.00110   0.747
   4.00457   0.553
   4.00804   0.723
   4.01152   0.366
   4.01500   0.578
   4.01849   1.029
   4.02198   0.890
   4.02547   0.131
   4.02897   0.403
   4.03247   0.543
   4.03598   0.775
   4.03949   0.443
   4.04301   0.697
   4.04653   0.492
   4.05006   0.479
   4.05359   0.714
   4.05713   0.600
   4.06067   0.747
   4.06421   0.889
   4.06776   0.604
   4.07132   0.850
   4.07488   0.732
   4.07844   1.234
   4.08201   0.886
   4.08558   0.809
   4.08916   0.491
   4.09274   0.779
   4.09633   1.132
   4.09992   0.378
   4.10352   0.431
   4.10712   0.628
   4.11073   0.833
   4.11434   0.662
   4.11795   0.629
   4.12157   0.504
   4.12520   0.837
   4.12883   0.658
   4.13246   0.434
   4.13610   0.830
   4.13975   0.649
   4.14339   0.644
   4.14705   0.533
   4.15071   0.670
   4.15437   0.953
   4.15804   0.641
   4.16171   0.605
   4.16539   0.324
   4.16907   0.702
   4.17276   0.610
   4.17646   0.539
   4.18015   0.537
   4.18386   1.091
   4.18756   1.051
   4.19128   0.698
   4.19499   0.882
   4.19872   0.850
   4.20244   0.867
   4.20618   0.869
   4.20991   0.591
   4.21366   0.360
   4.21740   0.440
   4.22116   0.396
   4.22491   0.409
   4.22868   0.434
   4.23244   0.492
   4.23622   0.574
   4.23999   0.174
   4.24378   0.609
   4.24756   0.878
   4.25136   0.592
   4.25515   0.830
   4.25896   0.916
   4.26276   0.639
   4.26658   0.753
   4.27040   0.870
   4.27422   0.954
   4.27805   0.457
   4.28188   0.604
   4.28572   0.315
   4.28956   0.696
   4.29341   0.638
   4.29727   0.858
   4.30113   0.328
   4.30499   0.325
   4.30886   0.494
   4.31274   0.583
   4.31662   0.737
   4.32050   0.605
   4.32439   0.732
   4.32829   0.725
   4.33219   0.376
   4.33610   0.321
   4.34001   0.693
   4.34393   0.664
   4.34785   0.848
   4.35178   0.462
   4.35571   0.720
   4.35965   0.467
   4.36359   0.784
   4.36754   0.797
   4.37150   1.043
   4.37546   0.656
   4.37942   0.899
   4.38339   0.692
   4.38737   0.400
   4.39135   0.696
   4.39534   1.014
   4.39933   0.516
   4.40333   0.921
   4.40733   0.573
   4.41134   0.446
   4.41535   0.668
   4.41937   0.418
   4.42340   0.263
   4.42743   0.609
   4.43147   0.482
   4.43551   0.577
   4.43955   0.254
   4.44361   0.674
   4.44766   0.677
   4.45173   0.362
   4.45580   0.805
   4.45987   0.495
   4.46395   0.706
   4.46804   0.780
   4.47213   0.483
   4.47623   0.726
   4.48033   0.618
   4.48444   0.765
   4.48856   0.599
   4.49268   0.630
   4.49680   0.612
   4.50093   0.244
   4.50507   0.601
   4.50921   0.738
   4.51336   0.545
   4.51752   0.544
   4.52168   0.741
   4.52584   0.538
   4.53001   0.812
   4.53419   0.529
   4.53837   0.452
   4.54256   0.589
   4.54676   0.747
   4.55096   0.521
   4.55516   0.596
   4.55938   0.856
   4.56359   0.697
   4.56782   0.571
   4.57205   0.670
   4.57628   0.578
   4.58053   0.848
   4.58477   0.527
   4.58903   0.618
   4.59328   0.338
   4.59755   0.793
   4.60182   0.498
   4.60610   0.738
   4.61038   0.630
   4.61467   0.783
   4.61897   0.474
   4.62327   0.534
   4.62757   0.812
   4.63189   0.657
   4.63621   0.503
   4.64053   0.765
   4.64486   0.612
   4.64920   0.560
   4.65354   0.795
   4.65789   0.935
   4.66225   0.769
   4.66661   0.289
   4.67098   0.498
   4.67535   0.537
   4.67973   0.729
   4.68412   0.532
   4.68851   0.406
   4.69291   0.552
   4.69731   0.544
   4.70172   0.510
   4.70614   0.440
   4.71056   0.634
   4.71499   0.946
   4.71943   0.932
   4.72387   0.652
   4.72832   0.520
   4.73277   0.498
   4.73724   0.686
   4.74170   0.408
   4.74618   0.391
   4.75066   0.860
   4.75514   0.696
   4.75963   0.422
   4.76413   0.610
   4.76864   0.841
   4.77315   0.712
   4.77767   0.547
   4.78219   0.557
   4.78672   0.611
   4.79126   0.688
   4.79581   0.798
   4.80036   0.843
   4.80491   0.747
   4.80948   0.634
   4.81405   0.517
   4.81862   0.664
   4.82320   0.832
   4.82780   0.816
   4.83239   0.643
   4.83699   0.404
   4.84160   0.236
   4.84622   0.886
   4.85084   1.354
   4.85547   0.615
   4.86011   0.668
   4.86475   0.669
   4.86940   0.710
   4.87405   0.657
   4.87871   0.604
   4.88338   0.366
   4.88806   0.518
   4.89274   0.530
   4.89743   0.456
   4.90213   0.576
   4.90683   0.351
   4.91154   0.648
   4.91625   0.658
   4.92098   0.253
   4.92571   0.615
   4.93044   0.941
   4.93519   0.496
   4.93994   0.599
   4.94469   0.539
   4.94946   0.340
   4.95423   0.496
   4.95901   0.589
   4.96379   0.733
   4.96858   0.687
   4.97338   0.592
   4.97819   0.828
   4.98300   0.297
   4.98782   0.823
   4.99265   0.649
   4.99748   0.546
   5.00232   0.633
   5.00717   0.438
   5.01202   0.352
   5.01688   0.469
   5.02175   0.621
   5.02663   0.754
   5.03151   0.501
   5.03640   0.737
   5.04130   0.747
   5.04620   1.024
   5.05111   0.737
   5.05603   0.336
   5.06096   0.713
   5.06589   0.937
   5.07083   0.421
   5.07578   0.693
   5.08073   0.669
   5.08570   0.619
   5.09067   0.748
   5.09564   0.442
   5.10063   0.798
   5.10562   0.800
   5.11061   0.893
   5.11562   0.575
   5.12063   0.687
   5.12566   0.758
   5.13068   0.597
   5.13572   0.632
   5.14076   0.687
   5.14581   0.419
   5.15087   0.698
   5.15593   0.410
   5.16101   0.502
   5.16609   0.589
   5.17117   0.671
   5.17627   0.536
   5.18137   0.942
   5.18648   0.587
   5.19160   0.827
   5.19672   0.424
   5.20186   0.774
   5.20700   0.465
   5.21215   0.697
   5.21730   0.681
   5.22247   0.593
   5.22764   0.395
   5.23282   0.557
   5.23800   0.776
   5.24320   0.332
   5.24840   0.684
   5.25361   0.702
   5.25883   0.647
   5.26405   0.432
   5.26928   0.435
   5.27452   0.397
   5.27977   0.442
   5.28503   0.317
   5.29029   0.476
   5.29557   0.381
   5.30085   0.921
   5.30613   0.741
   5.31143   0.635
   5.31673   0.733
   5.32205   0.744
   5.32737   0.710
   5.33269   0.524
   5.33803   0.592
   5.34337   0.245
   5.34873   0.623
   5.35408   0.677
   5.35945   0.508
   5.36483   0.829
   5.37021   0.387
   5.37560   0.870
   5.38100   0.283
   5.38641   0.780
   5.39183   0.654
   5.39725   0.888
   5.40269   0.454
   5.40813   0.624
   5.41358   0.841
   5.41904   0.627
   5.42450   0.495
   5.42998   0.419
   5.43546   0.270
   5.44095   0.639
   5.44645   0.689
   5.45196   0.392
   5.45747   0.667
   5.46299   0.678
   5.46853   0.696
   5.47407   0.175
   5.47962   0.573
   5.48518   0.617
   5.49074   0.167
   5.49632   0.949
   5.50190   0.800
   5.50749   0.363
   5.51309   0.630
   5.51870   0.672
   5.52432   0.673
   5.52994   0.844
   5.53558   0.624
   5.54122   0.467
   5.54687   0.785
   5.55253   0.599
   5.55820   0.712
   5.56388   0.688
   5.56957   0.783
   5.57526   0.694
   5.58097   0.636
   5.58668   0.592
   5.59240   0.581
   5.59813   0.385
   5.60387   0.537
   5.60962   0.703
   5.61537   0.629
   5.62114   0.449
   5.62691   0.594
   5.63270   0.499
   5.63849   0.723
   5.64429   0.523
   5.65010   0.531
   5.65592   0.961
   5.66175   0.676
   5.66759   0.598
   5.67343   0.446
   5.67929   0.570
   5.68515   0.654
   5.69103   0.465
   5.69691   0.690
   5.70280   0.349
   5.70870   0.908
   5.71461   0.647
   5.72053   0.640
   5.72646   0.602
   5.73240   0.457
   5.73835   0.567
   5.74430   0.758
   5.75027   0.508
   5.75624   0.745
   5.76223   0.715
   5.76822   0.715
   5.77422   0.379
   5.78023   0.676
   5.78626   0.717
   5.79229   0.707
   5.79833   0.909
   5.80438   0.701
   5.81044   0.709
   5.81650   1.147
   5.82258   0.726
   5.82867   0.194
   5.83477   0.417
   5.84087   0.479
   5.84699   0.590
   5.85312   0.183
   5.85925   0.486
   5.86540   0.670
   5.87155   1.044
   5.87617   -.155
   5.87926   0.002
   5.88235   0.249
   5.88544   0.749
   5.88853   0.051
   5.89162   0.927
   5.89472   1.569
   5.89782   1.280
   5.90092   1.427
   5.90403   2.341
   5.90713   1.501
   5.91024   0.630
   5.91335   0.636
   5.91647   0.372
   5.91959   0.158
   5.92270   0.384
   5.92583   0.070
   5.92895   0.410
   5.93208   0.491
   5.93520   0.728
   5.93834   0.046
   5.94147   0.787
   5.94461   0.321
   5.94775   0.371
   5.95089   0.458
   5.95403   0.552
   5.95718   0.672
   5.96033   0.568
   5.96348   0.153
   5.96663   0.105
   5.96979   0.672
   5.97295   0.572
   5.97611   0.364
   5.97927   0.632
   5.98244   0.445
   5.98561   0.303
   5.98878   0.947
   5.99195   0.590
   5.99513   0.604
   5.99831   0.797
   6.00149   0.654
   6.00467   0.754
   6.00786   0.546
   6.01105   0.549
   6.01424   0.691
   6.01744   0.611
   6.02063   0.644
   6.02383   0.908
   6.02703   1.060
   6.03024   0.796
   6.03344   0.545
   6.03665   0.405
   6.03987   0.431
   6.04308   0.401
   6.04630   0.588
   6.04952   0.975
   6.05274   0.621
   6.05596   0.729
   6.05919   0.617
   6.06242   0.675
   6.06565   0.345
   6.06889   0.604
   6.07213   0.619
   6.07537   0.675
   6.07861   0.280
   6.08186   0.263
   6.08511   0.526
   6.08836   0.556
   6.09161   0.392
   6.09486   0.526
   6.09812   0.263
   6.10139   -.058
   6.10465   0.378
   6.10792   0.304
   6.11118   0.838
   6.11446   0.257
   6.11773   0.092
   6.12101   0.170
   6.12429   0.877
   6.12757   0.422
   6.13086   0.829
   6.13414   0.475
   6.13743   0.705
   6.14073   0.353
   6.14402   0.681
   6.14732   0.806
   6.15062   0.392
   6.15392   0.784
   6.15723   0.530
   6.16054   0.508
   6.16385   0.670
   6.16716   0.564
   6.17048   0.200
   6.17380   0.540
   6.17712   1.141
   6.18045   0.854
   6.18377   0.502
   6.18711   0.610
   6.19044   0.601
   6.19377   0.719
   6.19711   0.798
   6.20045   0.514
   6.20380   0.178
   6.20714   0.872
   6.21049   0.733
   6.21384   0.449
   6.21720   0.381
   6.22056   0.224
   6.22392   0.722
   6.22728   0.423
   6.23064   0.558
   6.23401   0.617
   6.23738   0.353
   6.24076   0.359
   6.24413   0.880
   6.24751   0.643
   6.25089   0.537
   6.25428   0.692
   6.25767   0.437
   6.26106   0.854
   6.26445   0.182
   6.26785   0.393
   6.27124   0.319
   6.27464   0.856
   6.27805   0.763
   6.28145   0.967
   6.28486   0.761
   6.28828   0.655
   6.29169   0.447
   6.29511   0.753
   6.29853   0.290
   6.30195   0.414
   6.30538   0.611
   6.30881   0.399
   6.31224   0.355
   6.31567   0.345
   6.31911   0.577
   6.32255   0.051
   6.32599   0.857
   6.32944   0.366
   6.33289   0.377
   6.33634   1.008
   6.33980   0.670
   6.34325   0.719
   6.34671   1.197
   6.35017   0.556
   6.35364   1.073
   6.35711   0.255
   6.36058   0.620
   6.36405   0.781
   6.36753   0.134
   6.37101   0.432
   6.37449   0.601
   6.37798   0.714
   6.38147   0.419
   6.38496   0.929
   6.38845   0.799
   6.39195   0.840
   6.39545   0.668
   6.39895   0.891
   6.40246   0.730
   6.40597   0.437
   6.40948   0.768
   6.41299   0.775
   6.41651   0.375
   6.42003   0.322
   6.42355   0.119
   6.42708   0.535
   6.43061   0.530
   6.43414   0.136
   6.43767   0.239
   6.44121   0.439
   6.44475   0.283
   6.44829   0.471
   6.45184   0.591
   6.45539   0.532
   6.45894   0.622
   6.46250   0.380
   6.46605   0.691
   6.46961   0.750
   6.47318   0.853
   6.47675   0.724
   6.48032   0.565
   6.48389   0.714
   6.48746   0.294
   6.49104   1.164
   6.49462   0.275
   6.49821   0.391
   6.50179   0.600
   6.50539   0.731
   6.50898   0.597
   6.51258   0.474
   6.51618   0.273
   6.51978   0.461
   6.52338   0.694
   6.52699   0.498
   6.53060   0.284
   6.53422   0.729
   6.53783   0.370
   6.54145   0.294
   6.54508   0.686
   6.54870   0.495
   6.55233   1.000
   6.55597   0.545
   6.55960   0.762
   6.56324   0.600
   6.56688   1.089
   6.57053   0.322
   6.57417   0.324
   6.57782   0.637
   6.58148   0.433
   6.58513   0.214
   6.58879   0.368
   6.59246   0.830
   6.59612   0.331
   6.59979   0.354
   6.60346   0.699
   6.60714   0.841
   6.61082   1.060
   6.61450   0.315
   6.61818   0.967
   6.62187   0.478
   6.62556   0.369
   6.62925   1.158
   6.63295   0.682
   6.63665   0.441
   6.64035   0.550
   6.64406   0.235
   6.64777   0.910
   6.65148   0.463
   6.65519   0.336
   6.65891   0.451
   6.66263   0.761
   6.66636   0.274
   6.67008   0.530
   6.67382   0.990
   6.67755   0.935
   6.68129   0.970
   6.68503   0.510
   6.68877   0.860
   6.69252   0.754
   6.69627   0.699
   6.70002   0.510
   6.70377   0.727
   6.70753   0.815
   6.71130   0.822
   6.71506   0.506
   6.71883   0.633
   6.72260   0.562
   6.72638   0.672
   6.73015   0.455
   6.73394   0.228
   6.73772   0.447
   6.74151   0.637
   6.74530   0.418
   6.74909   0.678
   6.75289   0.223
   6.75669   1.246
   6.76049   0.826
   6.76430   1.095
   6.76811   0.395
   6.77192   0.998
   6.77574   0.708
   6.77956   0.323
   6.78338   0.570
   6.78721   0.304
   6.79104   0.830
   6.79487   0.271
   6.79871   0.640
   6.80255   0.676
   6.80639   0.730
   6.81024   0.582
   6.81409   0.617
   6.81794   0.796
   6.82179   0.317
   6.82565   0.871
   6.82951   0.694
   6.83338   0.352
   6.83725   1.095
   6.84112   0.492
   6.84499   0.205
   6.84887   0.606
   6.85276   0.395
   6.85664   0.396
   6.86053   0.825
   6.86442   0.901
   6.86832   0.726
   6.87221   0.904
   6.87611   1.024
   6.88002   0.418
   6.88393   0.242
   6.88784   0.850
   6.89176   0.265
   6.89567   0.441
   6.89959   0.409
   6.90352   0.513
   6.90745   0.162
   6.91138   0.529
   6.91531   0.478
   6.91925   0.358
   6.92320   0.813
   6.92714   0.324
   6.93109   0.300
   6.93504   0.156
   6.93900   0.486
   6.94296   0.371
   6.94692   0.510
   6.95088   0.671
   6.95485   0.893
   6.95882   0.747
   6.96280   0.987
   6.96678   0.615
   6.97076   0.270
   6.97475   0.337
   6.97873   0.635
   6.98273   0.745
   6.98672   0.776
   6.99073   0.629
   6.99473   0.793
   6.99873   0.291
   7.00274   0.407
   7.00676   0.189
   7.01077   0.542
   7.01479   0.750
   7.01882   1.186
   7.02285   0.731
   7.02688   0.694
   7.03091   0.395
   7.03495   0.603
   7.03899   0.680
   7.04303   0.525
   7.04708   0.341
   7.05113   0.499
   7.05519   0.753
   7.05925   0.276
   7.06331   0.548
   7.06737   0.601
   7.07144   0.724
   7.07551   0.523
   7.07959   0.081
   7.08367   0.737
   7.08775   0.976
   7.09184   0.457
   7.09593   0.414
   7.10002   0.341
   7.10412   0.525
   7.10822   0.736
   7.11233   0.351
   7.11643   0.412
   7.12055   0.461
   7.12466   0.366
   7.12878   0.549
   7.13290   0.946
   7.13703   0.692
   7.14116   0.205
   7.14529   0.465
   7.14943   0.387
   7.15357   0.055
   7.15771   0.574
   7.16186   0.847
   7.16601   0.398
   7.17016   0.959
   7.17432   0.320
   7.17848   0.528
   7.18265   0.698
   7.18682   0.477
   7.19099   0.821
   7.19517   0.603
   7.19935   0.387
   7.20353   0.594
   7.20772   0.594
   7.21191   0.763
   7.21610   0.644
   7.22030   0.287
   7.22450   0.393
   7.22871   0.262
   7.23292   0.443
   7.23713   0.596
   7.24135   0.761
   7.24557   0.708
   7.24979   0.229
   7.25402   0.423
   7.25825   0.473
   7.26248   0.453
   7.26672   0.489
   7.27097   0.529
   7.27521   0.313
   7.27946   0.319
   7.28372   0.865
   7.28797   0.966
   7.29223   0.739
   7.29650   0.893
   7.30077   0.788
   7.30504   0.366
   7.30932   0.808
   7.31360   0.664
   7.31788   0.464
   7.32217   0.265
   7.32646   0.419
   7.33075   0.678
   7.33505   0.250
   7.33935   0.519
   7.34366   0.268
   7.34797   0.637
   7.35228   0.367
   7.35660   1.040
   7.36092   0.657
   7.36525   0.651
   7.36958   0.394
   7.37391   0.569
   7.37825   1.023
   7.38259   0.490
   7.38693   0.901
   7.39128   0.189
   7.39563   0.644
   7.39999   0.305
   7.40435   0.823
   7.40871   0.380
   7.41308   0.555
   7.41745   0.888
   7.42182   1.013
   7.42620   0.650
   7.43059   0.461
   7.43497   0.467
   7.43936   0.376
   7.44376   0.601
   7.44816   0.536
   7.45256   0.338
   7.45697   0.447
   7.46138   0.410
   7.46579   0.642
   7.47021   0.579
   7.47463   0.608
   7.47905   0.208
   7.48349   0.429
   7.48792   0.437
   7.49236   0.200
   7.49680   0.534
   7.50124   0.846
   7.50569   0.386
   7.51015   0.151
   7.51460   0.856
   7.51907   0.304
   7.52353   0.422
   7.52800   0.608
   7.53247   0.485
   7.53695   0.381
   7.54143   0.428
   7.54592   0.514
   7.55041   0.355
   7.55490   0.675
   7.55940   0.631
   7.56390   0.573
   7.56840   0.685
   7.57291   0.779
   7.57743   0.875
   7.58195   0.321
   7.58647   0.265
   7.59099   0.392
   7.59552   0.708
   7.60005   0.576
   7.60459   0.717
   7.60913   0.071
   7.61368   0.434
   7.61823   0.665
   7.62278   0.015
   7.62734   0.315
   7.63190   0.115
   7.63647   0.889
   7.64104   0.401
   7.64562   0.802
   7.65019   0.132
   7.65478   0.463
   7.65936   1.004
   7.66395   0.305
   7.66855   0.744
   7.67315   0.557
   7.67775   0.544
   7.68236   0.537
   7.68697   0.719
   7.69159   0.671
   7.69621   0.589
   7.70083   0.840
   7.70546   0.857
   7.71009   0.402
   7.71473   0.520
   7.71937   0.776
   7.72402   0.803
   7.72866   0.518
   7.73332   0.615
   7.73798   0.446
   7.74264   0.603
   7.74730   0.246
   7.75197   0.231
   7.75665   0.600
   7.76133   0.327
   7.76601   0.669
   7.77070   0.256
   7.77539   0.799
   7.78008   0.731
   7.78478   0.629
   7.78949   0.564
   7.79420   0.207
   7.79891   0.429
   7.80363   0.509
   7.80835   0.654
   7.81307   0.619
   7.81780   0.470
   7.82254   0.756
   7.82727   0.492
   7.83202   0.716
   7.83677   0.524
   7.84151   0.687
   7.84627   0.380
   7.85103   0.489
   7.85579   0.645
   7.86056   0.811
   7.86534   0.526
   7.87011   0.528
   7.87490   0.292
   7.87968   0.891
   7.88447   0.520
   7.88927   0.578
   7.89407   0.294
   7.89887   0.636
   7.90368   0.471
   7.90849   0.592
   7.91331   0.716
   7.91813   1.030
   7.92295   0.397
   7.92778   0.670
   7.93262   0.813
   7.93746   0.379
   7.94230   0.675
   7.94715   0.390
   7.95200   0.527
   7.95686   0.366
   7.96172   0.374
   7.96658   0.632
   7.97145   0.763
   7.97633   0.727
   7.98121   0.728
   7.98609   0.412
   7.99098   0.429
   7.99587   0.628
   8.00077   0.380
   8.00567   0.677
   8.01057   0.424
   8.01548   0.578
   8.02040   0.551
   8.02532   0.523
   8.03024   0.720
   8.03517   0.458
   8.04010   0.524
   8.04504   0.546
   8.04998   0.563
   8.05493   0.621
   8.05988   0.605
   8.06484   0.607
   8.06980   0.845
   8.07476   0.835
   8.07973   0.213
   8.08471   0.179
   8.08968   0.655
   8.09467   0.898
   8.09965   0.237
   8.10465   0.271
   8.10964   0.845
   8.11465   0.506
   8.11965   0.223
   8.12466   0.270
   8.12968   0.425
   8.13470   0.283
   8.13972   0.577
   8.14476   0.676
   8.14979   0.440
   8.15483   0.509
   8.15987   0.888
   8.16492   0.462
   8.16997   0.584
   8.17503   0.541
   8.18009   0.837
   8.18516   0.323
   8.19023   0.770
   8.19531   0.938
   8.20039   0.641
   8.20547   0.590
   8.21057   0.497
   8.21566   0.545
   8.22076   0.422
   8.22587   0.673
   8.23098   0.559
   8.23609   0.637
   8.24121   0.584
   8.24633   0.578
   8.25146   0.369
   8.25660   0.746
   8.26173   0.720
   8.26688   0.743
   8.27203   0.686
   8.27718   0.452
   8.28234   1.073
   8.28750   0.719
   8.29267   0.592
   8.29784   0.414
   8.30301   0.772
   8.30820   0.338
   8.31338   0.536
   8.31857   0.624
   8.32377   0.504
   8.32897   0.309
   8.33418   0.924
   8.33939   0.678
   8.34460   0.670
   8.34983   0.670
   8.35505   0.789
   8.36028   0.818
   8.36552   0.873
   8.37076   0.582
   8.37600   0.402
   8.38125   0.335
   8.38651   0.508
   8.39177   0.464
   8.39703   0.645
   8.40230   0.732
   8.40758   0.355
   8.41286   0.791
   8.41814   0.247
   8.42343   0.344
   8.42873   0.738
   8.43403   0.713
   8.43933   0.795
   8.44464   0.636
   8.44996   0.476
   8.45528   0.582
   8.46060   0.647
   8.46593   0.574
   8.47127   0.411
   8.47661   0.669
   8.48195   0.311
   8.48730   0.338
   8.49266   0.552
   8.49802   0.427
   8.50338   0.576
   8.50875   0.397
   8.51413   0.529
   8.51951   0.246
   8.52489   0.540
   8.53029   0.644
   8.53568   0.879
   8.54108   0.626
   8.54649   0.282
   8.55190   0.255
   8.55732   0.041
   8.56274   0.599
   8.56816   0.336
   8.57360   0.571
   8.57903   0.428
   8.58448   0.548
   8.58992   -.138
   8.59538   0.586
   8.60083   0.314
   8.60630   0.766
   8.61177   0.572
   8.61724   1.167
   8.62272   1.087
   8.62820   0.617
   8.63369   0.490
   8.63919   0.454
   8.64469   0.600
   8.65019   0.577
   8.65570   0.295
   8.66122   0.537
   8.66674   0.129
   8.67226   0.552
   8.67779   0.814
   8.68333   0.590
   8.68887   0.605
   8.69442   0.521
   8.69997   0.429
   8.70553   0.468
   8.71109   0.582
   8.71666   0.657
   8.72224   0.456
   8.72781   0.942
   8.73340   0.582
   8.73899   0.519
   8.74459   0.662
   8.75019   0.216
   8.75579   0.601
   8.76140   0.658
   8.76702   0.692
   8.77264   0.393
   8.77827   0.824
   8.78390   0.235
   8.78954   0.874
   8.79518   0.744
   8.80083   0.498
   8.80649   0.765
   8.81215   0.457
   8.81781   0.792
   8.82348   0.366
   8.82916   0.554
   8.83484   0.747
   8.84053   0.668
   8.84622   0.590
   8.85192   0.750
   8.85763   0.630
   8.86334   0.516
   8.86905   0.480
   8.87477   0.489
   8.88050   0.745
   8.88623   0.679
   8.89197   0.519
   8.89771   0.401
   8.90346   0.609
   8.90921   1.081
   8.91497   0.682
   8.92074   0.288
   8.92651   0.607
   8.93228   0.964
   8.93807   0.162
   8.94385   0.563
   8.94965   0.415
   8.95545   0.699
   8.96125   0.430
   8.96706   0.260
   8.97288   0.566
   8.97870   0.329
   8.98453   0.512
   8.99036   0.528
   8.99619   0.764
   9.00204   0.601
   9.00789   0.421
   9.01375   0.408
   9.01960   0.247
   9.02547   0.691
   9.03135   0.701
   9.03722   0.282
   9.04311   0.605
   9.04900   0.700
   9.05489   0.413
   9.06079   0.425
   9.06670   0.626
   9.07262   0.347
   9.07853   0.767
   9.08446   0.363
   9.09039   0.714
   9.09632   0.676
   9.10227   0.365
   9.10821   0.371
   9.11417   0.678
   9.12013   0.468
   9.12609   0.955
   9.13206   0.333
   9.13804   0.442
   9.14402   0.296
   9.15001   0.367
   9.15601   0.487
   9.16201   0.697
   9.16801   0.654
   9.17403   0.416
   9.18004   0.058
   9.18607   0.309
   9.19210   0.404
   9.19813   0.965
   9.20418   0.564
   9.21023   0.832
   9.21628   0.440
   9.22234   0.503
   9.22840   0.464
   9.23448   0.360
   9.24055   0.666
   9.24664   0.429
   9.25273   0.454
   9.25882   0.683
   9.26493   0.095
   9.27103   0.621
   9.27715   0.391
   9.28327   0.291
   9.28939   0.356
   9.29553   0.595
   9.30167   0.734
   9.30781   0.341
   9.31396   0.624
   9.32012   0.876
   9.32628   0.690
   9.33245   0.968
   9.33862   0.621
   9.34480   0.579
   9.35099   0.597
   9.35718   0.466
   9.36338   0.643
   9.36959   0.435
   9.37580   0.857
   9.38202   0.406
   9.38824   0.495
   9.39447   0.674
   9.40071   0.326
   9.40695   0.256
   9.41320   0.404
   9.41946   0.640
   9.42572   0.292
   9.43199   0.763
   9.43826   0.253
   9.44454   0.688
   9.45082   0.768
   9.45712   0.739
   9.46342   0.486
   9.46972   0.541
   9.47603   0.529
   9.48235   0.705
   9.48868   0.296
   9.49501   0.285
   9.50135   0.263
   9.50769   0.048
   9.51404   0.413
   9.52039   0.395
   9.52676   0.565
   9.53312   0.463
   9.53950   0.421
   9.54588   0.320
   9.55227   0.491
   9.55866   0.732
   9.56506   0.440
   9.57147   0.857
   9.57788   0.355
   9.58430   0.357
   9.59073   0.720
   9.59716   0.719
   9.60360   0.311
   9.61005   0.475
   9.61650   0.409
   9.62296   0.249
   9.62943   0.834
   9.63590   0.652
   9.64238   0.677
   9.64886   0.255
   9.65535   0.526
   9.66185   0.474
   9.66836   1.060
   9.67487   0.326
   9.68139   0.567
   9.68791   0.483
   9.69444   0.636
   9.70098   0.217
   9.70752   0.234
   9.71407   0.830
   9.72063   0.642
   9.72720   0.455
   9.73377   0.531
   9.74035   0.558
   9.74693   0.863
   9.75352   0.701
   9.76012   0.402
   9.76672   0.954
   9.77333   0.591
   9.77995   0.486
   9.78657   0.523
   9.79321   0.449
   9.79984   0.598
   9.80649   0.271
   9.81314   0.512
   9.81980   0.658
   9.82646   0.627
   9.83313   0.300
   9.83981   0.504
   9.84650   0.466
   9.85319   0.432
   9.85989   0.538
   9.86659   0.446
   9.87331   0.458
   9.88002   0.588
   9.88675   0.574
   9.89349   0.812
   9.90022   0.107
   9.90697   0.325
   9.91372   0.325
   9.92049   0.306
   9.92726   0.747
   9.93403   0.567
   9.94081   0.466
   9.94760   1.043
   9.95440   0.652
   9.96120   0.403
   9.96801   0.441
   9.97482   0.445
   9.98165   0.390
   9.98848   0.883
   9.99531   0.684
  10.00216   0.164
  10.00901   0.550
  10.01587   0.420
  10.02273   0.430
  10.02961   0.688
  10.03648   0.481
  10.04337   0.918
  10.05027   0.526
  10.05717   0.685
  10.06408   0.497
  10.07099   0.405
  10.07791   0.783
  10.08484   0.783
  10.09178   0.751
  10.09872   0.724
  10.10567   0.900
  10.11263   0.300
  10.11960   0.261
  10.12657   0.223
  10.13355   0.261
  10.14054   0.354
  10.14753   0.074
  10.15453   0.476
  10.16154   0.443
  10.16856   0.331
  10.17558   0.726
  10.18261   0.370
  10.18965   0.369
  10.19669   0.196
  10.20375   0.464
  10.21080   0.365
  10.21787   0.255
  10.22495   0.766
  10.23203   0.462
  10.23912   0.703
  10.24621   0.720
  10.25332   0.284
  10.26043   0.564
  10.26755   0.661
  10.27467   0.228
  10.28180   0.377
  10.28895   0.375
  10.29609   0.492
  10.30325   0.720
  10.31042   0.881
  10.31758   0.016
  10.32476   0.545
  10.33195   0.528
  10.33914   0.816
  10.34634   0.120
  10.35355   0.475
  10.36077   0.180
  10.36799   0.468
  10.37522   0.503
  10.38246   0.638
  10.38970   0.625
  10.39696   0.502
  10.40422   0.551
  10.41149   0.556
  10.41876   0.623
  10.42605   0.542
  10.43334   0.722
  10.44064   0.619
  10.44795   0.512
  10.45526   0.080
  10.46258   0.399
  10.46991   0.791
  10.47725   0.398
  10.48460   0.430
  10.49195   0.843
  10.49931   0.800
  10.50668   0.649
  10.51405   0.656
  10.52144   0.434
  10.52883   0.412
  10.53623   0.277
  10.54364   0.261
  10.55105   0.439
  10.55848   0.398
  10.56591   0.283
  10.57335   0.619
  10.58079   0.690
  10.58825   0.616
  10.59571   0.349
  10.60318   0.279
  10.61066   0.503
  10.61815   0.288
  10.62564   0.585
  10.63314   0.523
  10.64065   0.149
  10.64817   0.236
  10.65569   0.482
  10.66323   0.495
  10.67077   0.418
  10.67832   0.624
  10.68588   0.834
  10.69345   0.832
  10.70102   0.625
  10.70860   0.561
  10.71619   0.346
  10.72379   0.430
  10.73139   0.202
  10.73901   0.169
  10.74663   0.180
  10.75426   0.029
  10.76190   0.377
  10.76955   0.451
  10.77720   0.810
  10.78487   0.421
  10.79254   0.414
  10.80022   0.313
  10.80791   0.586
  10.81560   0.377
  10.82331   0.774
  10.83102   0.398
  10.83874   0.721
  10.84647   0.517
  10.85421   0.500
  10.86195   0.526
  10.86970   0.628
  10.87747   0.489
  10.88524   0.468
  10.89302   0.781
  10.90080   0.458
  10.90860   0.677
  10.91640   0.378
  10.92421   0.458
  10.93203   0.437
  10.93986   0.863
  10.94770   0.337
  10.95554   0.642
  10.96340   0.328
  10.97126   1.006
  10.97914   0.461
  10.98701   0.280
  10.99490   0.351
  11.00280   0.239
  11.01070   0.715
  11.01861   0.754
  11.02654   0.502
  11.03447   0.375
  11.04241   0.537
  11.05035   0.776
  11.05831   0.439
  11.06627   0.573
  11.07425   0.535
  11.08223   0.310
  11.09022   0.971
  11.09822   0.226
  11.10623   0.506
  11.11425   0.577
  11.12227   0.744
  11.13030   0.674
  11.13835   0.567
  11.14640   0.616
  11.15446   0.309
  11.16253   1.543
  11.17061   2.093
  11.17869   1.955
  11.18679   0.645
  11.19489   0.630
  11.20301   0.615
  11.21113   0.413
  11.21926   0.483
  11.22740   0.372
  11.23555   0.533
  11.24371   0.508
  11.25187   0.560
  11.26005   0.576
  11.26823   0.303
  11.27642   0.567
  11.28463   0.732
  11.29283   0.389
  11.30105   0.481
  11.30928   0.571
  11.31752   0.475
  11.32577   0.164
  11.33402   0.279
  11.34229   0.429
  11.35056   0.277
  11.35885   0.523
  11.36714   0.461
  11.37544   0.420
  11.38375   0.278
  11.39207   0.270
  11.40040   0.571
  11.40874   0.457
  11.41708   0.470
  11.42544   0.538
  11.43380   0.728
  11.44218   0.484
  11.45056   0.425
  11.45895   0.482
  11.46735   0.148
  11.47576   0.597
  11.48418   0.521
  11.49262   0.220
  11.50105   0.515
  11.50950   0.666
  11.51796   0.585
  11.52643   0.488
  11.53490   0.256
  11.54339   0.288
  11.55188   0.509
  11.56039   0.783
  11.56890   0.619
  11.57742   0.502
  11.58595   0.503
  11.59450   0.759
  11.60305   0.868
  11.61161   0.426
  11.62018   0.661
  11.62876   0.149
  11.63735   0.687
  11.64595   0.586
  11.65456   0.330
  11.66317   0.455
  11.67180   0.253
  11.68044   0.693
  11.68909   0.605
  11.69774   0.330
  11.70641   0.422
  11.71508   0.283
  11.72377   0.764
  11.73246   0.566
  11.74117   0.273
  11.74988   0.502
  11.75861   0.150
  11.76734   0.497
  11.77608   0.384
  11.78484   0.535
  11.79360   0.648
  11.80237   0.703
  11.81115   0.436
  11.81995   0.814
  11.82875   0.387
  11.83756   0.865
  11.84638   0.411
  11.85521   0.519
  11.86405   0.281
  11.87291   0.411
  11.88177   0.444
  11.89064   0.532
  11.89952   0.290
  11.90841   0.408
  11.91731   0.476
  11.92622   0.554
  11.93514   0.474
  11.94407   0.456
  11.95302   0.562
  11.96197   0.220
  11.97093   0.286
  11.97990   0.892
  11.98888   0.374
  11.99787   0.659
  12.00688   0.368
  12.01589   0.435
  12.02491   0.734
  12.03394   0.492
  12.04298   0.234
  12.05204   0.337
  12.06110   0.831
  12.07017   0.330
  12.07925   0.233
  12.08835   0.545
  12.09745   0.346
  12.10657   0.487
  12.11569   0.216
  12.12482   0.361
  12.13397   0.424
  12.14312   0.200
  12.15229   0.485
  12.16146   0.514
  12.17065   0.258
  12.17985   0.473
  12.18905   0.376
  12.19827   0.612
  12.20750   0.323
  12.21674   0.560
  12.22599   0.605
  12.23525   0.175
  12.24452   0.275
  12.25380   0.209
  12.26309   0.580
  12.27239   0.599
  12.28170   0.546
  12.29103   0.556
  12.30036   0.747
  12.30970   0.618
  12.31906   0.717
  12.32843   0.584
  12.33780   0.507
  12.34719   0.507
  12.35658   0.655
  12.36599   0.296
  12.37541   0.206
  12.38484   0.094
  12.39428   0.198
  12.40373   0.313
  12.41320   0.459
  12.42267   0.558
  12.43215   0.431
  12.44165   0.303
  12.45115   0.378
  12.46067   0.672
  12.47020   0.599
  12.47974   0.181
  12.48929   0.553
  12.49885   0.576
  12.50842   0.892
  12.51800   0.549
  12.52759   0.358
  12.53720   0.333
  12.54681   0.350
  12.55644   0.810
  12.56608   0.446
  12.57573   0.347
  12.58539   0.896
  12.59506   0.724
  12.60474   0.365
  12.61443   0.756
  12.62414   0.205
  12.63385   0.452
  12.64358   0.529
  12.65332   0.405
  12.66307   0.232
  12.67283   0.886
  12.68260   -.056
  12.69238   0.306
  12.70218   0.514
  12.71198   -.073
  12.72180   0.401
  12.73163   0.734
  12.74147   0.685
  12.75132   0.067
  12.76118   0.652
  12.77106   0.678
  12.78094   0.208
  12.79084   0.425
  12.80075   0.253
  12.81067   0.377
  12.82060   0.544
  12.83054   0.264
  12.84050   0.588
  12.85047   0.316
  12.86044   0.446
  12.87043   0.281
  12.88043   0.172
  12.89045   0.304
  12.90047   0.522
  12.91051   0.823
  12.92056   0.450
  12.93062   0.416
  12.94069   0.630
  12.95077   0.268
  12.96087   0.361
  12.97098   0.604
  12.98109   0.461
  12.99122   0.731
  13.00137   0.531
  13.01152   0.447
  13.02169   0.548
  13.03186   0.373
  13.04205   0.143
  13.05226   0.310
  13.06247   0.386
  13.07270   0.328
  13.08293   0.307
  13.09319   0.357
  13.10345   0.525
  13.11372   0.583
  13.12401   0.632
  13.13431   0.846
  13.14462   0.667
  13.15494   0.579
  13.16528   0.269
  13.17562   0.237
  13.18598   0.467
  13.19635   0.641
  13.20674   0.675
  13.21713   0.284
  13.22754   0.276
  13.23796   0.382
  13.24839   0.188
  13.25884   0.315
  13.26930   0.438
  13.27977   0.485
  13.29025   0.655
  13.30075   0.602
  13.31125   0.361
  13.32177   0.358
  13.33231   0.251
  13.34285   0.355
  13.35340   0.384
  13.36398   0.505
  13.37456   0.648
  13.38516   0.486
  13.39576   0.262
  13.40638   0.492
  13.41701   0.161
  13.42766   0.311
  13.43832   0.616
  13.44899   0.378
  13.45967   0.328
  13.47037   0.509
  13.48108   0.434
  13.49180   0.461
  13.50253   0.772
  13.51328   0.311
  13.52404   0.610
  13.53481   0.647
  13.54560   0.832
  13.55640   0.463
  13.56721   0.608
  13.57803   0.507
  13.58887   0.697
  13.59972   0.277
  13.61059   0.576
  13.62146   0.475
  13.63235   0.455
  13.64326   0.486
  13.65417   0.282
  13.66510   0.390
  13.67604   0.374
  13.68700   0.406
  13.69797   0.185
  13.70895   0.460
  13.71994   0.711
  13.73095   0.245
  13.74197   0.513
  13.75300   0.402
  13.76406   0.567
  13.77511   0.307
  13.78619   0.410
  13.79728   0.420
  13.80838   0.278
  13.81949   0.365
  13.83062   0.512
  13.84176   0.197
  13.85292   0.339
  13.86409   0.615
  13.87527   0.408
  13.88646   0.744
  13.89767   0.504
  13.90890   0.576
  13.92013   0.437
  13.93138   0.390
  13.94264   0.086
  13.95392   0.426
  13.96521   0.370
  13.97652   0.701
  13.98784   0.243
  13.99917   0.756
  14.01051   0.582
  14.02187   0.411
  14.03325   0.363
  14.04463   0.372
  14.05603   0.651
  14.06745   0.668
  14.07888   0.539
  14.09032   0.571
  14.10178   -.043
  14.11325   0.499
  14.12473   0.201
  14.13623   0.131
  14.14774   0.542
  14.15927   0.172
  14.17081   0.292
  14.18237   0.336
  14.19394   0.558
  14.20552   0.467
  14.21712   0.253
  14.22873   0.262
  14.24036   0.532
  14.25200   0.343
  14.26365   0.389
  14.27532   0.444
  14.28700   0.256
  14.29870   0.180
  14.31041   0.219
  14.32214   0.264
  14.33388   0.475
  14.34563   0.503
  14.35740   0.566
  14.36919   0.358
  14.38099   0.381
  14.39280   0.131
  14.40463   0.271
  14.41647   0.217
  14.42833   0.243
  14.44020   0.424
  14.45209   0.394
  14.46398   0.337
  14.47590   0.710
  14.48783   0.685
  14.49978   0.608
  14.51174   0.722
  14.52371   0.215
  14.53570   0.328
  14.54771   0.528
  14.55973   1.021
  14.57176   0.451
  14.58381   0.660
  14.59587   0.557
  14.60795   0.516
  14.62005   0.374
  14.63216   0.368
  14.64428   0.677
  14.65642   0.322
  14.66857   0.496
  14.68074   0.112
  14.69293   0.423
  14.70513   0.375
  14.71734   0.397
  14.72957   0.534
  14.74182   0.565
  14.75408   0.653
  14.76635   0.381
  14.77865   0.718
  14.79095   0.419
  14.80328   0.578
  14.81561   0.654
  14.82796   0.228
  14.84033   0.633
  14.85272   0.343
  14.86512   0.389
  14.87753   0.279
  14.88996   0.649
  14.90241   0.324
  14.91487   0.570
  14.92735   0.534
  14.93984   0.734
  14.95235   0.542
  14.96487   0.437
  14.97741   0.569
  14.98997   0.419
  15.00254   0.555
  15.01513   0.463
  15.02773   0.674
  15.04035   0.881
  15.05299   0.593
  15.06564   0.567
  15.07830   0.395
  15.09099   0.385
  15.10369   0.489
  15.11640   0.278
  15.12913   0.092
  15.14188   0.380
  15.15464   0.826
  15.16742   0.263
  15.18022   0.264
  15.19303   0.586
  15.20585   0.531
  15.21870   0.584
  15.23156   0.724
  15.24444   0.556
  15.25733   0.438
  15.27024   0.464
  15.28317   0.272
  15.29611   0.515
  15.30907   0.583
  15.32205   0.569
  15.33503   0.521
  15.34804   0.825
  15.36107   0.394
  15.37411   0.189
  15.38717   0.301
  15.40024   0.636
  15.41333   0.481
  15.42644   0.283
  15.43957   0.598
  15.45271   0.295
  15.46586   0.667
  15.47904   0.731
  15.49223   0.452
  15.50544   0.534
  15.51867   0.482
  15.53191   0.063
  15.54517   0.193
  15.55845   0.456
  15.57174   0.278
  15.58505   0.065
  15.59838   0.527
  15.61172   0.428
  15.62509   0.296
  15.63847   0.569
  15.65187   0.697
  15.66527   0.362
  15.67871   0.397
  15.69216   0.210
  15.70562   0.463
  15.71910   0.054
  15.73260   0.566
  15.74612   0.612
  15.75965   0.681
  15.77321   0.098
  15.78678   0.446
  15.80037   0.414
  15.81397   0.413
  15.82759   0.222
  15.84123   0.483
  15.85489   0.332
  15.86857   0.427
  15.88226   0.541
  15.89597   0.672
  15.90970   0.369
  15.92345   0.324
  15.93721   0.419
  15.95099   0.443
  15.96479   0.238
  15.97861   0.349
  15.99245   0.512
  16.00629   0.382
  16.02016   0.693
  16.03406   0.659
  16.04796   0.272
  16.06189   0.476
  16.07584   0.477
  16.08980   0.269
  16.10378   0.107
  16.11778   0.565
  16.13179   0.116
  16.14583   0.371
  16.15988   0.434
  16.17395   0.495
  16.18805   0.472
  16.20215   0.740
  16.21628   0.398
  16.23042   0.513
  16.24460   0.370
  16.25877   0.452
  16.27298   0.773
  16.28720   0.728
  16.30144   0.277
  16.31569   0.626
  16.32997   0.423
  16.34427   0.310
  16.35858   0.480
  16.37291   0.273
  16.38725   0.169
  16.40163   0.522
  16.41603   0.280
  16.43042   0.418
  16.44485   0.357
  16.45930   0.315
  16.47377   0.508
  16.48824   0.270
  16.50275   0.178
  16.51727   0.611
  16.53181   0.410
  16.54637   0.325
  16.56096   0.302
  16.57555   0.573
  16.59016   0.461
  16.60480   0.542
  16.61946   0.671
  16.63414   0.472
  16.64883   0.267
  16.66356   0.408
  16.67828   0.363
  16.69304   0.566
  16.70782   0.278
  16.72261   0.242
  16.73743   0.312
  16.75226   0.491
  16.76712   0.615
  16.78198   0.595
  16.79688   0.195
  16.81178   0.503
  16.82672   0.423
  16.84167   0.540
  16.85664   0.484
  16.87164   0.568
  16.88666   0.573
  16.90167   0.213
  16.91673   0.573
  16.93181   0.631
  16.94690   0.527
  16.96202   0.510
  16.97714   0.460
  16.99229   0.247
  17.00748   0.457
  17.02267   0.290
  17.03789   0.346
  17.05312   0.119
  17.06837   0.401
  17.08365   0.396
  17.09895   0.581
  17.11426   0.308
  17.12959   0.357
  17.14496   0.540
  17.16034   0.669
  17.17574   0.320
  17.19116   0.488
  17.20659   0.413
  17.22206   0.381
  17.23753   0.399
  17.25304   0.376
  17.26857   0.207
  17.28410   0.519
  17.29968   0.409
  17.31526   0.169
  17.33087   0.575
  17.34650   0.215
  17.36215   0.514
  17.37782   0.577
  17.39352   0.709
  17.40923   0.485
  17.42497   0.497
  17.44072   0.382
  17.45650   0.577
  17.47231   0.217
  17.48813   0.585
  17.50397   0.290
  17.51982   0.336
  17.53571   0.490
  17.55162   0.347
  17.56755   0.475
  17.58351   0.580
  17.59947   0.447
  17.61546   0.591
  17.63148   0.323
  17.64752   0.313
  17.66359   0.343
  17.67966   0.469
  17.69577   0.539
  17.71190   0.460
  17.72804   0.402
  17.74422   0.073
  17.76041   0.283
  17.77661   0.310
  17.79285   0.319
  17.80911   0.413
  17.82539   0.457
  17.84171   0.363
  17.85802   0.336
  17.87437   0.138
  17.89075   0.483
  17.90714   0.580
  17.92355   0.642
  17.93999   1.044
  17.95645   1.957
  17.97293   1.383
  17.98944   0.061
  18.00597   0.240
  18.02252   0.444
  18.03909   0.346
  18.05569   0.146
  18.07231   0.568
  18.08894   0.487
  18.10562   0.525
  18.12231   0.659
  18.13902   0.339
  18.15576   0.113
  18.17252   0.498
  18.18930   0.458
  18.20610   0.577
  18.22293   0.161
  18.23979   0.376
  18.25665   0.408
  18.27356   0.541
  18.29048   0.663
  18.30742   0.083
  18.32440   0.247
  18.34138   0.321
  18.35840   0.592
  18.37544   0.630
  18.39252   0.726
  18.40959   0.301
  18.42670   0.250
  18.44385   0.127
  18.46100   0.290
  18.47820   0.589
  18.49539   0.293
  18.51262   0.240
  18.52988   -.101
  18.54715   0.537
  18.56447   0.266
  18.58179   0.240
  18.59914   0.252
  18.61652   0.281
  18.63393   0.597
  18.65135   0.368
  18.66879   0.393
  18.68626   0.317
  18.70377   0.509
  18.72128   0.239
  18.73885   0.365
  18.75641   0.543
  18.77400   0.399
  18.79163   0.565
  18.80928   0.517
  18.82695   0.291
  18.84465   0.478
  18.86237   0.490
  18.88011   0.428
  18.89789   0.335
  18.91568   0.365
  18.93350   0.571
  18.95135   0.172
  18.96922   0.306
  18.98712   0.431
  19.00505   0.433
  19.02299   0.367
  19.04097   0.653
  19.05898   0.525
  19.07700   0.511
  19.09505   0.161
  19.11313   0.416
  19.13121   0.624
  19.14935   0.271
  19.16750   0.214
  19.18568   0.510
  19.20389   0.504
  19.22212   0.349
  19.24037   0.368
  19.25865   0.190
  19.27696   0.332
  19.29530   0.219
  19.31366   0.138
  19.33205   0.401
  19.35046   0.283
  19.36891   0.242
  19.38737   0.362
  19.40587   0.502
  19.42438   0.272
  19.44293   0.467
  19.46150   0.304
  19.48010   0.126
  19.49872   0.190
  19.51738   0.316
  19.53606   0.322
  19.55476   0.373
  19.57350   0.377
  19.59225   0.116
  19.61105   0.387
  19.62987   0.222
  19.64870   0.671
  19.66757   0.425
  19.68646   0.451
  19.70538   0.173
  19.72433   0.733
  19.74332   0.342
  19.76231   0.238
  19.78134   0.362
  19.80042   0.195
  19.81950   0.571
  19.83861   0.182
  19.85776   0.455
  19.87692   0.282
  19.89612   0.422
  19.91534   0.168
  19.93460   0.376
  19.95389   0.370
  19.97319   0.318
  19.99252   0.505
  20.01190   0.470
  20.03130   0.284
  20.05072   0.071
  20.07016   0.301
  20.08965   0.272
  20.10915   0.236
  20.12869   0.295
  20.14825   0.449
  20.16785   0.414
  20.18747   0.639
  20.20711   0.611
  20.22679   0.756
  20.24651   0.451
  20.26624   0.652
  20.28600   0.440
  20.30580   0.191
  20.32562   0.408
  20.34547   0.489
  20.36536   0.250
  20.38527   0.335
  20.40520   0.296
  20.42517   0.490
  20.44518   0.381
  20.46519   0.322
  20.48526   0.543
  20.50534   0.553
  20.52545   0.281
  20.54561   0.390
  20.56577   0.244
  20.58597   0.495
  20.60622   0.386
  20.62648   0.374
  20.64677   0.239
  20.66708   0.515
  20.68745   -.014
  20.70784   0.279
  20.72826   0.245
  20.74870   0.397
  20.76917   0.559
  20.78967   0.590
  20.81021   0.416
  20.83078   0.185
  20.85138   0.316
  20.87199   0.319
  20.89265   0.556
  20.91335   0.593
  20.93407   0.523
  20.95482   0.597
  20.97560   0.440
  20.99641   0.278
  21.01726   0.442
  21.03813   0.740
  21.05904   0.073
  21.07996   0.010
  21.10094   0.492
  21.12193   -.004
  21.14296   0.118
  21.16403   0.360
  21.18512   0.417
  21.20624   0.500
  21.22740   0.218
  21.24858   0.499
  21.26981   0.509
  21.29106   0.675
  21.31233   0.277
  21.33365   0.196
  21.35501   0.309
  21.37639   0.143
  21.39780   0.389
  21.41924   0.661
  21.44072   0.244
  21.46222   0.284
  21.48376   0.493
  21.50533   0.466
  21.52695   0.195
  21.54858   0.483
  21.57025   0.375
  21.59196   0.409
  21.61369   0.666
  21.63547   0.765
  21.65726   0.258
  21.67909   0.320
  21.70097   0.207
  21.72287   0.428
  21.74480   0.446
  21.76677   0.480
  21.78877   0.356
  21.81081   0.253
  21.83287   0.402
  21.85498   0.471
  21.87711   0.248
  21.89928   0.507
  21.92148   0.269
  21.94371   0.070
  21.96597   0.444
  21.98828   0.573
  22.01064   0.261
  22.03300   0.578
  22.05540   0.314
  22.07784   0.329
  22.10031   0.317
  22.12283   0.165
  22.14537   0.433
  22.16794   0.390
  22.19055   0.149
  22.21320   0.264
  22.23589   0.233
  22.25861   0.485
  22.28134   0.459
  22.30414   -.043
  22.32697   0.243
  22.34982   0.471
  22.37271   0.097
  22.39563   0.180
  22.41859   0.236
  22.44159   0.284
  22.46463   0.134
  22.48769   0.248
  22.51079   0.525
  22.53394   0.384
  22.55710   0.198
  22.58032   0.098
  22.60356   0.231
  22.62683   0.487
  22.65016   0.223
  22.67351   0.372
  22.69690   0.222
  22.72034   0.257
  22.74379   0.430
  22.76729   0.154
  22.79082   0.069
  22.81441   0.265
  22.83801   0.192
  22.86165   0.052
  22.88533   0.236
  22.90906   0.385
  22.93282   0.504
  22.95660   0.319
  22.98042   0.439
  23.00429   0.378
  23.02820   -.009
  23.05214   0.132
  23.07613   0.539
  23.10013   0.117
  23.12419   0.582
  23.14828   0.226
  23.17241   0.099
  23.19658   0.351
  23.22078   0.477
  23.24503   0.356
  23.26930   0.376
  23.29362   0.600
  23.31798   0.383
  23.34238   0.031
  23.36681   0.524
  23.39128   0.545
  23.41579   0.232
  23.44034   0.626
  23.46492   0.371
  23.48955   0.123
  23.51421   0.126
  23.53891   0.178
  23.56366   0.066
  23.58844   0.278
  23.61325   0.140
  23.63812   0.506
  23.66302   0.414
  23.68796   0.237
  23.71294   0.471
  23.73795   0.499
  23.76302   0.559
  23.78810   0.543
  23.81325   0.546
  23.83842   0.483
  23.86363   0.426
  23.88889   0.121
  23.91418   0.491
  23.93953   0.226
  23.96490   0.548
  23.99031   0.327
  24.01578   0.341
  24.04128   0.275
  24.06682   0.122
  24.09239   0.323
  24.11801   0.448
  24.14368   0.521
  24.16939   0.483
  24.19511   0.431
  24.22090   0.361
  24.24673   0.423
  24.27260   0.492
  24.29851   0.215
  24.32446   0.458
  24.35045   0.351
  24.37648   0.314
  24.40256   0.280
  24.42868   0.286
  24.45483   0.311
  24.48103   0.497
  24.50726   0.389
  24.53355   0.383
  24.55989   0.547
  24.58626   0.401
  24.61266   0.203
  24.63911   0.466
  24.66562   0.327
  24.69217   0.424
  24.71875   0.517
  24.74536   0.514
  24.77203   0.400
  24.79875   0.270
  24.82552   0.476
  24.85231   0.666
  24.87915   0.593
  24.90604   0.176
  24.93297   0.289
  24.95995   0.311
  24.98695   0.146
  25.01401   0.158
  25.04112   0.349
  25.06827   0.300
  25.09546   0.385
  25.12270   0.156
  25.14998   0.357
  25.17731   0.110
  25.20468   0.377
  25.23210   0.208
  25.25955   0.241
  25.28705   0.304
  25.31461   0.281
  25.34219   0.393
  25.36984   0.300
  25.39752   0.279
  25.42526   0.554
  25.45303   0.173
  25.48085   0.436
  25.50873   0.134
  25.53664   0.250
  25.56459   0.277
  25.59259   -.021
  25.62065   0.509
  25.64874   0.021
  25.67690   0.354
  25.70508   0.332
  25.73331   0.087
  25.76160   0.524
  25.78993   0.280
  25.81830   0.406
  25.84673   0.535
  25.87520   0.477
  25.90372   0.503
  25.93228   0.469
  25.96089   0.042
  25.98955   0.388
  26.01825   0.329
  26.04701   0.100
  26.07581   0.379
  26.10468   0.314
  26.13356   0.344
  26.16251   0.376
  26.19150   0.231
  26.22054   0.450
  26.24963   0.309
  26.27876   0.359
  26.30795   0.482
  26.33719   0.589
  26.36647   0.131
  26.39581   0.195
  26.42517   0.520
  26.45461   0.386
  26.48410   0.488
  26.51363   0.193
  26.54321   0.303
  26.57283   0.359
  26.60251   0.100
  26.63225   0.156
  26.66203   0.212
  26.69185   0.453
  26.72173   0.232
  26.75165   0.052
  26.78163   0.440
  26.81168   0.308
  26.84175   0.102
  26.87186   0.360
  26.90205   -.054
  26.93228   0.245
  26.96257   0.142
  26.99290   0.256
  27.02327   0.248
  27.05373   0.233
  27.08421   0.493
  27.11476   0.323
  27.14534   0.222
  27.17598   0.098
  27.20668   0.591
  27.23741   0.169
  27.26823   0.588
  27.29907   0.301
  27.32997   0.211
  27.36093   0.290
  27.39194   0.217
  27.42300   0.332
  27.45410   0.100
  27.48528   0.406
  27.51649   0.197
  27.54776   0.289
  27.57909   0.261
  27.61047   0.241
  27.64191   0.270
  27.67340   0.180
  27.70493   0.050
  27.73654   0.136
  27.76817   0.157
  27.79988   0.293
  27.83163   0.080
  27.86345   0.353
  27.89532   0.581
  27.92725   0.153
  27.95921   0.284
  27.99126   0.294
  28.02333   0.273
  28.05548   0.257
  28.08768   0.185
  28.11993   0.246
  28.15224   0.329
  28.18460   0.369
  28.21703   0.374
  28.24950   0.142
  28.28203   0.064
  28.31462   0.311
  28.34726   0.259
  28.37996   0.224
  28.41272   0.245
  28.44554   0.389
  28.47841   0.443
  28.51134   0.531
  28.54433   0.298
  28.57736   0.216
  28.61046   0.256
  28.64363   0.421
  28.67683   0.122
  28.71011   0.043
  28.74344   0.129
  28.77684   0.168
  28.81029   0.265
  28.84378   0.201
  28.87735   0.269
  28.91096   0.225
  28.94466   0.344
  28.97839   0.168
  29.01219   0.435
  29.04605   0.190
  29.07997   0.312
  29.11394   0.246
  29.14798   0.316
  29.18207   0.421
  29.21623   0.393
  29.25044   0.330
  29.28473   0.383
  29.31906   0.497
  29.35345   0.267
  29.38791   0.191
  29.42244   0.205
  29.45703   0.026
  29.49165   0.131
  29.52635   0.242
  29.56111   0.347
  29.59595   0.144
  29.63083   0.271
  29.66579   -.032
  29.70079   0.171
  29.73586   0.225
  29.77098   0.221
  29.80618   0.094
  29.84146   0.165
  29.87675   0.176
  29.91214   0.231
  29.94760   0.214
  29.98311   0.116
  30.01869   0.375
  30.05432   0.227
  30.09001   0.131
  30.12579   0.339
  30.16162   0.217
  30.19749   0.413
  30.23344   0.293
  30.26947   0.355
  30.30556   -.102
  30.34171   0.204
  30.37791   0.166
  30.41420   0.076
  30.45053   0.176
  30.48695   0.283
  30.52342   0.258
  30.55997   0.257
  30.59656   0.063
  30.63324   0.181
  30.66998   0.153
  30.70677   0.203
  30.74365   0.341
  30.78058   0.110
  30.81758   0.180
  30.85464   0.071
  30.89180   0.489
  30.92900   0.159
  30.96625   0.329
  31.00360   0.400
  31.04100   0.293
  31.07848   0.253
  31.11603   0.225
  31.15363   0.196
  31.19130   0.283
  31.22905   0.303
  31.26686   0.162
  31.30475   0.151
  31.34270   0.269
  31.38072   0.273
  31.41879   0.148
  31.45697   0.089
  31.49519   0.399
  31.53348   0.158
  31.57185   0.036
  31.61031   0.295
  31.64882   0.013
  31.68738   0.317
  31.72603   0.216
  31.76476   0.327
  31.80356   0.284
  31.84241   0.329
  31.88135   0.331
  31.92033   0.296
  31.95943   0.093
  31.99857   0.306
  32.03780   0.216
  32.07709   0.181
  32.11646   -.052
  32.15588   0.064
  32.19540   0.298
  32.23499   0.103
  32.27464   0.049
  32.31436   0.103
  32.35417   0.065
  32.39406   -.100
  32.43401   0.024
  32.47403   0.230
  32.51411   0.049
  32.55429   0.135
  32.59453   0.384
  32.63486   0.041
  32.67526   0.136
  32.71571   0.335
  32.75627   0.081
  32.79691   0.276
  32.83759   0.126
  32.87836   0.017
  32.91922   0.234
  32.96013   0.238
  33.00116   0.397
  33.04224   0.458
  33.08337   0.165
  33.12460   0.079
  33.16591   0.221
  33.20731   0.206
  33.24878   0.157
  33.29031   -.016
  33.33194   0.110
  33.37363   0.043
  33.41541   0.241
  33.45726   0.238
  33.49921   0.137
  33.54120   0.245
  33.58328   0.363
  33.62549   0.284
  33.66772   0.234
  33.71007   0.212
  33.75247   0.304
  33.79494   0.160
  33.83752   0.165
  33.88019   0.105
  33.92291   0.002
  33.96571   -.081
  34.00862   0.356
  34.05159   0.033
  34.09465   0.150
  34.13779   0.160
  34.18098   0.010
  34.22430   0.200
  34.26767   0.251
  34.31116   0.250
  34.35469   -.089
  34.39833   0.054
  34.44206   0.345
  34.48584   0.185
  34.52972   0.168
  34.57370   -.007
  34.61774   0.088
  34.66188   0.337
  34.70610   0.045
  34.75041   0.204
  34.79480   0.355
  34.83926   0.276
  34.88383   0.242
  34.92847   0.218
  34.97321   0.393
  35.01802   0.308
  35.06291   0.272
  35.10791   0.249
  35.15298   -.019
  35.19815   0.084
  35.24341   0.254
  35.28874   0.107
  35.33417   0.009
  35.37968   0.004
  35.42526   -.040
  35.47098   -.061
  35.51674   0.566
  35.56261   0.146
  35.60855   0.188
  35.65462   0.142
  35.70076   0.116
  35.74696   0.271
  35.79327   -.075
  35.83968   0.203
  35.88617   0.104
  35.93275   0.225
  35.97942   0.392
  36.02618   0.331
  36.07306   -.113
  36.12000   0.368
  36.16704   0.368
  36.21417   0.406
  36.26138   0.276
  36.30870   0.334
  36.35611   0.099
  36.40363   0.181
  36.45120   0.007
  36.49890   0.135
  36.54668   0.144
  36.59457   0.155
  36.64253   0.061
  36.69058   -.129
  36.73874   -.183
  36.78702   0.029
  36.83536   -.121
  36.88380   -.194
  36.93234   -.026
  36.98097   0.247
  37.02969   -.091
  37.07854   0.146
  37.12747   0.413
  37.17647   -.052
  37.22559   -.036
  37.27481   0.289
  37.32413   0.207
  37.37357   -.101
  37.42305   0.348
  37.47266   0.240
  37.52238   -.105
  37.57219   0.308
  37.62209   0.330
  37.67207   0.028
  37.72218   0.144
  37.77238   0.200
  37.82271   -.071
  37.87311   0.232
  37.92361   0.244
  37.97423   -.135
  38.02493   0.072
  38.07574   0.297
  38.12666   0.070
  38.17766   0.433
  38.22879   -.109
  38.28001   0.242
  38.33133   -.009
  38.38277   0.016
  38.43430   0.238
  38.48593   0.333
  38.53766   0.086
  38.58951   0.196
  38.64146   0.322
  38.69350   0.054
  38.74567   0.146
  38.79793   0.283
  38.85030   -.040
  38.90277   0.351
  38.95535   -.100
  39.00804   0.260
  39.06084   0.005
  39.11372   0.015
  39.16676   0.146
  39.21985   0.078
  39.27309   0.099
  39.32640   0.170
  39.37987   0.088
  39.43341   0.199
  39.48708   -.047
  39.54085   0.163
  39.59473   0.154
  39.64873   0.155
  39.70280   0.302
  39.75702   0.215
  39.81134   0.200
  39.86580   0.161
  39.92033   0.079
  39.97499   0.212
  40.02974   0.434
  40.08464   0.059
  40.13963   0.278
  40.19475   0.134
  40.24997   0.158
  40.30530   0.150
  40.36075   0.158
  40.41632   0.049
  40.47202   0.049
  40.52780   0.039
  40.58369   0.201
  40.63972   0.573
  40.69589   0.148
  40.75215   0.117
  40.80853   0.064
  40.86501   0.166
  40.92160   0.121
  40.97833   0.193
  41.03519   0.045
  41.09218   0.297
  41.14923   -.001
  41.20644   0.088
  41.26376   0.125
  41.32120   0.180
  41.37875   0.270
  41.43645   0.422
  41.49423   0.248
  41.55219   0.170
  41.61023   -.056
  41.66838   0.066
  41.72665   0.157
  41.78506   0.116
  41.84361   0.225
  41.90228   0.223
  41.96106   0.119
  42.01996   0.375
  42.07896   0.209
  42.13814   0.235
  42.19742   0.412
  42.25682   0.109
  42.31633   0.198
  42.37598   0.191
  42.43579   0.144
  42.49568   0.175
  42.55574   0.428
  42.61589   0.076
  42.67618   0.020
  42.73659   0.133
  42.79715   0.137
  42.85782   0.083
  42.91861   0.197
  42.97955   0.062
  43.04060   0.153
  43.10181   0.211
  43.16315   0.223
  43.22455   0.208
  43.28616   0.082
  43.34790   0.123
  43.40973   0.163
  43.47169   0.188
  43.53381   0.089
  43.59608   0.153
  43.65845   0.169
  43.72096   0.070
  43.78362   0.020
  43.84637   0.157
  43.90933   0.120
  43.97238   0.181
  44.03558   0.140
  44.09889   0.182
  44.16235   0.092
  44.22597   0.194
  44.28972   0.137
  44.35358   0.048
  44.41760   0.247
  44.48172   0.035
  44.54604   0.081
  44.61046   0.109
  44.67503   -.143
  44.73976   0.094
  44.80461   0.132
  44.86960   0.319
  44.93474   0.105
  45.00000   0.169
  45.06544   0.007
  45.13098   0.170
  45.19670   0.023
  45.26253   0.001
  45.32857   -.183
  45.39470   0.016
  45.46097   0.004
  45.52739   0.036
  45.59396   0.071
  45.66069   0.000
  45.72754   0.061
  45.79456   -.046
  45.86172   -.021
  45.92905   0.014
  45.99649   -.026
  46.06410   0.245
  46.13187   0.055
  46.19975   0.127
  46.26779   -.019
  46.33600   0.195
  46.40437   0.217
  46.47287   0.064
  46.54153   0.001
  46.61035   0.057
  46.67934   0.066
  46.74844   0.180
  46.81772   0.353
  46.88712   -.055
  46.95673   0.080
  47.02644   -.075
  47.09634   -.075
  47.16637   -.068
  47.23656   -.020
  47.30693   0.050
  47.37746   -.020
  47.44815   0.045
  47.51894   0.066
  47.58994   0.099
  47.66110   0.025
  47.73241   0.125
  47.80391   -.208
  47.87552   0.017
  47.94728   0.059
  48.01927   0.120
  48.09140   0.042
  48.16365   -.084
  48.23607   -.269
  48.30872   -.296
  48.38145   -.162
  48.45441   0.096
  48.52750   -.109
  48.60077   0.042
  48.67421   0.196
  48.74779   0.260
  48.82155   0.381
  48.89549   0.163
  48.96957   -.030
  49.04387   0.110
  49.11830   0.104
  49.19293   0.021
  49.26768   0.036
  49.34264   0.049
  49.41776   -.029
  49.49303   -.009
  49.56851   0.006
  49.64415   -.124
  49.71992   -.101
  49.79593   -.045
  49.87209   0.030
  49.94841   0.124
  50.02493   -.014
  50.10161   -.036
  50.17847   0.149
  50.25551   0.058
  50.33270   0.047
  50.41013   -.044
  50.48766   -.029
  50.56541   0.442
  50.64334   -.152
  50.72148   -.058
  50.79974   -.016
  50.87823   -.310
  50.95688   0.023
  51.03571   -.034
  51.11475   0.268
  51.19392   0.160
  51.27332   0.142
  51.35289   -.089
  51.43266   -.117
  51.51259   0.031
  51.59273   0.004
  51.67305   0.087
  51.75354   0.077
  51.83423   0.047
  51.91512   0.054
  51.99620   0.001
  52.07744   0.055
  52.15887   -.112
  52.24052   -.236
  52.32237   0.067
  52.40440   -.051
  52.48660   0.077
  52.56902   0.105
  52.65163   0.303
  52.73444   0.256
  52.81744   0.091
  52.90062   -.135
  52.98401   -.062
  53.06761   -.120
  53.15140   -.036
  53.23540   -.003
  53.31955   0.013
  53.40395   0.104
  53.48854   -.103
  53.57332   -.053
  53.65833   0.065
  53.74348   0.025
  53.82889   0.109
  53.91449   0.094
  54.00029   0.009
  54.08630   -.115
  54.17250   0.026
  54.25893   -.103
  54.34555   -.053
  54.43239   0.188
  54.49760   -.053
  54.54117   -.063
  54.58481   0.099
  54.62848   0.128
  54.67220   0.255
  54.71600   -.137
  54.75983   -.051
  54.80373   0.287
  54.84766   -.004
  54.89163   -.090
  54.93570   -.073
  54.97978   -.222
  55.02396   0.096
  55.06815   -.029
  55.11240   0.249
  55.15672   0.106
  55.20108   -.174
  55.24551   0.118
  55.28998   -.089
  55.33450   0.105
  55.37909   0.101
  55.42372   -.159
  55.46841   0.107
  55.51315   0.058
  55.55794   0.060
  55.60281   0.076
  55.64771   -.057
  55.69267   -.002
  55.73769   -.235
  55.78273   -.006
  55.82788   0.083
  55.87305   -.053
  55.91829   -.005
  55.96358   -.107
  56.00890   0.131
  56.05432   0.015
  56.09976   -.031
  56.14528   -.060
  56.19084   0.059
  56.23645   0.109
  56.28214   0.078
  56.32787   0.018
  56.37366   0.127
  56.41949   0.109
  56.46538   0.048
  56.51135   -.114
  56.55734   0.184
  56.60342   0.230
  56.64954   -.016
  56.69571   -.131
  56.74196   0.123
  56.78825   -.034
  56.83461   0.325
  56.88101   0.005
  56.92746   0.171
  56.97400   -.222
  57.02055   0.053
  57.06721   0.187
  57.11389   0.014
  57.16063   -.072
  57.20746   0.048
  57.25430   -.091
  57.30124   -.201
  57.34821   -.057
  57.39523   0.372
  57.44234   0.048
  57.48949   0.018
  57.53671   0.073
  57.58397   -.021
  57.63129   0.198
  57.67870   0.206
  57.72612   0.071
  57.77364   0.109
  57.82120   -.289
  57.86879   -.191
  57.91649   0.004
  57.96422   -.027
  58.01204   0.006
  58.05988   0.029
  58.10779   -.092
  58.15578   -.042
  58.20380   0.139
  58.25191   -.069
  58.30005   -.176
  58.34825   -.063
  58.39653   0.233
  58.44485   -.151
  58.49327   -.096
  58.54170   -.002
  58.59021   0.264
  58.63881   0.253
  58.68742   0.261
  58.73613   0.120
  58.78488   -.146
  58.83368   0.303
  58.88257   0.196
  58.93150   0.105
  58.98051   0.060
  59.02956   0.087
  59.07867   0.297
  59.12787   0.487
  59.17711   1.053
  59.22643   1.100
  59.27579   0.821
  59.32520   0.252
  59.37471   0.201
  59.42424   0.134
  59.47388   0.134
  59.52354   -.023
  59.57327   0.093
  59.62309   -.089
  59.67294   0.305
  59.72289   -.106
  59.77286   -.153
  59.82291   -.220
  59.87303   0.064
  59.92320   0.128
  59.97345   -.098
  60.02374   0.035
  60.07410   0.209
  60.12456   0.062
  60.17503   0.096
  60.22562   -.082
  60.27621   0.110
  60.32689   0.201
  60.37766   0.292
  60.42845   0.152
  60.47935   0.157
  60.53029   0.001
  60.58128   0.110
  60.63237   0.231
  60.68349   0.049
  60.73471   0.064
  60.78596   0.252
  60.83728   0.229
  60.88869   0.444
  60.94014   0.198
  60.99168   0.228
  61.04326   0.250
  61.09489   -.028
  61.14664   0.161
  61.19841   0.246
  61.25029   0.106
  61.30220   0.209
  61.35417   0.000
  61.40623   0.086
  61.45834   0.206
  61.51054   0.247
  61.56279   0.104
  61.61508   0.175
  61.66750   0.282
  61.71992   0.065
  61.77246   0.191
  61.82504   0.130
  61.87767   0.330
  61.93042   0.262
  61.98318   0.427
  62.03606   0.321
  62.08897   0.270
  62.14194   0.312
  62.19502   0.459
  62.24814   0.443
  62.30135   0.190
  62.35460   0.230
  62.40791   0.484
  62.46133   0.276
  62.51479   0.265
  62.56834   0.328
  62.62193   0.315
  62.67558   0.362
  62.72935   0.364
  62.78314   0.365
  62.83705   0.248
  62.89098   0.140
  62.94499   0.713
  62.99910   0.214
  63.05325   0.086
  63.10750   0.354
  63.16177   0.491
  63.21614   0.143
  63.27060   0.035
  63.32509   0.190
  63.37968   0.230
  63.43433   0.060
  63.48903   0.263
  63.54385   0.204
  63.59869   0.178
  63.65366   0.437
  63.70865   0.491
  63.76370   0.137
  63.81888   0.469
  63.87408   0.279
  63.92940   0.349
  63.98474   0.362
  64.04016   0.456
  64.09569   0.345
  64.15126   0.387
  64.20692   0.447
  64.26263   0.817
  64.31842   0.413
  64.37431   0.345
  64.43024   0.494
  64.48628   0.278
  64.54236   0.202
  64.59850   0.552
  64.65475   0.687
  64.71104   0.576
  64.76746   0.470
  64.82390   0.687
  64.88040   0.571
  64.93703   0.816
  64.99370   0.610
  65.05046   0.496
  65.10728   0.409
  65.16417   0.278
  65.22116   0.648
  65.27820   0.583
  65.33534   0.634
  65.39253   0.800
  65.44980   0.477
  65.50717   0.451
  65.56458   0.664
  65.62210   0.428
  65.67966   0.591
  65.73730   0.749
  65.79504   0.716
  65.85284   0.927
  65.91075   0.712
  65.96869   0.725
  66.02670   0.947
  66.08484   0.742
  66.14301   0.871
  66.20129   0.594
  66.25963   0.739
  66.31802   0.964
  66.37654   0.888
  66.43510   0.733
  66.49377   1.200
  66.55249   1.069
  66.61128   0.936
  66.67018   1.117
  66.72913   1.056
  66.78819   1.020
  66.84731   0.900
  66.90648   1.131
  66.96577   0.736
  67.02512   0.861
  67.08458   1.024
  67.14407   1.006
  67.20366   1.174
  67.26335   1.377
  67.32309   1.340
  67.38293   1.326
  67.44283   1.382
  67.50281   1.457
  67.56290   1.424
  67.62303   1.368
  67.68329   1.031
  67.74359   1.317
  67.80396   1.300
  67.86446   1.219
  67.92500   1.212
  67.98566   1.531
  68.04636   1.531
  68.10713   1.467
  68.16805   1.654
  68.22899   1.597
  68.29005   1.677
  68.35115   1.977
  68.41235   1.783
  68.47366   1.709
  68.53502   2.032
  68.59650   1.650
  68.65802   1.770
  68.71962   1.721
  68.78134   1.925
  68.84311   1.998
  68.90501   1.927
  68.96695   1.979
  69.02896   2.084
  69.09111   2.093
  69.15329   2.173
  69.21561   2.029
  69.27795   2.106
  69.34041   2.046
  69.40297   2.625
  69.46558   2.264
  69.52831   2.343
  69.59109   2.343
  69.65395   2.519
  69.71693   2.381
  69.77997   2.620
  69.84314   2.792
  69.90634   2.600
  69.96964   2.897
  70.03305   2.796
  70.09651   3.072
  70.16011   3.241
  70.22374   3.049
  70.28748   2.931
  70.35132   2.983
  70.41521   3.287
  70.47923   3.247
  70.54332   3.545
  70.60747   3.538
  70.67175   3.665
  70.73610   3.988
  70.80055   3.435
  70.86507   3.444
  70.92966   3.660
  70.99438   3.728
  71.05917   4.034
  71.12407   4.993
  71.18903   4.899
  71.25407   5.174
  71.31924   5.239
  71.38446   5.186
  71.44981   5.122
  71.51521   5.585
  71.58070   6.035
  71.64632   5.529
  71.71199   5.725
  71.77780   5.814
  71.84364   6.144
  71.90959   6.802
  71.97566   6.281
  72.04179   6.390
  72.10805   6.137
  72.17435   5.737
  72.24075   6.315
  72.30728   7.187
  72.37386   6.827
  72.44058   8.529
  72.50734   7.812
  72.57420   8.428
  72.64119   8.793
  72.70824   8.001
  72.77541   8.032
  72.84264   8.306
  72.90996   9.388
  72.97742   9.849
  73.04492   9.552
  73.11258   9.049
  73.18027  10.363
  73.24806  11.256
  73.31599  11.760
  73.38397  11.287
  73.45209  10.542
  73.52026  11.362
  73.58852  12.700
  73.65692  12.397
  73.72537  12.439
  73.79398  12.735
  73.86263  13.503
  73.93135  14.168
  74.00024  13.114
  74.06917  15.190
  74.13824  15.581
  74.20737  14.510
  74.27660  14.548
  74.34596  15.686
  74.41537  15.624
  74.48494  16.507
  74.55455  16.785
  74.62427  17.917
  74.69411  19.675
  74.76402  20.172
  74.83406  19.713
  74.90416  20.555
  74.97437  21.112
  75.04471  21.126
  75.11511  23.426
  75.18565  21.730
  75.25624  24.104
  75.32695  25.039
  75.39778  23.756
  75.46869  24.219
  75.53972  24.907
  75.61082  26.987
  75.68202  27.475
  75.75336  26.937
  75.82475  25.542
  75.89630  28.733
  75.96790  26.311
  76.03961  29.381
  76.11145  27.140
  76.18336  29.291
  76.25540  29.476
  76.32751  28.840
  76.39973  28.116
  76.47209  30.378
  76.54451  33.626
  76.61708  30.815
  76.68970  31.830
  76.76242  34.535
  76.83530  36.669
  76.90823  36.849
  76.98132  36.192
  77.05446  33.891
  77.12772  32.664
  77.20110  30.152
  77.27455  36.738
  77.34816  36.095
  77.42183  30.196
  77.49561  32.325
  77.56952  33.250
  77.64351  33.101
  77.71764  30.117
  77.79184  31.159
  77.86613  28.667
  77.94060  31.079
  78.01511  30.695
  78.08977  29.708
  78.16449  29.523
  78.23933  30.354
  78.31432  27.832
  78.38937  29.776
  78.46457  24.725
  78.53984  27.817
  78.61522  24.300
  78.69075  26.980
  78.76634  25.893
  78.84209  24.433
  78.91791  23.359
  78.99382  22.913
  79.06990  24.516
  79.14604  23.696
  79.22234  23.843
  79.29869  22.486
  79.37517  19.446
  79.45180  19.833
  79.52849  20.764
  79.60535  20.091
  79.68225  20.398
  79.75928  21.718
  79.83646  20.341
  79.91371  21.161
  79.99112  21.593
  80.06860  15.462
  80.14618  17.653
  80.22394  17.147
  80.30174  18.752
  80.37971  16.338
  80.45776  16.097
  80.53590  17.742
  80.61423  15.045
  80.69261  15.286
  80.77115  14.971
  80.84976  13.610
  80.92850  13.458
  81.00739  13.291
  81.08633  16.342
  81.16547  15.701
  81.24464  14.548
  81.32394  16.069
  81.40341  16.166
  81.48296  14.592
  81.56265  16.322
  81.64243  12.174
  81.72231  12.078
  81.80237  13.291
  81.88248  12.134
  81.96277  10.006
  82.04314  10.580
  82.12361  11.360
  82.20425  10.050
  82.28497   8.997
  82.36584   9.023
  82.44679   8.483
  82.52786   9.183
  82.60910   9.551
  82.69041   8.461
  82.77190   9.056
  82.85344   8.687
  82.93512   8.099
  83.01697   8.183
  83.09888   7.350
  83.18095   7.492
  83.26311   8.088
  83.34538   8.087
  83.42784   8.135
  83.51036   7.502
  83.59305   7.068
  83.67583   6.334
  83.75871   7.810
  83.84178   7.878
  83.92491   6.397
  84.00822   6.544
  84.09161   6.882
  84.17513   6.475
  84.25880   6.517
  84.34256   6.272
  84.42650   6.611
  84.51050   5.401
  84.59464   6.466
  84.67896   6.125
  84.76334   6.002
  84.84790   5.853
  84.93254   5.748
  85.01730   6.079
  85.10225   4.620
  85.18727   4.948
  85.27246   6.342
  85.35774   6.461
  85.44315   4.882
  85.52873   5.324
  85.61440   5.235
  85.70023   4.554
  85.78615   5.150
  85.87219   4.602
  85.95842   4.925
  86.04472   4.743
  86.13112   6.555
  86.21768   5.299
  86.30443   5.004
  86.39127   4.512
  86.47821   5.204
  86.56535   5.225
  86.65259   4.820
  86.73999   4.672
  86.82747   4.051
  86.91510   4.357
  87.00290   4.975
  87.09077   4.265
  87.17886   4.674
  87.26700   3.880
  87.35529   4.732
  87.44376   4.749
  87.53232   3.820
  87.62106   4.316
  87.70988   3.199
  87.79884   4.080
  87.88799   4.322
  87.97722   3.420
  88.06664   3.939
  88.15614   4.478
  88.24579   4.299
  88.33562   4.331
  88.42552   4.401
  88.51563   4.273
  88.60580   4.319
  88.69614   3.821
  88.78665   3.673
  88.87726   3.772
  88.96805   3.546
  89.05893   3.420
  89.14995   3.719
  89.24117   3.771
  89.33246   3.603
  89.42397   3.448
  89.51553   3.530
  89.60725   3.801
  89.69917   3.368
  89.79117   3.655
  89.88338   3.860
  89.97566   3.267
  90.06808   3.787
  90.16072   2.925
  90.25343   3.176
  90.34634   3.061
  90.43935   3.238
  90.53249   3.164
  90.62582   2.942
  90.71927   3.497
  90.81290   2.797
  90.90662   2.746
  91.00047   2.796
  91.09456   2.924
  91.18872   3.139
  91.28308   2.647
  91.37753   2.815
  91.47212   2.673
  91.56693   2.976
  91.66182   2.867
  91.75691   3.075
  91.85210   2.797
  91.94743   2.776
  92.04298   2.867
  92.13861   2.477
  92.23445   2.601
  92.33038   2.750
  92.42647   2.558
  92.52275   3.070
  92.61913   2.615
  92.71573   2.735
  92.81241   2.869
  92.90924   2.384
  93.00629   2.643
  93.10342   3.141
  93.20078   2.907
  93.29822   2.246
  93.39581   2.622
  93.49362   2.559
  93.59152   2.766
  93.68964   2.294
  93.78786   2.589
  93.88622   2.674
  93.98480   2.233
  94.08348   2.317
  94.18237   2.539
  94.28136   2.182
  94.38049   2.346
  94.47986   2.593
  94.57932   2.240
  94.67899   2.505
  94.77876   2.123
  94.87869   2.345
  94.97884   2.452
  95.07909   2.474
  95.17955   2.310
  95.28011   2.087
  95.38083   1.943
  95.48178   1.970
  95.58282   2.137
  95.68410   2.398
  95.78545   2.180
  95.88698   2.067
  95.98874   2.201
  96.09058   2.352
  96.19266   2.269
  96.29483   2.473
  96.39717   1.899
  96.49973   2.034
  96.60239   1.867
  96.70528   1.975
  96.80827   1.867
  96.91144   2.096
  97.01482   1.893
  97.11830   2.044
  97.22202   1.773
  97.32584   1.948
  97.42982   2.219
  97.53403   1.759
  97.63837   1.870
  97.74290   2.097
  97.84756   1.697
  97.95238   1.802
  98.05745   1.908
  98.16260   1.847
  98.26799   1.920
  98.37350   1.840
  98.47916   2.061
  98.58507   1.773
  98.69109   1.865
  98.79732   2.169
  98.90367   1.991
  99.01019   1.668
  99.11697   2.111
  99.22383   1.958
  99.33095   1.990
  99.43816   2.011
  99.54555   1.452
  99.65317   1.812
  99.76091   1.904
  99.86890   1.525
  99.97699   1.795
 100.08525   1.770
 100.19376   1.728
 100.30237   1.644
 100.41122   1.559
 100.52020   1.825
 100.62935   1.625
 100.73874   1.679
 100.84824   1.654
 100.95799   1.865
 101.06786   1.637
 101.17790   1.666
 101.28819   1.629
 101.39859   1.812
 101.50923   1.796
 101.62000   1.922
 101.73094   2.157
 101.84213   2.116
 101.95345   1.974
 102.06500   1.716
 102.17668   1.508
 102.28854   1.816
 102.40065   1.315
 102.51288   1.487
 102.62537   1.334
 102.73795   1.560
 102.85072   1.899
 102.96376   1.877
 103.07692   1.713
 103.19034   1.547
 103.30385   1.781
 103.41757   1.620
 103.53154   1.394
 103.64563   1.514
 103.75998   1.728
 103.87445   1.582
 103.98911   1.720
 104.10402   1.728
 104.21907   1.597
 104.33437   1.417
 104.44980   1.635
 104.56540   1.614
 104.68127   1.568
 104.79727   1.383
 104.91353   1.598
 105.02991   1.186
 105.14650   1.467
 105.26334   1.718
 105.38031   1.312
 105.49753   1.371
 105.61488   1.440
 105.73244   1.521
 105.85027   1.492
 105.96822   1.617
 106.08643   1.358
 106.20477   1.306
 106.32330   1.461
 106.44212   1.512
 106.56105   1.386
 106.68027   1.246
 106.79961   1.454
 106.91913   1.306
 107.03894   1.449
 107.15887   1.473
 107.27910   1.277
 107.39943   1.306
 107.51997   1.365
 107.64081   1.382
 107.76175   1.187
 107.88298   1.404
 108.00435   1.422
 108.12592   1.260
 108.24776   1.311
 108.36974   1.220
 108.49199   1.352
 108.61440   1.079
 108.73697   1.228
 108.85986   1.290
 108.98286   1.213
 109.10617   1.265
 109.22960   1.188
 109.35324   1.183
 109.47717   1.090
 109.60123   1.305
 109.72557   1.232
 109.85007   1.244
 109.97476   1.088
 110.09975   1.265
 110.22487   1.176
 110.35028   0.920
 110.47583   1.108
 110.60159   1.190
 110.72765   1.088
 110.85384   0.962
 110.98032   1.251
 111.10695   1.045
 111.23380   1.289
 111.36093   1.308
 111.48820   1.098
 111.61577   1.025
 111.74348   0.949
 111.87143   0.904
 111.99966   1.123
 112.12804   0.948
 112.25671   0.796
 112.38553   1.196
 112.51457   1.005
 112.64392   1.102
 112.77339   1.262
 112.90318   1.044
 113.03311   1.151
 113.16327   1.547
 113.29373   1.122
 113.42435   1.400
 113.55525   1.259
 113.68631   1.453
 113.81760   1.416
 113.94919   1.432
 114.08093   1.606
 114.21300   1.690
 114.34518   1.906
 114.47762   1.897
 114.61035   2.363
 114.74324   2.256
 114.87645   2.548
 115.00981   3.286
 115.14340   3.705
 115.27730   6.256
 115.41133  10.185
 115.54572  12.403
 115.68024  12.860
 115.81499  11.831
 115.95006   8.049
 116.08530   5.267
 116.22086   3.984
 116.35654   3.103
 116.49249   2.513
 116.62875   2.234
 116.76517   1.917
 116.90190   2.106
 117.03880   1.706
 117.17593   1.325
 117.31340   1.148
 117.45102   1.598
 117.58897   1.409
 117.72708   1.201
 117.86543   1.125
 118.00410   1.522
 118.14294   1.015
 118.28210   1.342
 118.42143   1.355
 118.56102   1.071
 118.70093   1.205
 118.84100   0.944
 118.98141   1.148
 119.12196   0.875
 119.26279   1.349
 119.40395   1.061
 119.54526   0.944
 119.68692   1.149
 119.82874   1.045
 119.97081   1.051
 120.11322   1.218
 120.25580   0.896
 120.39871   0.803
 120.54181   1.208
 120.68515   1.000
 120.82884   1.226
 120.97269   1.015
 121.11690   1.169
 121.26126   0.858
 121.40590   1.061
 121.55086   0.819
 121.69601   1.066
 121.84151   0.647
 121.98717   0.681
 122.13310   0.940
 122.27939   1.000
 122.42584   0.964
 122.57265   0.679
 122.71964   0.764
 122.86687   0.977
 123.01447   1.078
 123.16226   0.942
 123.31039   0.826
 123.45869   0.735
 123.60727   0.720
 123.75621   0.740
 123.90532   0.737
 124.05481   0.758
 124.20445   0.542
 124.35439   0.847
 124.50467   0.883
 124.65515   0.741
 124.80598   0.709
 124.95702   0.651
 125.10829   0.929
 125.25996   0.926
 125.41180   0.535
 125.56403   1.136
 125.71642   0.831
 125.86909   1.041
 126.02214   0.979
 126.17535   0.783
 126.32896   0.804
 126.48276   0.770
 126.63684   0.797
 126.79128   0.753
 126.94592   0.832
 127.10092   0.650
 127.25613   0.748
 127.41162   0.815
 127.56750   0.634
 127.72356   0.729
 127.88000   0.648
 128.03664   0.887
 128.19356   0.452
 128.35086   0.685
 128.50836   0.568
 128.66624   0.735
 128.82433   0.655
 128.98270   0.836
 129.14146   0.666
 129.30042   0.688
 129.45976   0.703
 129.61931   0.820
 129.77914   0.626
 129.93938   0.623
 130.09982   0.659
 130.26064   0.656
 130.42168   0.491
 130.58299   0.530
 130.74474   0.689
 130.90666   0.560
 131.06898   0.652
 131.23152   0.631
 131.39433   0.812
 131.55759   0.422
 131.72104   0.751
 131.88487   0.589
 132.04892   0.361
 132.21329   0.617
 132.37805   0.659
 132.54303   0.540
 132.70839   0.490
 132.87399   0.417
 133.03990   0.621
 133.20621   0.720
 133.37271   0.878
 133.53967   0.542
 133.70682   0.631
 133.87428   0.515
 134.04216   0.527
 134.21025   0.602
 134.37877   0.726
 134.54750   0.644
 134.71654   0.371
 134.88600   0.366
 135.05568   0.588
 135.22580   0.685
 135.39612   0.410
 135.56677   0.357
 135.73785   0.413
 135.90913   0.333
 136.08087   0.556
 136.25281   0.529
 136.42508   0.568
 136.59778   0.285
 136.77071   0.519
 136.94408   0.476
 137.11766   0.568
 137.29156   0.576
 137.46593   0.395
 137.64050   0.169
 137.81551   0.396
 137.99075   0.439
 138.16634   0.446
 138.34236   0.684
 138.51862   0.366
 138.69531   0.427
 138.87222   0.539
 139.04950   0.223
 139.22722   0.394
 139.40515   0.508
 139.58354   0.420
 139.76218   0.518
 139.94115   0.317
 140.12056   0.504
 140.30023   0.220
 140.48035   0.292
 140.66071   0.362
 140.84140   0.561
 141.02257   0.349
 141.20396   0.346
 141.38583   0.462
 141.56792   0.236
 141.75037   0.312
 141.93327   0.276
 142.11646   0.319
 142.30008   0.432
 142.48395   0.382
 142.66817   0.318
 142.85287   0.036
 143.03781   0.212
 143.22322   0.058
 143.40889   0.087
 143.59491   0.073
 143.78140   0.032
 143.96817   0.105
 144.15538   0.024
 144.34285   0.323
 144.53070   0.387
 144.71904   0.283
 144.90761   0.024
 145.09668   0.364
 145.28600   0.375
 145.47568   0.209
 145.66585   0.401
 145.85629   -.144
 146.04723   0.177
 146.23840   -.025
 146.42998   0.296
 146.62202   0.264
 146.81432   0.290
 147.00713   0.594
 147.20021   0.424
 147.39366   0.441
 147.58760   0.037
 147.78181   0.309
 147.97655   0.323
 148.17152   0.408
 148.36690   0.466
 148.56277   0.440
 148.75891   0.576
 148.95557   0.353
 149.15250   0.584
 149.34981   0.619
 149.54762   0.690
 149.74574   0.531
 149.94434   0.490
 150.14325   0.392
 150.34253   0.614
 150.54233   0.382
 150.74240   0.563
 150.94302   0.525
 151.14388   0.441
 151.34517   0.639
 151.54697   0.429
 151.74907   0.481
 151.95168   0.644
 152.15457   0.525
 152.35786   0.526
 152.56171   0.454
 152.76584   0.562
 152.97047   0.515
 153.17543   0.377
 153.38077   0.382
 153.58665   0.285
 153.79286   0.360
 153.99959   0.355
 154.20660   0.530
 154.41403   0.405
 154.62199   0.552
 154.83028   0.641
 155.03909   0.382
 155.24818   0.303
 155.45775   0.531
 155.66785   0.778
 155.87822   0.529
 156.08890   0.467
 156.30016   0.432
 156.51193   0.497
 156.72404   0.606
 156.93657   0.495
 157.14967   0.415
 157.36308   0.336
 157.57703   0.569
 157.79131   0.456
 158.00601   0.642
 158.22131   0.309
 158.43687   0.485
 158.65303   0.494
 158.86952   0.535
 159.08643   0.329
 159.30392   0.412
 159.52173   0.516
 159.74013   0.244
 159.95880   0.189
 160.17795   0.383
 160.39769   0.218
 160.61775   0.349
 160.83839   0.371
 161.05934   0.308
 161.28076   0.404
 161.50278   0.138
 161.72511   0.260
 161.94803   0.119
 162.17130   0.087
 162.39499   0.191
 162.61931   0.007
 162.84393   0.165
 163.06920   0.105
 163.29477   0.029
 163.52081   0.275
 163.74745   0.231
 163.97444   0.111
 164.20204   0.368
 164.42998   0.194
 164.65837   0.305
 164.88741   0.340
 165.11676   0.527
 165.34673   0.499
 165.57704   0.314
 165.80786   0.457
 166.03928   0.631
 166.27106   0.696
 166.50342   0.692
 166.73619   0.917
 166.96941   1.173
 167.20326   1.257
 167.43747   1.196
 167.67233   1.780
 167.90752   2.039
 168.14322   2.257
 168.37955   2.531
 168.61623   2.532
 168.85358   3.208
 169.09126   3.709
 169.32945   4.271
 169.56828   4.709
 169.80748   5.352
 170.04733   5.574
 170.28752   6.779
 170.52827   7.942
 170.76962   9.006
 171.01140  10.200
 171.25380  11.000
 171.49658  11.335
 171.73987  11.826
 171.98383  12.418
 172.22813  12.624
 172.47314  12.927
 172.71851  13.227
 172.96443  14.898
 173.21100  11.777
 173.45795  11.483
 173.70557  12.051
 173.95358  11.361
 174.20213  10.171
 174.45134   9.878
 174.70096   9.426
 174.95125   8.908
 175.20195   8.120
 175.45317   7.806
 175.70508   7.443
 175.95740   6.795
 176.21040   6.350
 176.46378   6.308
 176.71774   5.529
 176.97237   5.106
 177.22740   5.675
 177.48317   5.276
 177.73932   5.362
 177.99599   4.386
 178.25343   3.807
 178.51123   3.518
 178.76978   4.061
 179.02870   3.897
 179.28819   3.882
 179.54843   3.996
 179.80907   4.605
 180.07042   5.218
 180.33220   6.065
 180.59451   5.609
 180.85759   4.536
 181.12111   3.248
 181.38531   3.128
 181.64995   3.272
 181.91516   2.716
 182.18117   2.696
 182.44753   2.614
 182.71466   2.612
 182.98224   2.380
 183.25037   2.559
 183.51929   2.254
 183.78860   2.240
 184.05867   2.135
 184.32919   2.165
 184.60031   2.232
 184.87219   2.492
 185.14452   2.391
 185.41762   2.182
 185.69112   2.373
 185.96523   1.971
 186.24016   1.794
 186.51550   2.021
 186.79161   1.663
 187.06815   1.725
 187.34535   1.666
 187.62332   1.805
 187.90172   1.724
 188.18095   1.870
 188.46060   1.719
 188.74089   1.675
 189.02196   1.715
 189.30350   1.745
 189.58585   1.709
 189.86865   1.729
 190.15207   1.652
 190.43633   1.720
 190.72102   1.646
 191.00653   1.513
 191.29251   1.552
 191.57915   1.539
 191.86659   1.653
 192.15453   1.657
 192.44324   2.700
 192.73248   2.226
 193.02234   2.219
 193.31303   1.774
 193.60422   1.566
 193.89622   1.302
 194.18874   1.285
 194.48192   1.474
 194.77592   1.406
 195.07040   1.522
 195.36577   1.348
 195.66159   1.540
 195.95810   1.314
 196.25546   1.239
 196.55331   1.176
 196.85205   1.401
 197.15123   0.979
 197.45116   1.391
 197.75191   1.390
 198.05321   1.345
 198.35535   1.178
 198.65799   1.010
 198.96135   1.128
 199.26558   1.073
 199.57028   1.236
 199.87593   1.181
 200.18205   1.160
 200.48892   1.041
 200.79665   0.841
 201.10490   0.965
 201.41406   0.914
 201.72375   0.858
 202.03416   1.063
 202.34543   1.024
 202.65729   0.868
 202.97002   1.093
 203.28334   1.130
 203.59734   0.965
 203.91226   0.881
 204.22772   0.725
 204.54408   0.616
 204.86102   0.942
 205.17873   0.637
 205.49730   0.673
 205.81644   0.520
 206.13657   0.705
 206.45721   0.680
 206.77859   0.669
 207.10091   0.419
 207.42381   0.276
 207.74768   0.496
 208.07207   0.545
 208.39722   0.345
 208.72339   0.358
 209.05008   0.280
 209.37775   0.445
 209.70599   0.268
 210.03497   0.349
 210.36497   0.183
 210.69556   0.292
 211.02708   0.168
 211.35919   0.258
 211.69209   0.079
 212.02600   0.055
 212.36049   -.048
 212.69598   0.181
 213.03207   0.087
 213.36891   -.049
 213.70683   0.216
 214.04529   0.005
 214.38477   0.061
 214.72484   0.196
 215.06573   -.032
 215.40767   0.056
 215.75020   0.188
 216.09373   0.324
 216.43791   0.256
 216.78288   0.757
 217.12889   0.537
 217.47559   0.903
 217.82327   1.580
 218.17152   2.343
 218.52068   4.313
 218.87090   5.080
 219.22168   7.529
 219.57359   9.474
 219.92609  10.375
 220.27945   7.273
 220.63388   5.486
 220.98895   4.902
 221.34511   4.636
 221.70192   3.575
 222.05954   3.459
 222.41826   3.289
 222.77768   2.886
 223.13815   2.609
 223.49928   2.642
 223.86130   2.208
 224.22443   2.102
 224.58821   1.889
 224.95306   2.052
 225.31865   1.872
 225.68506   1.634
 226.05261   1.778
 226.42084   1.584
 226.79021   1.680
 227.16026   1.548
 227.53122   1.412
 227.90332   1.410
 228.27606   1.480
 228.64996   1.410
 229.02460   1.447
 229.40012   1.341
 229.77679   1.313
 230.15417   1.239
 230.53273   1.002
 230.91193   1.356
 231.29213   1.134
 231.67346   1.051
 232.05556   1.297
 232.43880   1.169
 232.82275   1.153
 233.20766   1.096
 233.59378   1.269
 233.98055   1.208
 234.36861   0.856
 234.75732   1.021
 235.14708   0.918
 235.53799   0.868
 235.92964   0.920
 236.32254   0.596
 236.71617   0.694
 237.11078   0.851
 237.50659   0.881
 237.90320   0.835
 238.30101   0.612
 238.69957   0.723
 239.09920   0.765
 239.50003   0.597
 239.90163   0.535
 240.30444   0.443
 240.70807   0.326
 241.11273   0.311
 241.51862   0.352
 241.92528   0.536
 242.33324   0.507
 242.74203   0.485
 243.15181   0.484
 243.56282   0.229
 243.97470   0.119
 244.38783   0.248
 244.80180   0.094
 245.21686   -.096
 245.63316   -.006
 246.05028   -.036
 246.46873   -.223
 246.88799   0.311
 247.30832   0.002
 247.72995   -.184
 248.15245   -.073
 248.57626   0.030
 249.00087   0.287
 249.42659   0.078
 249.85370   0.177
 250.28162   0.163
 250.71094   0.583
 251.14108   0.935
 251.57227   1.091
 252.00494   1.629
 252.43837   2.417
 252.87323   3.253
 253.30891   4.173
 253.74574   5.191
 254.18401   6.580
 254.62312   7.954
 255.06361   9.620
 255.50502   7.921
 255.94751   7.326
 256.39136   6.649
 256.83618   5.940
 257.28247   5.646
 257.72974   4.760
 258.17798   3.687
 258.62769   3.611
 259.07837   3.517
 259.53052   3.265
 259.98364   3.086
 260.43774   2.528
 260.89355   2.616
 261.35010   2.579
 261.80835   2.227
 262.26709   2.140
 262.72754   1.979
 263.18921   2.061
 263.65186   1.884
 264.11597   1.783
 264.58105   1.648
 265.04736   1.832
 265.51538   1.577
 265.98413   1.162
 266.45435   1.383
 266.92578   1.738
 267.39819   2.120
 267.87231   4.099
 268.34741   3.372
 268.82397   3.006
 269.30151   2.476
 269.78052   2.265
 270.26099   2.296
 270.74243   2.117
 271.22534   1.962
 271.70947   2.153
 272.19458   1.954
 272.68164   1.985
 273.16943   2.152
 273.65894   2.311
 274.14966   2.160
 274.64136   2.636
 275.13501   2.415
 275.62964   1.565
 276.12549   1.650
 276.62280   1.396
 277.12134   1.392
 277.62158   1.361
 278.12280   1.232
 278.62573   1.307
 279.12964   1.401
 279.63501   1.472
 280.14209   1.225
 280.65015   1.304
 281.15991   1.335
 281.67090   1.496
 282.18311   1.322
 282.69702   1.334
 283.21216   1.180
 283.72876   0.999
 284.24683   1.306
 284.76611   1.301
 285.28711   1.427
 285.80933   1.516
 286.33325   1.349
 286.85815   1.301
 287.38477   1.102
 287.91284   0.986
 288.44238   1.090
 288.97339   1.190
 289.50586   1.347
 290.03955   0.998
 290.57520   1.082
 291.11182   1.017
 291.65039   0.931
 292.19019   1.192
 292.73145   1.083
 293.27441   1.333
 293.81885   1.379
 294.36475   1.380
 294.91211   1.201
 295.46094   1.433
 296.01172   1.597
 296.56348   1.821
 297.11743   2.065
 297.67236   1.704
 298.22900   1.358
 298.78735   1.372
 299.34692   1.351
 299.90869   1.252
 300.47144   1.337
 301.03564   1.634
 301.60229   1.473
 302.16968   1.296
 302.73926   0.972
 303.31006   0.781
 303.88257   0.804
 304.45703   0.952
 305.03271   1.162
 305.61035   1.027
 306.18945   1.092
 306.76978   0.824
 307.35254   1.259
 307.93652   0.999
 308.52246   0.959
 309.10962   0.934
 309.69849   0.875
 310.28955   0.815
 310.88184   1.052
 311.47632   1.169
 312.07202   1.174
 312.66943   1.080
 313.26904   1.086
 313.86987   1.123
 314.47266   1.227
 315.07715   0.822
 315.68311   0.747
 316.29150   1.030
 316.90112   0.934
 317.51270   0.934
 318.12598   0.783
 318.74072   0.707
 319.35791   0.958
 319.97632   1.050
 320.59717   0.754
 321.21899   1.018
 321.84302   0.941
 322.46924   0.943
 323.09668   1.114
 323.72656   0.925
 324.35767   0.732
 324.99072   0.883
 325.62598   0.642
 326.26294   0.648
 326.90186   0.757
 327.54248   0.866
 328.18481   0.854
 328.82959   0.816
 329.47583   0.955
 330.12427   0.954
 330.77441   0.949
 331.42627   0.861
 332.08057   0.808
 332.73657   0.870
 333.39453   0.906
 334.05444   1.095
 334.71606   1.042
 335.38013   0.844
 336.04565   0.962
 336.71362   0.978
 337.38330   1.144
 338.05493   1.118
 338.72900   1.530
 339.40454   1.892
 340.08276   3.075
 340.76245   2.865
 341.44409   2.116
 342.12817   1.458
 342.81421   1.097
 343.50244   1.282
 344.19238   1.070
 344.88452   1.067
 345.57886   1.145
 346.27539   0.971
 346.97412   1.019
 347.67456   0.851
 348.37720   0.987
 349.08228   0.710
 349.78906   0.807
 350.49854   0.716
 351.20972   0.908
 351.92310   0.728
 352.63892   0.793
 353.35669   0.880
 354.07690   0.896
 354.79907   0.987
 355.52344   0.898
 356.25024   0.683
 356.97900   0.897
 357.71045   0.883
 358.44385   0.823
 359.17944   0.958
 359.91748   0.653
 360.65747   0.965
 361.40015   0.960
 362.14502   0.955
 362.89185   1.146
 363.64160   1.035
 364.39307   0.860
 365.14648   0.703
 365.90332   0.830
 366.66187   0.941
 367.42310   0.989
 368.18652   0.931
 368.95239   1.339
 369.72070   1.455
 370.49121   1.805
 371.26465   2.294
 372.04004   1.918
 372.81787   1.407
 373.59863   1.268
 374.38110   0.955
 375.16675   0.874
 375.95435   0.804
 376.74438   0.718
 377.53735   0.913
 378.33252   0.648
 379.13062   0.549
 379.93066   0.861
 380.73340   0.739
 381.53906   0.664
 382.34668   0.604
 383.15771   0.548
 383.97046   0.548
 384.78589   0.706
 385.60449   0.643
 386.42529   0.755
 387.24927   0.964
 388.07520   1.253
 388.90381   1.931
 389.73560   3.137
 390.56934   2.884
 391.40674   2.369
 392.24585   1.956
 393.08789   1.566
 393.93335   1.437
 394.78052   1.404
 395.63135   1.353
 396.48413   1.331
 397.34009   1.384
 398.19897   1.156
 399.06030   1.295
 399.92480   1.439
 400.79175   1.668
 401.66138   1.908
 402.53442   1.802
 403.40967   1.415
 404.28857   1.360
 405.16968   0.935
 406.05371   1.058
 406.94116   0.909
 407.83081   1.133
 408.72412   1.229
 409.61987   1.045
 410.51831   0.949
 411.42065   0.908
 412.32495   0.967
 413.23315   0.991
 414.14355   1.133
 415.05737   1.012
 415.97437   0.894
 416.89404   0.899
 417.81714   1.073
 418.74292   0.886
 419.67188   0.819
 420.60425   1.045
 421.53906   0.833
 422.47778   0.999
 423.41919   0.839
 424.36353   0.734
 425.31177   0.946
 426.26245   0.865
 427.21704   0.760
 428.17432   0.715
 429.13452   0.569
 430.09888   0.657
 431.06567   0.870
 432.03638   0.780
 433.00977   0.381
 433.98633   0.763
 434.96729   0.693
 435.95044   0.455
 436.93774   0.684
 437.92773   0.785
 438.92114   0.492
 439.91846   0.812
 440.91870   0.910
 441.92285   0.624
 442.92993   0.659
 443.94043   0.651
 444.95508   0.655
 445.97241   0.706
 446.99390   0.494
 448.01831   0.614
 449.04639   0.796
 450.07837   0.762
 451.11353   0.780
 452.15283   0.833
 453.19507   1.178
 454.24072   2.003
 455.29102   2.002
 456.34399   2.119
 457.40161   1.154
 458.46167   1.053
 459.52588   0.889
 460.59448   0.992
 461.66602   1.058
 462.74194   1.038
 463.82104   1.070
 464.90381   1.027
 465.99121   0.999
 467.08179   1.486
 468.17651   2.446
 469.27490   3.155
 470.37671   3.967
 471.48340   2.907
 472.59326   1.626
 473.70776   1.459
 474.82544   1.268
 475.94702   1.211
 477.07324   1.075
 478.20288   1.026
 479.33716   0.927
 480.47461   1.272
 481.61670   1.092
 482.76318   1.135
 483.91309   1.158
 485.06763   0.940
 486.22583   1.030
 487.38818   0.863
 488.55518   0.956
 489.72607   1.091
 490.90161   0.971
 492.08057   0.969
 493.26392   1.002
 494.45239   0.923
 495.64429   0.788
 496.84131   0.620
 498.04199   0.897
 499.24683   1.060
 500.45679   0.902
 501.67065   0.667
 502.88940   0.829
 504.11230   0.750
 505.33911   0.854
 506.57153   1.177
 507.80762   0.656
 509.04883   0.707
 510.29395   0.840
 511.54370   1.044
 512.79858   0.967
 514.05786   0.843
 515.32202   1.161
 516.59033   0.846
 517.86328   0.738
 519.14160   0.702
 520.42407   0.737
 521.71216   1.039
 523.00391   0.987
 524.30054   0.996
 525.60303   0.891
 526.90942   0.830
 528.22144   0.978
 529.53760   1.094
 530.85864   1.358
 532.18555   1.399
 533.51636   0.857
 534.85327   0.703
 536.19434   0.660
 537.54053   0.382
 538.89282   0.608
 540.24878   0.613
 541.61133   0.401
 542.97778   0.677
 544.34961   0.650
 545.72729   0.685
 547.10938   0.693
 548.49780   0.714
 549.89063   0.829
 551.28882   0.841
 552.69287   0.996
 554.10156   0.905
 555.51660   0.758
 556.93628   0.662
 558.36133   0.640
 559.79248   0.593
 561.22852   0.653
 562.67114   0.750
 564.11792   1.161
 565.57080   1.524
 567.03003   2.478
 568.49390   3.229
 569.96460   3.463
 571.43994   2.542
 572.92090   1.886
 574.40894   1.170
 575.90137   1.251
 577.40063   0.948
 578.90527   0.910
 580.41528   0.779
 581.93237   0.794
 583.45435   0.857
 584.98364   1.192
 586.51782   1.190
 588.05811   1.428
 589.60498   1.844
 591.15723   2.367
 592.71655   2.938
 594.28101   3.060
 595.85229   3.639
 597.43018   2.831
 599.01343   2.804
ENDDATA           6180
ENDSUBENT         6191
ENDENTRY             6
