ENTRY            10455   20210803   20220328   20220327       1490
SUBENT        10455001   20210803   20220328   20220327       1490
BIB                  7         24
TITLE      Resonance structure of 32S+n from measurements of
           neutron total and capture cross sections
AUTHOR     (J.Halperin,C.H.Johnson,R.R.Winters,R.L.Macklin)
REFERENCE  (J,PR/C,21,545,1980) Main reference.
           #doi:10.1103/PhysRevC.21.545
           (J,NSE,78,110,1981) Corrigendum
           (P,ORNL-4976,4,197410)
INSTITUTE  (1USAORL)
FACILITY   (LINAC,1USAORL) ORELA.
CORRECTION All counts were corrected for the precise 1104 ns
           deadtime in the digital time analyzer; the maximum
           correction was 22%.
HISTORY    (19750731C)
           (19790316A) Reference update. Converted to reaction
            formalism.
           (19790504A) Title and authors corrected
           (19800408A) Reference update.
           (19801205A) Status comment added.
           (19830915A) BIB corrections.
           (20030626A) Converted to new date formats, lower case.
                       BIB updated.
           (20210803A) BP: Updated entry, added doi, digitized
            data, added Corrigendum, removed deleted subentries
            8-9, added subentries 12-13.
ENDBIB              24
NOCOMMON             0          0
ENDSUBENT           27
SUBENT        10455002   20210807   20220328   20220327       1490
BIB                  6         19
REACTION  1(16-S-32(N,0),,EN)
          2(16-S-32(N,G),,WID/STR)
          3(16-S-32(N,EL),,WID,,G)
          4(16-S-32(N,G),,WID)
          5(16-S-32(N,0),,L)
          6(16-S-32(N,0),,J)
ANALYSIS   (SLA)
ERR-ANALYS (DATA-ERR) Resonance energy uncertainty includes the
           statistical uncertainty (as evaluated by the fitting
           program) but is usually dominated by the addition in
           quadrature of the contribution from the 10 mm in
           distance plus the 1 ns in time.
FLAG       (1.) Seen in capture only
           (2.) Possible multiplet
STATUS     (TABLE) Table I, pages 548-549 of the main reference.
           (OUTDT) Cf. R.L.Macklin et al.,Nucl.Sci.Eng.78,110,1981
HISTORY    (19790316A) Data replaced. Subentries 2-4 combined.
           (19800408A) Data replaced.
           (20210803A) BP: Added ERR-ANALYS, added STATUS OUTDT
ENDBIB              19
NOCOMMON             0          0
DATA                13         64
DATA      1DATA-ERR  1DATA      2DATA-ERR  2DATA      3DATA-MAX  3
DATA-ERR  3DATA      4DATA-ERR  4DATA      5DATA-MIN  5DATA      6
FLAG
KEV        KEV        EV         EV         EV         EV
EV         EV         EV         NO-DIM     NO-DIM     NO-DIM
NO-DIM
     30.380      0.005                             63.6
        11.       1.01       0.05                              0.5

     43.103      0.015      0.076      0.005                    1.
                                          2.

     46.790      0.015      0.050      0.004                    1.
                                          2.

     97.500      0.011                             234.
         4.       0.29       0.02                              1.5

     102.71       0.02                           15000.
       100.        7.0        1.5                              0.5

     112.18       0.02                            1116.
        10.       0.38       0.03                              1.5

     145.14       0.07       0.27       0.02                    3.

         1.
     160.20       0.02       1.02       0.07        9.4
        0.5                               1.

     172.70       0.07       0.89       0.05                    4.

         1.
     202.63       0.03                            3050.
        20.       0.90       0.10                              0.5

     261.08       0.03       1.56       0.10        15.
         1.                                          0.

     272.08       0.04                            1660.
        10.       4.06       0.30                              0.5

     288.38       0.04                            2240.
        30.       1.82       0.15                              1.5

     309.13       0.04       2.53       0.20        19.
         1.                                          0.

     312.34       0.05       1.91       0.15         4.
         1.

     321.10       0.10       1.76       0.15                    9.

         1.
     345.74       0.05       1.72       0.15        43.
         2.                                          1.

     353.23       0.05       3.87       0.30        18.
         2.                                          1.

     376.55       0.05                            7850.
        30.       2.18       0.55                              0.5

     378.52       0.10       0.91       0.12        15.
         5.

     382.10       0.15       0.65       0.10                   11.

         1.
     401.11       0.07       1.52       0.12        15.
         2.

     412.33       0.06                             145.
         5.       0.90       0.08                              1.5

     425.80       0.20       0.46       0.10                   12.

         1.
     459.67       0.06       2.03       0.20       105.
         5.                                          1.

     462.76       0.06                             244.
         5.       0.44       0.05                              2.5

     513.33       0.12       2.79       0.25        24.
         5.                                          1.

     532.97       0.10       2.48       0.25        30.
         3.                                          1.

     576.04       0.25       1.72       0.25                   17.

         1.
     586.08       0.12        2.8        2.8       300.
        50.                                          1.

     586.88       0.10                            3860.
        50.        0.9        0.9                              2.5

      645.5        0.5        0.7        0.2                   20.

         1.
     649.24       0.10                            1420.
        15.       1.04       0.17                              2.5

     665.98       0.13       1.37       0.15        72.
         8.                                          0.

     675.37       0.10                             790.
        10.       0.40       0.12                              2.5

      687.8        1.0       0.86       0.25                   22.

         1.
     696.04       0.12                           11800.
       120.        2.0        1.0                              0.5

     724.79       0.11                            4500.
        50.        0.9        0.3                              0.5

      738.0        0.5        0.4        0.2                   24.

         1.
     740.85       0.12                            2240.
        25.        0.4        0.1                              1.5

      776.3        0.2        1.5        0.2       196.
        10.                                          0.

     778.65       0.12                            2880.
        30.        0.3        0.1                              1.5

     783.80       0.13        2.6        0.3       250.
        10.                                          1.

     818.72       0.13                            1690.
        20.        0.4        0.1                              2.5

     833.73       0.14        5.5        0.4       220.
        12.                                          1.

      865.6        0.4        3.9        0.4        50.
        20.                                          0.

      868.8        0.4        3.4        0.5        80.
        10.                                          0.

     884.59       0.15       17.0        1.0       260.
        25.                                          1.
         2.
     901.12       0.16        1.4        0.3       130.
        20.                                          1.

      910.5        0.5        0.5        0.2                   30.

         1.
     919.87       0.15                            2415.
        70.        0.8        0.8                              2.5

     920.88       0.16                            5550.
       100.        1.3        1.3                              1.5

     947.26       0.16                            3090.
        30.        0.8        0.2                              2.5

     984.99       0.21                            8300.
       100.        3.0        1.0                              0.5

     1007.8        0.2        0.6        0.6       210.
        70.                                          0.

     1007.8        0.2                            1550.
       150.        0.6                                         0.5

     1044.8        0.2        4.9        0.6       200.
       100.                                          0.

     1046.5        0.3                            2100.
       300.        0.5        0.5                              0.5

     1048.5        0.3                            2500.
       300.        0.5        0.5                              0.5

     1055.3        0.2                            3900.
       100.        1.2        0.3                              2.5

      1062.        1.0        2.6        1.0                   3.7

         1.
     1064.9        0.2                             305.
       100.        3.0        1.2                              0.5

     1084.2        0.2        4.0        1.0       245.
        30.                                          1.

     1091.4        0.2                             820.
        40.        0.5        0.3                              1.5

ENDDATA            198
ENDSUBENT          222
NOSUBENT      10455003     790326              20050926       0000
NOSUBENT      10455004     790326              20050926       0000
SUBENT        10455005   20210807   20220328   20220327       1490
BIB                  4         10
REACTION  1(16-S-32(N,0),,D)
          2(16-S-32(N,EL),,STF)
ERR-ANALYS (DATA-ERR) The uncertainties represent one standard
           deviation.
STATUS     (TABLE) page 554 of the main reference.
           (OUTDT) Cf. R.L.Macklin et al.,Nucl.Sci.Eng.78,110,1981
HISTORY    (19790326A) SUBENTRY superseded
           (19830915A) Data from publication added.
           (20210803A) BP: verified data, updated status and
                      added ERR-ANALYS, added STATUS OUTDT
ENDBIB              10
NOCOMMON             0          0
DATA                 6          1
EN-RES-MAX MOMENTUM L DATA      1DATA-ERR  1DATA      2DATA-ERR  2
KEV        NO-DIM     KEV        KEV        NO-DIM     NO-DIM
      1100.         0.       226.        60.   0.82E-04   0.55E-04
ENDDATA              3
ENDSUBENT           18
NOSUBENT      10455006     830915              20050926       0000
SUBENT        10455007   20210807   20220328   20220327       1490
BIB                  4         11
REACTION  1(16-S-32(N,0),,D)
          2(16-S-32(N,EL),,STF)
ERR-ANALYS (DATA-ERR) The uncertainties represent one standard
           deviation.
STATUS     (TABLE) page 554 of the main reference.
           (OUTDT) Cf. R.L.Macklin et al.,Nucl.Sci.Eng.78,110,1981
HISTORY    (19790316A) SUBENTRY superseded.
           (19830915A) Subentries 6-7 combined. Data from
                      publication added.
           (20210803A) BP: verified data, updated status and
                      added ERR-ANALYS, added STATUS OUTDT
ENDBIB              11
COMMON               1          3
EN-RES-MAX
KEV
     1100.0
ENDCOMMON            3
DATA                 6          3
MOMENTUM L SPIN J     DATA      1DATA-ERR  1DATA      2DATA-ERR  2
NO-DIM     NO-DIM     KEV        KEV        NO-DIM     NO-DIM
         1.        0.5       127.        27.   0.66E-04   0.38E-04
         1.        1.5       100.        20.   0.28E-04   0.14E-04
         2.        2.5        70.        15.    0.5E-04    0.3E-04
ENDDATA              5
ENDSUBENT           25
NOSUBENT      10455008   20210807   20220328   20220327       1490
NOSUBENT      10455009   20210807   20220328   20220327       1490
SUBENT        10455010   20210807   20220328   20220327       1490
BIB                  7         17
REACTION   (16-S-32(N,G)16-S-33,,SIG)
SAMPLE     Sample thickness 0.0248 atoms/b.
METHOD     (TOF) 40-m flight path.
DETECTOR   (SCIN) 2 nonhydrogenous fluorocarbon NE226
                  scintillators.
MONITOR    Saturated Au resonance at 4.9 eV used to calibrate
            ratio of detector efficiency for gamma-ray detectors
            vs. Li-glass flux monitor.
STATUS     (CURVE) Figs. 1-2, page 546 of the main reference.
           (OUTDT)
           **** Capture cross section requires a correction
                by a factor of 1.1131 due to error in processing
                code (private communication, Macklin and Winters,
                9/24/1980).
HISTORY    (19800207A) BIB correction.
           (19830915A) BIB update.
           (20210803A) BP: updated subentry, digitized data.
ENDBIB              17
COMMON               1          3
EN-ERR
PER-CENT
        0.1
ENDCOMMON            3
DATA                 2        977
EN         DATA
KEV        MB
     25.205      1.552
     25.512     -1.694
     25.921     -1.775
     26.279     -1.846
     26.638     -1.917
     27.047     -1.998
     27.354     -2.059
     27.815     -3.743
     28.275      0.943
     28.531     -0.700
     28.889      0.821
     29.350     -0.863
     29.657      7.038
     29.913     11.764
     30.067     22.880
     30.118     70.638
     30.271    382.697
     30.271    330.152
     30.322    492.555
     30.476    123.113
     30.527     40.304
     30.527     19.604
     30.732      6.825
     31.039      3.579
     31.448      0.314
     31.909      0.222
     32.318     -1.451
     32.677     -3.114
     33.035     -0.001
     33.547     -3.287
     33.854     -0.163
     34.314     -1.847
     34.621     -1.908
     35.235      1.155
     35.389     -2.060
     35.696     -2.121
     35.901      5.800
     36.208     -2.222
     36.464     -2.273
     36.822     -0.752
     37.157     -4.497
     37.440     -1.626
     37.769      1.236
     38.098     -1.756
     38.568     -4.777
     38.850     -3.369
     39.180      2.420
     39.509     -3.500
     39.885     -3.574
     40.073      0.780
     40.450     -3.686
     40.591     -2.250
     41.014     -2.334
     41.437     -3.882
     41.766     -2.484
     42.143      0.369
     42.378      0.323
     42.707     -1.206
     42.848     -1.234
     42.989      8.983
     43.083     19.211
     43.083     71.903
     43.130     -1.290
     43.365     -4.264
     43.695     -5.793
     44.024     -4.395
     44.306     -4.451
     44.588     -3.043
     44.964     -6.045
     45.388     -4.665
     45.764     -4.740
     46.234     -6.297
     46.563     -6.362
     46.704      9.710
     46.799     37.502
     46.846     22.856
     46.846     -2.027
     47.081     -6.465
     47.504     -6.549
     47.974     -8.106
     48.398     -5.262
     48.821     -3.882
     49.244     -5.430
     49.667     -5.514
     50.044     -5.589
     50.279     -7.099
     50.796     -5.738
     51.266     -5.831
     51.549     -5.887
     52.113     -5.999
     52.536     -7.547
     52.818     -9.066
     53.477     -6.269
     54.135    -10.791
     54.558     -6.484
     55.358     -6.642
     55.828     -8.199
     56.675     -9.831
     57.051     -8.442
     57.851    -10.064
     58.462     -7.258
     58.603     -8.750
     58.979     -7.360
     59.497     -8.927
     60.014     -9.029
     60.437     -9.113
     60.813     -7.724
     61.096    -10.707
     61.472     -7.855
     61.660    -10.819
     62.554     -9.533
     62.742     -6.643
     63.071     -6.708
     63.306    -12.609
     63.870    -11.258
     64.952    -11.472
     65.469     -8.647
     65.987     -7.286
     66.316    -11.743
     66.927     -8.936
     67.162    -11.910
     67.680    -12.013
     68.056     -9.160
     68.479    -10.708
     68.761    -10.764
     69.185     -7.920
     69.890    -10.988
     70.176     -1.124
     70.515      1.798
     71.355     -1.124
     71.526      1.573
     72.537      1.798
     72.872     -0.899
     73.548      1.348
     73.884     -0.899
     74.560      1.573
     74.895     -1.348
     75.739      1.348
     76.243     -0.674
     76.919      1.348
     77.087      0.000
     77.932      3.371
     78.266      0.000
     78.773      1.798
     79.446     -0.225
     79.616      1.798
     80.459      1.798
     80.794     -0.899
     81.302      3.146
     81.974     -0.899
     82.311     -0.449
     82.314      3.371
     83.493      3.371
     83.828      0.225
     84.670     -0.449
     84.841      2.247
     85.682     -0.449
     86.022      3.820
     86.356      0.225
     87.199      0.000
     87.370      3.371
     88.379      0.899
     88.551      4.944
     89.391      1.798
     89.731      5.843
     90.234      2.022
     90.404      3.820
     91.584      4.270
     91.920      3.146
     92.092      8.315
     92.259      6.067
     93.269      3.596
     93.272      8.090
     94.113      5.169
     94.620      8.090
     95.294      6.742
     95.295      9.438
     95.633     10.787
     96.137      8.315
     96.644     10.562
     96.650     18.652
     96.670     46.517
     96.816     14.831
     96.983     12.135
     96.991     24.270
     97.499     27.640
     97.525     64.045
     97.663     21.573
     97.826     12.360
     97.830     18.202
     97.997     16.180
     98.837     12.135
     98.838     14.157
     99.851     17.079
    100.697     20.674
    101.029     13.708
    101.538     18.876
    101.873     15.506
    102.209     14.831
    102.550     20.674
    102.882     13.034
    103.223     18.876
    103.558     15.955
    104.236     20.899
    104.569     14.607
    104.735     12.135
    104.739     17.528
    105.414     17.978
    106.084     11.910
    106.259     21.348
    106.762     17.303
    107.267     16.404
    107.768     10.787
    108.109     15.730
    108.611     10.787
    109.288     14.607
    109.959     10.787
    110.132     16.404
    110.635     12.584
    110.975     16.854
    111.146     20.449
    111.310     14.831
    111.485     23.820
    111.489     29.213
    112.157     20.899
    112.164     31.011
    112.325     19.101
    112.487     10.562
    112.658     13.933
    113.159      6.966
    113.835     10.112
    114.506      4.719
    114.507      6.966
    116.025      8.539
    116.360      4.944
    117.202      3.820
    117.204      6.966
    117.710      8.539
    118.213      4.719
    118.889      7.416
    119.055      2.697
    120.235      4.045
    120.572      2.921
    120.574      6.742
    121.585      5.169
    121.751      1.573
    122.259      5.843
    122.594      2.472
    123.775      4.719
    123.942      1.573
    124.955      5.169
    125.121      1.348
    126.135      4.719
    126.470      1.573
    127.144      2.247
    127.147      5.618
    127.988      3.820
    128.493      3.371
    128.660      0.674
    129.672      1.124
    129.842      4.494
    130.685      4.045
    131.020      0.674
    132.033      3.371
    132.536      0.449
    133.381      2.921
    134.221      0.225
    134.898      3.146
    135.740      2.697
    136.412     -0.225
    136.919      2.022
    138.098      0.449
    138.100      2.697
    139.278      0.225
    140.290      2.472
    140.963     -0.225
    141.977      4.045
    142.480     -0.225
    142.482      3.820
    142.650      2.022
    143.659     -0.674
    143.661      2.472
    144.336      3.371
    144.683     17.753
    144.854     20.674
    145.008     -0.225
    145.352      9.438
    145.515      1.798
    146.190      3.371
    146.694      0.449
    147.538      3.146
    148.210      0.000
    148.381      2.697
    149.053      0.449
    149.392      3.596
    150.233      0.225
    150.908      2.247
    151.413      0.449
    151.415      3.371
    152.592     -0.674
    152.595      3.820
    153.099      1.798
    153.771     -0.674
    154.954      2.921
    155.120     -0.225
    156.132      1.124
    157.313      2.247
    157.648      0.225
    158.830      2.247
    159.166      0.674
    159.505      3.820
    159.689     26.517
    159.698     38.652
    159.874     49.438
    160.011      5.169
    160.040     45.618
    160.188     16.854
    160.346      1.573
    160.536     31.461
    160.552     55.056
    161.862      0.899
    162.874      1.348
    164.559      0.899
    165.571      1.348
    166.750      0.899
    168.436      1.573
    169.447      1.348
    171.132      1.348
    172.151     11.685
    172.166     33.258
    172.327     22.472
    172.486      8.539
    172.498     26.067
    172.652      5.843
    172.819      3.596
    172.847     43.596
    173.492      1.124
    174.335      1.348
    175.346      0.899
    177.031      0.674
    178.211      0.899
    179.054      1.348
    180.233      1.124
    181.413      1.124
    182.592      0.449
    183.772      0.225
    184.615      1.348
    185.626      0.674
    186.637     -0.225
    187.987      2.472
    188.154      0.674
    189.167      2.472
    189.335      1.348
    190.682     -0.225
    191.525      1.124
    193.043      1.573
    193.717      2.022
    195.064      0.449
    196.076      1.124
    197.257      2.247
    198.773      2.247
    199.617      4.045
    200.291      3.146
    200.462      6.292
    200.797      4.494
    201.978      5.169
    202.653      6.742
    203.157      4.944
    203.493      3.371
    204.504      2.022
    205.684      3.146
    206.020      1.124
    207.031      1.124
    207.200      2.247
    207.704     -0.225
    208.043      1.573
    208.547      0.449
    209.727     -0.449
    210.402      1.124
    210.907      0.449
    212.255      0.225
    213.097     -0.225
    214.615      0.000
    215.794      0.000
    217.143      0.225
    218.491      0.674
    219.840      0.449
    220.682     -0.449
    221.862      0.225
    222.536      0.000
    223.042      0.674
    224.222      0.674
    225.233      0.449
    225.906     -0.225
    226.413      0.449
    227.593      0.899
    228.940     -0.225
    230.289      0.225
    231.806      0.225
    232.649      1.573
    233.996     -0.449
    234.503      0.899
    235.682      0.225
    235.852      1.798
    237.198     -0.449
    237.874      0.899
    238.717      1.348
    239.896      0.449
    240.233      1.348
    241.243     -0.449
    242.424      0.449
    243.941      0.449
    244.783      0.225
    245.795      0.449
    246.300      0.225
    247.648     -0.225
    248.660      0.674
    248.996     -0.225
    249.978      0.640
    251.351      1.657
    252.183      0.640
    254.384      1.512
    254.665      0.203
    256.038      1.366
    257.420      0.494
    257.688      2.384
    258.795      1.366
    259.341      2.529
    260.643     20.843
    260.648     19.535
    261.141     33.488
    261.173     25.930
    261.523      8.052
    261.825      1.657
    264.034      0.930
    264.855      2.238
    266.784      2.384
    267.064      1.366
    268.432      3.837
    268.699      5.727
    268.711      2.820
    269.805      4.855
    270.067      8.198
    270.612      9.651
    270.865     15.174
    271.129     17.936
    272.251     13.285
    272.497     20.407
    272.528     12.994
    273.086     11.250
    273.108      6.017
    274.216      4.855
    274.771      3.837
    275.327      2.674
    276.436      1.221
    278.085      2.238
    278.366      1.076
    280.023      0.349
    280.568      1.802
    281.668      2.384
    282.766      3.401
    283.597      2.529
    285.522      3.547
    285.786      6.308
    286.048      9.651
    286.302     14.738
    286.842     17.355
    288.190     24.622
    288.235     14.012
    288.480     21.279
    288.775     16.483
    289.068     12.558
    289.349     11.250
    289.659      2.965
    290.202      4.855
    290.767      1.657
    292.144      1.948
    293.252      0.640
    294.351      1.512
    295.447      2.965
    295.733      0.494
    296.833      1.221
    298.207      2.238
    299.316      0.640
    300.684      2.965
    300.971      0.349
    302.343      1.657
    303.451      0.349
    305.101      1.366
    306.210     -0.087
    307.305      1.657
    308.124      3.401
    308.584     25.349
    308.853     26.802
    308.881     20.262
    309.110     31.308
    310.015     12.703
    310.063      1.221
    310.608      2.820
    312.465     20.116
    313.370      1.366
    314.752      0.494
    317.508      0.640
    320.732     20.407
    321.015     18.663
    321.025     16.337
    321.918      0.494
    324.123      0.640
    324.672      1.076
    327.155      0.640
    329.912      0.349
    331.842      0.349
    332.663      1.657
    334.045      0.640
    334.872      0.640
    336.801      0.930
    338.457      0.203
    339.279      1.366
    341.213      0.349
    342.866      0.640
    344.518      1.076
    345.561     15.174
    345.827     17.500
    346.126     11.977
    347.550      1.076
    348.930      0.494
    350.860      0.494
    351.681      1.802
    352.923     34.360
    352.943     29.709
    352.951     27.674
    354.440      1.076
    356.371      0.785
    358.302      0.494
    359.401      1.366
    359.957      0.203
    362.158      1.076
    364.366      0.494
    365.741      1.221
    367.670      1.221
    369.326      0.785
    371.802      1.802
    374.555      2.674
    377.033      3.401
    379.213      9.215
    380.349      1.366
    380.893      3.110
    382.534      6.017
    383.933      1.076
    385.583      2.093
    385.588      0.930
    387.792      1.076
    389.169      1.366
    390.551      0.349
    393.302      1.657
    395.237      0.349
    398.817      1.076
    401.537      9.942
    403.231      0.203
    404.606      0.930
    407.914      0.930
    409.571      0.058
    410.944      1.366
    412.833     10.959
    413.701      1.076
    415.358      0.349
    417.560      1.076
    419.216      0.640
    420.868      1.076
    422.249      0.494
    423.349      1.076
    424.172      1.802
    425.546      2.965
    426.101      1.948
    428.036      0.785
    429.137      1.076
    429.691      0.349
    431.618      1.076
    433.824      0.640
    435.476      1.076
    437.133      0.494
    438.507      1.366
    440.164      0.640
    442.092      1.076
    444.850      0.494
    447.330      0.640
    449.260      0.640
    451.187      1.076
    452.844      0.494
    453.945      0.785
    455.049      0.494
    456.976      1.076
    459.145      9.651
    459.429      7.762
    459.961     12.267
    461.935      1.512
    462.740      6.744
    463.590      1.366
    465.796      1.076
    465.801     -0.087
    470.485      0.203
    472.412      0.930
    474.345      0.058
    477.928      0.203
    480.408      0.203
    481.509      0.640
    483.717     -0.087
    485.920      0.494
    488.675      0.785
    488.678     -0.087
    492.811      0.349
    494.189      0.349
    499.426      0.494
    500.937      3.616
    501.889      4.182
    503.164      3.613
    504.437      3.540
    506.662      3.891
    508.570      4.172
    511.114      4.239
    512.053      7.499
    512.670     11.682
    512.991     11.044
    513.317      9.341
    513.653      5.582
    513.949     10.333
    513.961      7.780
    513.976      4.659
    514.604      6.361
    514.932      4.232
    515.889      3.664
    517.797      3.944
    519.707      3.587
    522.889      3.369
    523.520      4.503
    524.478      3.721
    527.340      4.142
    529.249      3.926
    530.513      5.697
    530.827      6.760
    531.471      5.057
    532.086      9.453
    533.367      7.749
    533.370      7.182
    533.680      8.812
    533.993      9.876
    534.011      6.046
    534.022      3.777
    534.336      4.698
    536.887      3.489
    539.749      3.555
    541.337      4.120
    541.979      2.984
    543.248      3.691
    546.747      3.828
    547.704      3.188
    549.291      3.965
    550.884      3.537
    553.748      3.320
    554.381      4.099
    555.656      3.601
    556.931      3.102
    558.837      3.525
    562.019      3.520
    563.611      3.163
    566.153      3.868
    566.792      3.158
    568.378      4.290
    569.017      3.651
    570.609      3.435
    573.154      3.360
    573.469      4.069
    575.362      7.328
    576.003      6.405
    576.972      3.354
    577.921      4.346
    579.512      4.272
    581.743      3.560
    582.375      4.480
    583.317      7.032
    583.959      5.754
    584.586      7.668
    584.893     10.150
    585.524     11.213
    586.795     11.494
    587.772      6.741
    588.096      5.535
    588.420      4.329
    588.740      3.832
    590.331      3.901
    591.923      3.472
    595.102      3.964
    595.105      3.326
    596.697      3.039
    598.285      3.675
    600.515      3.104
    602.102      3.811
    604.649      3.452
    607.192      3.732
    609.104      3.162
    611.326      4.222
    612.920      3.439
    614.831      3.011
    616.739      3.079
    618.330      3.147
    620.554      3.640
    622.784      3.069
    626.283      3.205
    627.235      3.558
    629.141      4.265
    630.099      3.554
    632.009      3.196
    633.280      3.478
    635.826      3.403
    638.688      3.540
    642.825      3.392
    644.726      4.949
    645.677      5.657
    646.628      6.365
    648.216      6.858
    649.817      4.799
    651.095      3.663
    653.640      3.588
    656.504      3.441
    660.959      3.151
    664.455      3.925
    665.080      6.335
    666.033      6.618
    666.037      5.837
    666.996      4.701
    668.274      3.635
    668.912      3.209
    671.773      3.772
    675.265      5.185
    676.542      4.332
    678.773      3.477
    681.637      3.331
    683.544      3.611
    685.771      3.750
    687.358      4.385
    690.544      3.458
    692.131      4.165
    694.998      3.451
    695.948      4.230
    697.860      3.731
    699.767      4.011
    701.998      3.086
    702.633      3.439
    704.861      3.294
    707.084      4.000
    710.268      3.427
    711.542      3.212
    712.812      3.778
    716.630      3.630
    718.539      3.627
    719.490      4.335
    721.719      3.764
    723.946      3.831
    725.853      4.112
    727.767      3.116
    729.674      3.467
    731.583      3.394
    733.808      3.745
    735.401      3.246
    737.941      4.447
    738.897      4.020
    740.484      4.869
    741.761      3.803
    744.946      3.089
    745.579      3.797
    747.809      3.226
    750.671      3.292
    751.628      2.936
    753.217      3.217
    755.444      3.143
    756.715      3.425
    759.898      3.207
    761.169      3.560
    763.397      3.272
    766.578      3.267
    769.123      3.405
    772.304      3.400
    774.843      4.673
    774.847      3.892
    777.066      5.520
    779.297      4.595
    781.208      4.237
    781.846      3.740
    785.017      6.004
    785.976      5.010
    786.622      3.023
    788.846      3.587
    791.708      3.866
    793.300      3.509
    795.211      3.080
    799.029      3.003
    800.402      0.000
    802.310      0.092
    804.861      0.587
    807.077      0.069
    809.308      0.464
    812.498      1.159
    814.704      0.032
    816.954      1.544
    817.258      0.730
    819.180      1.634
    820.436      0.715
    821.373     -0.305
    824.564      0.492
    828.376      0.371
    830.294      1.073
    830.328      3.103
    830.668      4.421
    832.640      8.370
    833.930      9.480
    834.799      4.401
    834.859      8.055
    835.392      1.860
    835.411      2.976
    836.966      0.939
    838.863      0.320
    842.039      0.204
    844.275      0.903
    846.163     -0.223
    847.767      0.683
    849.032      0.271
    852.517     -0.355
    854.441      0.651
    858.566      0.225
    861.740      0.006
    863.368      2.333
    863.383      3.246
    863.415      5.175
    864.698      5.879
    864.731      7.909
    867.235      5.562
    868.827      5.758
    869.434      4.029
    869.693      0.475
    870.034      1.894
    872.545     -0.046
    875.099      0.652
    877.949      0.029
    880.185      0.729
    881.125     -0.088
    881.480      2.143
    881.830      4.070
    882.057     17.773
    882.178      5.896
    882.260     10.869
    882.304     13.508
    882.640     14.623
    883.170      8.226
    884.041     22.432
    885.277     20.295
    885.823     14.912
    885.891     18.972
    886.301      5.368
    886.321      6.586
    886.383     10.342
    886.867      1.204
    887.205      2.420
    888.448      0.688
    890.018     -0.436
    890.990      0.676
    892.562     -0.347
    895.432      0.248
    896.061     -0.161
    898.931      0.434
    900.845      0.831
    902.777      2.344
    903.703      0.716
    905.913     -0.209
    909.729     -0.024
    911.345      1.592
    911.967      0.777
    914.496     -0.047
    914.843      1.677
    915.498      2.891
    917.444      5.217
    918.449      8.358
    918.466      9.373
    920.672      8.246
    921.862      3.368
    921.910      6.210
    922.794      2.044
    924.349      0.006
    925.639      1.116
    927.536      0.498
    927.862      1.004
    931.018     -0.331
    933.242     -0.342
    934.212      0.669
    935.785     -0.354
    935.800      0.560
    938.337      0.243
    940.886      0.636
    941.826     -0.180
    943.100      0.016
    945.648      0.309
    947.588      2.329
    948.193      0.499
    950.088     -0.221
    951.691      0.584
    953.596      0.473
    955.173     -0.245
    957.394     -0.459
    960.263      0.035
    962.805      0.022
    963.429     -0.691
    965.995      0.717
    967.568     -0.204
    970.124      0.596
    972.330     -0.532
    973.299      0.377
    976.783     -0.350
    978.064      0.252
    979.666      1.057
    983.801      1.240
    984.734      0.017
    987.285      0.512
    988.880      0.910
    990.449     -0.315
    992.363      0.081
    994.900     -0.235
    998.730      0.761
    999.349     -0.257
   1002.513     -1.085
   1003.477     -0.480
   1004.761      0.326
   1007.638      1.327
   1009.521     -0.104
   1013.960     -0.734
   1017.163      0.773
   1018.425      0.158
   1020.662      0.959
   1022.236      0.038
   1024.442     -1.090
   1025.727     -0.284
   1027.953     -0.193
   1029.542     -0.201
   1031.442     -0.616
   1033.682      0.286
   1036.848     -0.439
   1038.428     -0.955
   1040.671      0.151
   1041.974      2.073
   1043.925      4.703
   1044.532      2.974
   1046.405      0.935
   1048.621      0.417
   1050.835     -0.203
   1051.495      1.215
   1052.741     -0.314
   1054.059      2.522
   1056.288      2.816
   1057.218      1.390
   1059.098     -0.243
   1061.321     -0.356
   1062.311      1.873
   1064.546      2.471
   1065.837      3.683
   1067.414      2.965
   1068.038      2.251
   1072.758     -0.614
   1074.044      0.293
   1076.247     -1.037
   1078.164     -0.437
   1080.082      0.264
   1083.265      0.553
   1085.210      2.878
   1087.716      0.633
   1089.945      0.926
   1092.474      0.102
   1093.762      1.111
   1095.317     -0.927
   1099.450     -0.845
ENDDATA            979
ENDSUBENT         1005
SUBENT        10455011   20210807   20220328   20220327       1490
BIB                  6          7
REACTION   (16-S-32(N,TOT),,SIG)
SAMPLE     Thin sample, 0.02313 atoms/b.
DETECTOR   (SCIN) NE110 plastic scintillator.
METHOD     (TOF) 200-m flight path.
STATUS     (CURVE) Fig. 1, page 546 of the main reference.
HISTORY    (19830915C)
           (20210803A) BP: updated subentry, digitized data.
ENDBIB               7
NOCOMMON             0          0
DATA                 2        447
EN         DATA
KEV        B
     25.076     -0.358
     25.332      3.060
     25.434     -1.497
     25.793      3.060
     25.844     -1.117
     26.305      2.681
     26.406     -0.737
     26.765     -0.737
     26.867      2.681
     27.174     -1.877
     27.328      1.921
     27.634     -1.497
     27.788      2.301
     27.993     -1.497
     28.198      1.921
     28.607     -1.497
     28.710      2.681
     28.965     -1.117
     29.426      2.301
     29.476     -1.877
     29.783     -1.497
     29.937      2.301
     29.989      6.858
     30.147     35.343
     30.349     19.392
     30.351     26.608
     30.359     81.298
     30.399      9.897
     30.400     12.935
     30.551      1.162
     30.552      6.479
     30.756     -1.117
     30.910      3.060
     31.062     -2.257
     31.268      1.541
     31.421     -2.257
     31.780      2.301
     31.984      0.022
     32.444     -1.117
     32.445      3.440
     32.905     -2.257
     33.161      1.541
     33.468     -1.117
     33.673      1.921
     33.877     -1.497
     34.133      1.162
     34.542     -1.497
     34.543      3.440
     34.798      1.541
     35.003      3.440
     35.105     -1.117
     35.565     -1.117
     35.668      1.541
     36.231      2.681
     36.333     -1.497
     36.692      2.301
     37.049     -0.358
     37.101      3.440
     37.561     -0.358
     37.817      1.921
     37.970     -0.358
     38.329      1.541
     38.636     -0.737
     38.841      1.921
     39.147     -1.497
     39.301      1.921
     39.608     -0.737
     39.966      1.541
     40.068     -1.497
     40.478      0.782
     40.580     -1.117
     40.938     -0.737
     41.143      1.162
     41.655     -0.737
     41.757      1.541
     42.013     -0.737
     42.320      1.162
     42.627     -0.358
     42.934      1.921
     43.036     -1.117
     43.445     -1.117
     43.446      1.541
     43.957     -0.737
     44.418      0.782
     44.980     -1.877
     44.981      1.162
     45.339     -0.358
     45.697      0.022
     46.157     -1.497
     46.618      0.022
     47.130     -0.358
     47.386      1.162
     47.436     -1.877
     47.641     -0.737
     47.795      1.162
     48.000      2.301
     48.101     -2.257
     48.409      1.921
     48.562     -1.497
     48.767     -1.877
     49.023      1.541
     49.279      0.022
     49.535      1.541
     49.790     -1.117
     50.148     -1.877
     50.149      1.162
     50.353     -1.497
     50.711     -0.358
     50.967      0.782
     51.172     -1.117
     51.428      1.541
     51.734     -1.877
     51.888      1.541
     52.093     -0.358
     52.502     -1.117
     52.707      0.782
     53.014     -1.877
     53.321      1.541
     53.525     -1.877
     53.782      0.782
     54.088     -1.117
     54.242      1.162
     54.600     -0.737
     55.009     -1.497
     55.061      1.541
     55.265     -0.737
     55.624      0.402
     55.930     -1.877
     56.135      1.162
     56.442     -0.737
     56.800     -1.117
     56.954      1.541
     57.261      0.402
     57.363     -1.497
     57.619      0.022
     57.977      0.402
     58.233     -0.737
     58.591     -0.358
     58.949     -0.358
     59.103     -1.877
     59.257      0.782
     59.512     -0.737
     59.922      0.782
     60.331     -0.358
     60.638      1.162
     60.842     -1.117
     61.047      0.402
     61.610     -0.737
     62.020      0.782
     62.326     -0.737
     62.685      0.402
     63.145     -0.737
     63.503      0.402
     63.708     -1.497
     64.015     -1.117
     64.476     -0.358
     64.731     -1.497
     65.090      0.782
     65.192     -1.117
     65.704      1.162
     65.857     -1.117
     66.215     -1.497
     66.369      0.022
     66.727      0.402
     67.239      0.402
     67.648      0.022
     67.904      0.022
     68.211      0.402
     68.620     -1.117
     69.030      1.541
     69.285      0.402
     69.542      1.921
     69.643     -0.737
     70.002      0.782
     70.360      0.402
     70.683      1.556
     70.850     -0.222
     71.864      2.222
     72.031     -0.222
     73.045      2.000
     73.886     -0.889
     74.563      2.000
     75.405     -0.444
     75.575      1.778
     76.418      0.444
     76.754     -1.333
     77.600      1.778
     77.936      0.000
     79.287      2.000
     79.454     -0.667
     80.299      1.778
     80.803     -0.667
     81.815     -0.667
     81.986      1.778
     83.168      3.556
     83.334     -0.667
     84.514     -1.333
     84.517      3.111
     85.527     -0.222
     85.867      3.333
     86.708     -0.444
     87.048      3.333
     87.551      0.000
     88.398      3.778
     88.733      0.444
     89.239      0.667
     89.579      3.778
     90.757      1.111
     90.929      4.889
     91.605      6.222
     91.770      1.778
     92.786      6.889
     92.951      2.222
     93.965      4.000
     94.136      7.778
     94.978      5.111
     95.150      9.778
     95.654      6.444
     96.161      8.000
     96.332     12.222
     96.500     10.222
     96.839     12.889
     97.178     14.667
     97.374     53.556
     97.851     12.000
     97.854     16.889
     98.529     17.556
     99.032     13.333
     99.540     14.889
     99.543     19.111
    100.216     17.556
    100.388     21.556
    101.061     19.333
    101.402     24.000
    101.910     26.444
    102.075     21.556
    102.585     27.111
    103.425     22.667
    103.598     28.444
    104.774     22.000
    104.779     28.222
    105.959     26.889
    106.461     21.111
    106.970     25.556
    107.640     19.778
    107.643     24.000
    108.145     18.000
    108.823     22.222
    109.494     17.111
    109.834     20.444
    110.844     17.556
    110.846     20.000
    111.016     21.778
    111.524     24.889
    111.527     29.333
    111.869     35.556
    111.888     61.778
    112.372     31.556
    112.383     46.222
    112.703     22.222
    112.705     24.667
    113.036     16.222
    113.709     13.778
    113.713     19.333
    114.387     17.556
    114.889     11.556
    115.229     15.333
    116.237     10.222
    116.914     13.556
    117.585      8.222
    117.924      9.778
    118.095     13.111
    119.103      7.556
    119.107     12.444
    119.949     11.333
    120.284      7.333
    121.467     11.111
    122.645      6.444
    123.154     10.667
    123.319      5.556
    124.334      8.889
    124.838      6.444
    125.178     10.222
    125.850      5.333
    126.021      9.556
    127.031      5.778
    127.707      8.444
    128.549      5.333
    129.900      8.444
    130.235      4.889
    130.910      4.444
    131.418      6.889
    132.260      4.889
    132.768      8.000
    133.780      8.000
    134.115      4.444
    134.960      6.667
    135.802      4.444
    136.142      8.444
    137.320      4.667
    137.491      7.111
    138.670      4.222
    139.515      7.333
    140.019      4.000
    140.190      6.444
    141.874      3.556
    142.214      6.222
    143.395      7.111
    143.730      3.333
    144.913      6.222
    146.092      3.111
    146.937      6.222
    147.610      3.556
    148.960      3.556
    148.962      6.222
    150.311      5.556
    150.815      2.889
    152.333      2.667
    152.335      6.000
    153.345      2.667
    153.684      5.111
    155.201      2.667
    155.203      5.778
    156.213      2.444
    156.552      4.889
    157.900      2.222
    157.902      5.333
    159.250      2.667
    159.252      5.333
    160.430      2.444
    160.433      6.444
    161.443      2.889
    162.119      5.111
    163.298      2.667
    163.469      5.111
    164.819      5.333
    164.985      2.667
    165.999      5.111
    166.672      2.889
    168.023      4.889
    169.034      2.667
    169.879      4.889
    170.721      2.667
    171.903      4.667
    172.239      2.000
    173.421      4.222
    174.095      2.222
    174.940      4.222
    176.119      2.222
    177.301      4.222
    178.312      2.222
    179.832      4.000
    181.011      2.444
    181.856      3.778
    183.542      2.444
    183.543      4.667
    185.060      2.000
    185.230      4.222
    186.578      2.444
    186.917      3.778
    187.590      2.222
    187.930      4.667
    189.278      2.667
    189.954      4.444
    191.471      3.333
    192.316      4.667
    192.483      2.667
    193.833      3.111
    194.677      4.444
    195.351      3.111
    196.196      4.667
    196.869      2.889
    198.220      4.000
    198.221      5.333
    199.065      6.000
    199.570      4.667
    200.583      6.889
    200.922      8.667
    201.260     10.000
    201.599     11.778
    201.939     15.778
    202.107     13.778
    202.446     16.667
    203.120     14.889
    203.456     13.333
    203.961     12.000
    204.296      8.667
    204.297     10.000
    205.138      7.111
    205.981      6.000
    207.161      4.444
    208.679      4.000
    210.029      4.444
    210.534      3.111
    211.378      4.222
    212.390      4.444
    212.558      2.889
    213.739      2.444
    214.077      4.000
    215.089      3.111
    216.439      3.778
    216.944      2.667
    217.282      4.000
    218.125      2.889
    218.801      3.778
    220.149      2.667
    221.331      3.778
    222.005      2.444
    223.186      3.111
    224.199      3.556
    225.041      2.222
    226.055      4.000
    226.728      2.444
    228.247      3.333
    228.752      2.000
    229.260      4.222
    230.271      2.000
    230.441      4.000
    232.126      2.000
    232.296      3.778
    233.138      1.556
    233.984      4.444
    234.488      1.333
    234.827      4.000
    235.668      1.333
    236.514      4.222
    237.355      1.333
    237.864      4.222
    238.705      1.111
    239.382      4.000
    239.886      1.556
    240.900      4.444
    241.405      1.778
    242.081      3.778
    242.923      1.556
    243.599      3.778
    244.610      1.556
    244.949      4.000
    245.624      4.444
    245.791      1.778
    246.467      4.000
    246.633      0.889
    247.140      2.000
    247.985      4.222
    248.153      2.222
    249.166      4.000
    249.502      1.556
ENDDATA            449
ENDSUBENT          461
SUBENT        10455012   20210807   20220328   20220327       1490
BIB                  7          8
REACTION   (16-S-32(N,TOT),,SIG)
SAMPLE     Thick sample, 0.1438 atoms/b.
DETECTOR   (SCIN) NE110 plastic scintillator.
METHOD     (TOF) 200-m flight path.
ERR-ANALYS (DATA-ERR) No details on sources of uncertainties.
STATUS     (DEP,10455013)
           (CURVE) Fig. 2-3, page 546,551 of the main reference.
HISTORY    (20210803C) BP
ENDBIB               8
NOCOMMON             0          0
DATA                 3        618
EN         DATA       DATA-ERR
KEV        B          B
    252.122      2.249
    253.157      4.342
    253.979      2.063
    256.145      2.248
    257.692      2.062
    258.930      2.154
    260.477      2.153
    261.096      2.893
    262.334      2.060
    264.810      2.059
    266.357      2.059
    267.904      2.336
    269.142      2.521
    270.070      3.353
    270.999      6.036
    271.617     10.292
    271.926     11.402
    272.855      9.458
    273.474      6.405
    274.093      4.277
    275.331      3.444
    275.950      2.796
    278.426      2.517
    280.592      2.424
    283.068      2.238
    284.925      2.515
    285.853      3.162
    286.472      2.699
    287.091      4.087
    287.400      9.823
    287.400      5.290
    288.018     19.723
    288.637     15.189
    288.947     13.431
    288.947      9.453
    289.566      6.862
    289.566      5.197
    290.495      4.456
    290.495      3.716
    291.423      3.160
    292.971      2.790
    295.137      2.604
    296.994      2.511
    298.850      2.510
    301.017      2.509
    304.111      2.416
    305.873      2.271
    308.069      2.188
    308.618      2.845
    310.265      2.352
    312.187      2.187
    313.560      2.186
    315.757      2.104
    317.129      2.596
    319.326      2.102
    320.973      1.938
    322.621      1.937
    325.092      1.772
    326.739      1.936
    328.661      1.771
    331.132      1.523
    332.779      1.605
    334.701      1.686
    336.623      1.604
    338.545      1.521
    341.016      1.520
    343.213      1.601
    344.311      1.108
    344.860      1.683
    345.409      2.996
    346.507      1.436
    349.253      1.353
    351.175      1.188
    352.822      1.270
    355.019      1.433
    357.215      1.432
    358.863      1.267
    360.784      1.103
    362.157      1.020
    363.530      0.691
    365.452      0.690
    367.374      0.443
    369.296      0.525
    371.218      0.688
    372.591      1.016
    373.689      1.426
    373.963      2.083
    374.787      3.561
    374.787      3.068
    375.610      5.120
    375.610      4.710
    376.434      6.844
    376.434      5.777
    378.356      7.582
    378.905      7.336
    380.552      6.761
    381.376      6.350
    382.749      6.021
    383.298      5.610
    384.396      5.199
    385.769      4.624
    387.966      4.377
    390.162      3.966
    392.633      3.719
    394.555      3.718
    396.202      3.635
    398.399      3.388
    400.321      3.470
    401.694      3.059
    404.165      2.894
    405.812      2.975
    408.008      2.974
    409.107      2.728
    411.029      2.563
    411.577      5.436
    411.852      2.973
    414.598      2.644
    417.069      2.561
    418.991      2.478
    421.736      2.477
    424.207      2.312
    426.129      2.475
    428.600      2.392
    430.248      2.146
    432.170      2.555
    434.641      2.801
    435.739      2.390
    439.034      2.389
    440.956      2.470
    443.427      2.387
    445.898      2.304
    447.820      2.221
    450.016      2.139
    452.762      2.302
    454.134      2.630
    455.233      2.137
    457.429      2.218
    458.253      3.285
    458.802      2.218
    459.351      3.777
    460.449      2.053
    461.822      5.665
    461.822      3.120
    462.097      2.134
    464.293      2.134
    466.490      2.051
    468.137      2.214
    470.059      2.378
    471.981      2.049
    473.903      2.048
    476.099      2.212
    478.570      2.211
    481.041      1.964
    483.512      2.291
    485.434      1.962
    490.651      2.042
    495.318      1.958
    498.064      2.040
    500.636      2.385
    502.545      2.385
    505.090      2.231
    506.681      2.308
    508.908      2.308
    511.453      2.385
    513.362      2.462
    515.270      2.308
    517.815      2.308
    519.088      2.308
    521.951      2.231
    524.496      2.077
    527.359      2.077
    528.314      2.385
    530.541      2.000
    532.131      2.462
    533.722      2.154
    536.903      2.154
    539.767      2.231
    542.948      2.154
    545.175      2.154
    546.766      2.077
    548.993      2.154
    551.538      2.231
    554.083      2.154
    557.582      2.154
    560.127      2.154
    562.990      2.154
    565.854      2.154
    569.353      2.000
    572.216      2.154
    575.080      2.231
    577.306      2.154
    579.852      2.077
    581.442      2.308
    582.699      2.007
    582.755      2.207
    582.783      2.609
    582.858      2.174
    582.923      2.341
    582.998      2.508
    583.045      2.542
    583.092      2.341
    583.167      2.375
    583.251      2.408
    583.298      2.375
    583.326      2.742
    583.373      2.642
    583.410      2.508
    583.485      2.575
    583.532      2.475
    583.570      2.676
    583.617      2.508
    583.673      2.542
    583.720      2.676
    583.776      2.575
    583.851      2.475
    583.916      2.542
    584.001      2.709
    584.057      2.676
    584.141      2.642
    584.216      2.809
    584.291      2.709
    584.338      3.043
    584.403      3.043
    584.488      2.876
    584.525      3.144
    584.581      3.043
    584.637      3.177
    584.713      3.077
    584.759      3.411
    584.825      3.278
    584.909      3.545
    584.965      3.612
    585.040      3.545
    585.078      3.545
    585.143      3.880
    585.218      3.946
    585.283      4.147
    585.330      4.214
    585.386      4.515
    585.451      4.950
    585.517      4.950
    585.573      5.251
    585.619      5.819
    585.666      5.987
    585.768      7.090
    585.824      7.726
    585.870      8.562
    585.935      9.431
    586.019     10.167
    586.084     11.037
    586.131     11.338      0.201
    586.205     11.906      0.201
    586.243     11.672
    586.309     11.639      0.167
    586.365     11.906      0.201
    586.439     12.174      0.234
    586.505     12.575      0.234
    586.551     13.077
    586.625     13.846      0.301
    586.672     13.846      0.301
    586.757     13.746
    586.803     14.247      0.167
    586.869     14.047
    586.944     13.445
    587.001     13.311      0.201
    587.067     12.809      0.234
    587.142     12.040
    587.190     11.070
    587.246     11.104
    587.322     10.067
    587.378      9.431
    587.444      9.064
    587.510      8.428      0.268
    587.567      7.559
    587.633      7.492
    587.690      6.756
    587.774      6.288
    587.831      5.719
    587.897      5.652
    587.925      5.117
    588.019      4.950
    588.085      4.582
    588.151      4.515
    588.198      4.281
    588.273      4.281
    588.338      3.813
    588.423      3.880
    588.535      3.846
    588.582      3.612
    588.648      3.378
    588.770      3.545
    588.770      3.344
    588.836      3.144
    588.939      3.144
    589.014      3.144
    589.089      3.144
    589.126      2.843
    589.211      2.843
    589.295      2.742
    589.342      2.943
    589.426      2.809
    589.511      2.776
    589.595      2.742
    589.670      2.709
    589.754      2.742
    589.829      2.609
    589.904      2.441
    589.979      2.408
    590.045      2.575
    590.101      2.575
    590.167      2.341
    590.242      2.441
    590.307      2.575
    590.363      2.575
    590.401      2.408
    590.448      2.475
    590.523      2.441
    590.589      2.341
    591.304      2.231
    593.531      2.077
    594.804      2.000
    597.667      1.846
    599.576      1.846
    601.485      1.923
    604.030      1.846
    606.575      1.923
    609.120      1.923
    611.029      2.000
    612.937      1.769
    616.119      1.923
    618.028      1.846
    620.573      1.846
    623.118      1.692
    625.663      1.846
    627.890      1.923
    630.435      1.846
    632.662      1.769
    634.889      1.692
    637.434      1.615
    639.343      1.692
    641.569      2.077
    643.160      1.692
    645.705      1.769
    647.614      2.231
    648.250      6.462
    648.568      8.615
    649.523      5.385
    649.841      2.923
    650.477      2.154
    651.113      1.692
    653.659      1.615
    656.204      1.615
    658.112      1.615
    660.657      1.615
    663.521      1.462
    665.111      1.692
    666.702      1.462
    669.247      1.308
    671.474      1.077
    674.019      1.846
    674.337      4.000
    674.655      5.308
    675.610      3.000
    675.928      1.846
    676.882      1.231
    678.791      1.154
    680.382      0.923
    682.291      0.692
    684.517      0.615
    686.744      0.538
    688.971      0.538
    691.198      0.615
    693.425      1.154
    694.062      1.692
    694.698      2.154
    694.698      2.615
    695.652      3.000
    697.561      3.462
    699.152      3.846
    701.379      3.923
    703.287      3.769
    704.878      3.692
    705.832      3.462
    708.378      3.308
    710.286      3.231
    712.195      2.923
    714.422      2.846
    717.285      2.692
    720.148      2.692
    721.739      3.154
    723.012      3.692
    723.330      4.154
    724.284      5.846
    725.875      5.769
    726.511      4.769
    728.102      4.077
    729.374      3.846
    730.647      3.231
    732.874      2.846
    735.419      2.692
    737.646      2.385
    738.600      2.769
    739.236      4.538
    740.191      8.308
    740.827      7.769
    741.145      6.538
    741.463      5.000
    741.782      3.923
    743.054      3.308
    745.599      2.923
    747.508      2.615
    750.371      2.538
    752.280      2.385
    755.461      2.308
    757.688      2.308
    760.233      2.308
    763.733      2.231
    765.642      2.077
    768.187      2.077
    770.414      2.077
    772.641      2.000
    774.549      2.000
    774.867      2.538
    775.822      3.154
    777.094      2.385
    777.413      3.769
    778.367      7.692
    779.639      7.308
    779.639      6.154
    779.639      5.077
    779.958      4.308
    780.594      3.615
    781.866      2.769
    782.503      4.154
    783.775      3.615
    785.048      2.615
    786.638      2.538
    788.229      2.538
    791.092      2.692
    791.729      2.462
    793.955      2.385
    796.501      2.538
    799.046      2.846
    800.354      2.895
    803.220      2.890
    806.083      2.666
    808.948      2.551
    811.497      2.601
    814.365      2.760
    815.322      2.867
    815.963      3.194
    816.623      5.105
    817.293      7.726
    818.252      8.052
    818.552      6.522
    819.143      2.805
    819.467      3.297
    819.474      3.843
    819.483      4.608
    822.006      2.581
    824.553      2.522
    826.463      2.409
    828.692      2.405
    830.921      2.346
    833.480      3.270
    833.788      2.395
    836.653      2.335
    839.519      2.330
    842.068      2.380
    844.933      2.265
    847.163      2.370
    850.668      2.528
    851.940      2.307
    855.124      2.301
    858.308      2.240
    861.175      2.235
    864.358      2.120
    866.906      2.169
    868.501      2.330
    870.090      2.109
    873.276      2.212
    877.097      2.150
    879.327      2.201
    882.830      2.140
    884.434      3.065
    886.013      2.024
    888.880      2.074
    891.428      2.069
    892.070      2.450
    893.657      2.065
    896.523      2.005
    898.751      1.891
    900.987      2.433
    901.937      2.049
    904.165      1.936
    906.393      1.822
    908.306      1.983
    910.216      1.870
    912.444      1.756
    915.310      1.805
    917.229      2.403
    917.557      3.167
    917.883      3.822
    918.849      4.695
    918.896      8.465
    919.194      6.770
    919.233      9.939
    919.862      9.337
    920.800      7.915
    921.715      4.635
    921.745      7.093
    922.056      6.437
    922.363      5.508
    923.301      4.140
    924.251      3.646
    924.881      3.153
    926.471      2.932
    928.698      2.709
    930.923      2.377
    933.470      2.318
    935.384      2.533
    936.654      2.257
    938.883      2.198
    940.475      2.195
    942.068      2.247
    943.981      2.407
    945.262      3.006
    945.924      5.026
    946.272      7.375
    947.234      7.920
    947.810      3.001
    948.759      2.508
    950.665      2.122
    953.212      2.062
    956.078      2.002
    959.581      1.996
    962.446      1.881
    965.631      1.875
    967.542      1.871
    970.089      1.812
    972.953      1.697
    975.185      1.912
    976.777      1.854
    979.326      1.959
    980.606      2.393
    981.889      3.156
    984.445      3.807
    985.724      4.241
    987.312      3.911
    988.264      3.636
    989.537      3.524
    990.490      3.304
    992.398      3.136
    993.987      2.860
    995.577      2.638
    998.123      2.524
   1000.030      2.138
   1001.940      2.135
   1004.485      1.911
   1006.394      1.689
   1007.381      4.310
   1007.692      3.709
   1008.642      3.215
   1010.231      2.939
   1012.457      2.661
   1013.728      2.495
   1016.911      2.325
   1019.458      2.211
   1022.004      2.097
   1023.596      2.040
   1026.143      2.035
   1028.370      1.812
   1030.283      1.972
   1031.873      1.805
   1033.783      1.747
   1035.374      1.580
   1038.558      1.574
   1040.147      1.298
   1041.738      1.131
   1044.285      1.127
   1045.235      0.633
   1046.200      1.451
   1047.815      3.251
   1048.470      4.725
   1049.101      4.232
   1049.733      3.848
   1051.002      3.463
   1052.913      3.460
   1053.568      4.879
   1054.562      8.046
   1054.876      7.663
   1056.102      3.782
   1056.428      4.437
   1056.437      5.147
   1056.733      3.289
   1057.362      2.687
   1059.589      2.464
   1061.178      2.188
   1063.086      1.965
   1064.355      1.581
   1065.958      2.397
   1067.866      2.230
   1070.414      2.225
   1072.323      2.057
   1074.234      2.054
   1076.144      1.996
   1079.009      1.881
   1081.876      1.985
   1083.793      2.418
   1085.062      2.034
   1086.653      1.921
   1089.197      1.643
   1091.762      3.059
   1092.088      3.605
   1092.389      2.238
   1093.661      2.072
   1095.570      1.959
   1097.480      1.846
ENDDATA            620
ENDSUBENT          633
SUBENT        10455013   20210807   20220328   20220327       1490
BIB                  7          7
REACTION   (16-S-32(N,TOT),,TRN)
SAMPLE     Thick sample, 0.1438 atoms/b.
DETECTOR   (SCIN) NE110 plastic scintillator.
METHOD     (TRN) 200-m flight path.
ERR-ANALYS (DATA-ERR) No details on sources of uncertainties.
STATUS     (CURVE) Fig. 5, page 552 of the main reference.
HISTORY    (20210803C) BP
ENDBIB               7
COMMON               1          3
THICKNESS
ATOMS/B
     0.1438
ENDCOMMON            3
DATA                 3         80
EN         DATA       DATA-ERR
KEV        NO-DIM     NO-DIM
   1039.410      0.764
   1039.560      0.810      0.014
   1039.709      0.768      0.019
   1039.828      0.781      0.014
   1039.993      0.791      0.019
   1040.127      0.783      0.019
   1040.277      0.801      0.014
   1040.441      0.807      0.012
   1040.590      0.793      0.021
   1040.725      0.805      0.017
   1040.874      0.785      0.014
   1041.023      0.801      0.019
   1041.157      0.791      0.014
   1041.337      0.818      0.014
   1041.471      0.793      0.019
   1041.621      0.814      0.021
   1041.770      0.822      0.017
   1041.904      0.824      0.019
   1042.053      0.810      0.017
   1042.233      0.816      0.014
   1042.367      0.832      0.012
   1042.531      0.812      0.017
   1042.651      0.801      0.014
   1042.830      0.814      0.014
   1042.965      0.853      0.023
   1043.114      0.828      0.017
   1043.278      0.816      0.019
   1043.427      0.830      0.017
   1043.577      0.849      0.014
   1043.711      0.832      0.021
   1043.861      0.853
   1044.024      0.818
   1044.174      0.849
   1044.308      0.843
   1044.457      0.793
   1044.621      0.783
   1044.756      0.834
   1044.920      0.812
   1045.070      0.822
   1045.234      0.845
   1045.354      0.874
   1045.504      0.894
   1045.638      0.903      0.021
   1045.802      0.907      0.021
   1045.967      0.909      0.023
   1046.085      0.845      0.023
   1046.250      0.863      0.017
   1046.398      0.826      0.012
   1046.532      0.797
   1046.696      0.741      0.019
   1046.860      0.731      0.021
   1046.994      0.702      0.017
   1047.127      0.646      0.023
   1047.291      0.630      0.017
   1047.470      0.628      0.017
   1047.604      0.599
   1047.753      0.574
   1047.872      0.533
   1048.036      0.535
   1048.186      0.520
   1048.335      0.510
   1048.499      0.504
   1048.633      0.473
   1048.782      0.485
   1048.946      0.477
   1049.066      0.493
   1049.215      0.487
   1049.395      0.493
   1049.559      0.485
   1049.708      0.524
   1049.828      0.520
   1050.007      0.524
   1050.157      0.545
   1050.306      0.526
   1050.456      0.576
   1050.590      0.555
   1050.754      0.559
   1050.904      0.590
   1051.038      0.559
   1051.188      0.595
ENDDATA             82
ENDSUBENT           98
ENDENTRY            13
