ENTRY            O1644   20080321   20080828   20080828       O036
SUBENT        O1644001   20080321   20080828   20080828       O036
BIB                  9         16
TITLE      A high resolution study of stretched-spin states in
           Sn-116 with the In-115(He3,d)Sn-116 and
           In-115(a,tg)Sn-116 reactions.
AUTHOR     (J.M.Schippers, W.T.Borghols, M.A.Hofstee, R.F.Noorman,
           J.M.Schreuder, S.Y.van der Werf, N.Blasi)
INSTITUTE  (2NEDKVI)
           (2ITYMIL)
REFERENCE  (J,NP/A,548,271,1992)
FACILITY   (CYCLO,2NEDKVI) The KVI cyclotron.
ADD-RES    (COMP).DWBA analysis. Shell-model calculations.
           Triton spectra from the (a,t) reaction were recorded
           at a few forward angles with an energy resolution of
            16 keV.
METHOD     (SITA)
STATUS     (CURVE).By CAJAD.
HISTORY    (20080321C)
ENDBIB              16
NOCOMMON             0          0
ENDSUBENT           19
SUBENT        O1644002   20080321   20080828   20080828       O036
BIB                  5         14
REACTION   (49-IN-115(HE3,D)50-SN-116,PAR,DA) fig 5
EN-SEC     (E-EXC,50-SN-116)
DETECTOR   (MAGSP) The outgoing particles have been momentum
           analyzed with the QMG/2-spectrograph and detected in
           the focal plane of the spectrograph with a multi-wire
           drift chamber. The obtained overall energy resolution
           was typically 15 keV at E(He3)=50.5 MeV.
           A Si detector was used as a monitor for elastically
           scattered He3 particles.
SAMPLE     A self-supporting In-115 target of about 290-mug/cm**2,
           was used.
ERR-ANALYS (DATA-ERR).The error is reported by authors on fig.
           (ERR-DIG).Digitizing error of data.
           (ANG-ERR-D).Digitizing error of angle.
ENDBIB              14
COMMON               3          3
EN         ANG-ERR-D  ERR-DIG
MEV        ADEG       PER-CENT
50.        0.17       2.6
ENDCOMMON            3
DATA                 4        138
E-EXC      ANG-CM     DATA-CM    DATA-ERR
MEV        ADEG       MB/SR      PER-CENT
    3.38000    4.40000    0.02800   30.00000
    3.38000    6.74000    0.02900   10.00000
    3.38000    9.71000    0.03600    8.00000
    3.38000   10.90000    0.02280   13.00000
    3.38000   13.96000    0.02160   12.00000
    3.38000   14.72000    0.00700   16.00000
    3.38000   17.91000    0.00620   23.00000
    3.38000   18.77000    0.00620   16.00000
    3.38000   21.80000    0.00400   27.00000
    3.38000   22.80000    0.00480   19.00000
    3.38000   25.86000    0.00430   23.00000
    3.65000    4.12000    0.02600   30.00000
    3.65000    6.60000    0.03100   13.00000
    3.65000    9.32000    0.03970    8.00000
    3.65000   10.39000    0.02700   11.00000
    3.65000   13.67000    0.01820   13.00000
    3.65000   14.72000    0.00890   12.00000
    3.65000   17.54000    0.00850   18.00000
    3.65000   18.64000    0.00820   17.00000
    3.65000   21.73000    0.01010   15.00000
    3.65000   22.68000    0.00660   18.00000
    3.65000   25.72000    0.00510   20.00000
    3.73900    1.13000    0.22600    8.00000
    3.73900    3.82000    0.19000    9.00000
    3.73900    6.26000    0.16500
    3.73900    9.11000    0.23400
    3.73900   10.19000    0.16500
    3.73900   13.47000    0.10500
    3.73900   14.39000    0.05240
    3.73900   17.22000    0.05810
    3.73900   18.07000    0.04800
    3.73900   21.38000    0.04550
    3.73900   22.33000    0.03270    9.00000
    3.73900   25.34000    0.01630   10.00000
    3.79700    0.82000    0.26000
    3.79700    3.38000    0.21800
    3.79700    5.95000    0.20400
    3.79700    8.78000    0.20700
    3.79700    9.88000    0.19300
    3.79700   13.14000    0.10540
    3.79700   14.08000    0.05850
    3.79700   16.91000    0.06260
    3.79700   18.02000    0.06710
    3.79700   21.09000    0.06950
    3.79700   21.89000    0.03350
    3.79700   25.04000    0.01990
    3.88700    3.50000    2.47000
    3.88700    6.05000    2.00000
    3.88700    8.58000    1.39000
    3.88700   11.66000    1.51000
    3.88700   12.62000    1.25000
    3.88700   15.35000    0.68200
    3.88700   16.51000    0.44200
    3.88700   19.70000    0.41200
    3.88700   20.69000    0.44800
    3.88700   23.84000    0.32800
    3.88700   24.76000    0.22400
    3.88700   27.66000    0.15600
    3.95300    5.24000    0.24000
    3.95300   10.68000    0.27700
    3.95300   14.59000    0.10800
    3.95300   15.48000    0.06090
    3.95300   18.84000    0.07980
    3.95300   19.94000    0.07430
    3.95300   23.06000    0.04620
    3.95300   24.00000    0.03500    7.00000
    3.95300   26.80000    0.02880    6.00000
    4.00100    4.61000    0.04400   23.00000
    4.00100    7.20000    0.04800   10.00000
    4.00100   10.26000    0.04300    9.00000
    4.00100   11.14000    0.05100    6.00000
    4.00100   14.03000    0.03460    9.00000
    4.00100   15.02000    0.01670   13.00000
    4.00100   18.33000    0.01560   15.00000
    4.00100   19.25000    0.01060   14.00000
    4.00100   22.19000    0.01010   17.00000
    4.00100   23.11000    0.00670   16.00000
    4.00100   26.23000    0.00910   14.00000
    4.02300    1.36000    1.46000
    4.02300    3.89000    1.06300
    4.02300    6.44000    0.86000
    4.02300    9.28000    0.89100
    4.02300   10.25000    0.83000
    4.02300   13.33000    0.40300
    4.02300   14.16000    0.32600
    4.02300   17.45000    0.27800
    4.02300   18.56000    0.27800
    4.02300   21.45000    0.19200
    4.02300   22.39000    0.14500
    4.02300   25.42000    0.10340
    4.07600    1.06000    1.41000
    4.07600    3.76000    1.05700
    4.07600    6.21000    0.81800
    4.07600    9.29000    0.81700
    4.07600   10.40000    0.72500
    4.07600   13.33000    0.39100
    4.07600   14.42000    0.27300
    4.07600   17.50000    0.25500
    4.07600   18.61000    0.25500
    4.07600   21.67000    0.18400
    4.07600   22.64000    0.12860
    4.07600   25.71000    0.10650
    4.23900    0.98000    0.26900    9.00000
    4.23900    3.56000    0.22200
    4.23900    6.15000    0.21100
    4.23900    9.10000    0.19300
    4.23900    9.96000    0.17400
    4.23900   13.13000    0.09710
    4.23900   14.23000    0.07130
    4.23900   17.17000    0.05410
    4.23900   18.30000    0.06870
    4.23900   21.36000    0.04550
    4.23900   22.45000    0.03340
    4.23900   25.37000    0.01590   10.00000
    4.28500    0.56000    1.07800
    4.28500    3.27000    1.11000
    4.28500    5.74000    1.14300
    4.28500    8.83000    1.20000
    4.28500    9.93000    1.07700
    4.28500   12.99000    0.62800
    4.28500   13.96000    0.49300
    4.28500   17.04000    0.41300
    4.28500   18.27000    0.38400
    4.28500   21.20000    0.24000
    4.28500   22.42000    0.19200
    4.28500   25.12000    0.14700
    4.36500    0.45000    0.14000   60.00000
    4.36500    3.07000    0.23700    8.00000
    4.36500    5.66000    0.21200
    4.36500    8.75000    0.24900
    4.36500    9.60000    0.20700
    4.36500   12.77000    0.09690
    4.36500   13.74000    0.07100    6.00000
    4.36500   16.95000    0.07500    8.00000
    4.36500   17.92000    0.06200   10.00000
    4.36500   20.88000    0.05500    7.00000
    4.36500   21.97000    0.03830    6.00000
    4.36500   25.03000    0.02600   12.00000
ENDDATA            140
ENDSUBENT          163
SUBENT        O1644003   20080321   20080828   20080828       O036
BIB                  6         21
REACTION   (49-IN-115(A,T)50-SN-116,PAR,MLT,G) fig 8
COMMENT    *By authors*.Coincident triton spectrum and the gamma-
           ray multiplicity as a function of excitation energy for
           the In-115(a,tg)Sn-116 have been reported.
EN-SEC     (E-EXC,50-SN-116)
DETECTOR   (MAGSP) The outgoing tritons were analyzed with the
            QMG/2-spectrograph and detected in the focal plane of
            the spectrograph with a multi-wire drift chamber.
            The triton-energy resolution was 20 keV.
            The target was surrounded by four germanium detectors,
            three of which had a BGO anti-Compton shield.
           (NAICR).Seven 2"*3" NaI detectors were used to measure
            the gamma-multiplicity
            A calibrated Eu-152 source was used to determine
            energy calibrations and efficiencies of the Ge
            detectors and the gamma-ray data were corrected
            accordingly.
SAMPLE     The In-115 target had a thickness of 120-mug/cm**2.
ERR-ANALYS (DATA-ERR).The error is reported by authors on fig.
           (ERR-DIG).Digitizing error of data.
           (E-EXC-ERR).The error is reported by authors on fig.
ENDBIB              21
COMMON               2          3
EN         ERR-DIG
MEV        PRT/REAC
65.        0.025
ENDCOMMON            3
DATA                 4         19
E-EXC      E-EXC-ERR  DATA       DATA-ERR
MEV        MEV        PRT/REAC   PRT/REAC
      3.703                  3.82       0.28
      3.757                  3.35       0.19
      3.862                  3.71       0.12
      3.996                  3.58       0.11
      4.051                  3.94       0.12
      4.231                   3.6        0.6
      4.326                  4.14        0.2
       4.51       0.12       4.24       0.14
      4.717                  3.89       0.16
      4.767                  3.93       0.13
       5.09       0.12      4.044
       5.41       0.14       4.02       0.09
      5.723                  4.22     8.E-02
      5.757                  4.04        0.1
      5.822                  4.22       0.14
       5.98       0.14       4.36
      6.258                  4.44       0.16
      6.347                   4.6       0.13
        6.8        0.4       4.71
ENDDATA             21
ENDSUBENT           51
ENDENTRY             3
