ENTRY            O1662   20140205   20140701   20140623       O052
SUBENT        O1662001   20140205   20140701   20140623       O052
BIB                 14         45
TITLE      Study of refractive structure in the inelastic
           O-16 + O-16 scattering at the incident energies of
            250 to 1120 MeV.
AUTHOR     (Dao T.Khoa, H.G.Bohlen, W.von Oertzen, G.Bartnitzky,
           A.Blazevic, F.Nuoffer, B.Gebauer, W.Mittig,
           P.Roussel-Chomaz)
INSTITUTE  (3VN STH)
           (2GERBER)
           (2GERTUB)
           (2GERTUE)
           (2FR GAN)
REFERENCE  (J,NP/A,759,3,2005) - final results
           (J,ZP/A,346,189,1993) -prelim.res. for inelastic scat.
FACILITY   (CYCLO,2GERBER) Cyclotron in Hahn-Meitner-Inst., used
           for energies 250-480 MeV
           (CYCLO,2FR GAN) Grand Accelerateur National d'Ions
           Lourds (GANIL) used for measurements at 704 and 1120
           MeV.
METHOD     (EDE,TOF)
SAMPLE     For the oxygen targets different compounds have been
           used: 6Li2O,  CaO and V2O5. The latter two were
           prepared as self-supporting foils in  the range of
           0.2-1.4 mg/cm2 thickness and the former on a
           carbon-backing of 60 mu-g/cm2 thickness.
DETECTOR   (SPEC) Q3D magnetic spectrograph at Hahn-Meitner-Inst.
           for the incident energies Elab  = 250-480 MeV and at
           the SPEG  spectrograph at GANIL for the energies of
           704 and 1120 MeV.
ERR-ANALYS (DATA-ERR).The errors are mainly of statistical.
REL-REF    (E,O1698001,Dao T.Khoa+,J,NP/A,672,387,2000) The
           calibration and precision the angular scale is very
           important the (especially for ratio sigma/sigma-Mott),
           the procedure described in NP/A,672,387,2000, sect.2.
           (O,O1698001,Dao T.Khoa+,J,NP/A,672,387,2000) -
           The inelastic scattering data which have been measured
           in parallel with the elastic 16O + 16O scattering at
           Elab = 250, 350, 480, 704 and 1120 MeV.
EN-SEC     (E-LVL,8-O-16)
LEVEL-PROP (8-O-16,E-LVL=6.92,SPIN=2.,PARITY=+1.)
           (8-O-16,E-LVL=6.13,SPIN=3.,PARITY=-1.)
STATUS     (TABLE) Data received from  Prof.H.G.Bohlen
HISTORY    (20081016C) SB
           (20140205U) SD: Ref. on ZP/A,346 (see REFERENCE) and
           NP/A,672 (see REL-REF) were added; Institute code
           changed  (3VN NNR -> 3VN STH)
ENDBIB              45
NOCOMMON             0          0
ENDSUBENT           48
SUBENT        O1662002   20081020   20081219   20081219       O037
BIB                  1          1
REACTION   (8-O-16(8-O-16,INL)8-O-16,PAR,DA)
ENDBIB               1
NOCOMMON             0          0
DATA                 5        689
EN         E-LVL      ANG-CM     DATA-CM    DATA-ERR
MEV        MEV        ADEG       MB/SR      MB/SR
  250.00000    6.13000    4.88000  558.40000   48.86458
  250.00000    6.13000    5.39000  323.50000   28.30806
  250.00000    6.13000    5.90000  186.90000    7.39410
  250.00000    6.13000    6.40000   68.37000    2.00954
  250.00000    6.13000    6.91000   36.02000    1.23251
  250.00000    6.13000    7.42000   29.56000    1.23697
  250.00000    6.13000    7.93000   47.00000    2.20998
  250.00000    6.13000    8.44000   62.92000    2.79925
  250.00000    6.13000    8.95000   78.11000    3.22625
  250.00000    6.13000    9.46000   57.90000    2.50025
  250.00000    6.13000    9.77000   54.91000    2.58422
  250.00000    6.13000    9.96000   53.09000    1.48185
  250.00000    6.13000   10.07000   47.77000    2.98906
  250.00000    6.13000   10.37000   34.04000    0.76476
  250.00000    6.13000   10.47000   29.39000    0.65145
  250.00000    6.13000   10.68000   21.68000    1.40543
  250.00000    6.13000   10.98000   13.44000    0.33811
  250.00000    6.13000   11.29000    3.02100    0.14386
  250.00000    6.13000   11.59000    5.16400    0.48134
  250.00000    6.13000   11.90000   10.76000    0.57964
  250.00000    6.13000   12.20000   16.20000    1.19344
  250.00000    6.13000   12.51000   22.17000    0.60163
  250.00000    6.13000   12.81000   24.48000    0.54662
  250.00000    6.13000   13.12000   25.23000    1.90744
  250.00000    6.13000   13.42000   26.43000    0.56715
  250.00000    6.13000   13.73000   23.91000    2.29983
  250.00000    6.13000   14.03000   19.60000    0.49702
  250.00000    6.13000   14.34000   13.58000    0.27536
  250.00000    6.13000   14.64000    8.71000    1.52386
  250.00000    6.13000   14.95000    5.88300    0.08894
  250.00000    6.13000   15.25000    3.85700    0.05508
  250.00000    6.13000   15.56000    2.98700    0.04084
  250.00000    6.13000   15.66000    4.16600    0.24199
  250.00000    6.13000   15.86000    4.56600    0.06497
  250.00000    6.13000   15.96000    5.52400    0.33990
  250.00000    6.13000   16.17000    6.70400    0.09771
  250.00000    6.13000   16.27000    7.51200    0.37223
  250.00000    6.13000   16.47000    9.64600    0.14851
  250.00000    6.13000   16.57000    9.79400    0.46209
  250.00000    6.13000   16.78000   10.63000    0.16046
  250.00000    6.13000   16.88000   10.94000    0.43335
  250.00000    6.13000   17.08000   10.84000    0.16843
  250.00000    6.13000   17.19000   10.54000    0.38509
  250.00000    6.13000   17.39000    9.05500    0.14925
  250.00000    6.13000   17.49000    8.79800    0.37028
  250.00000    6.13000   17.69000    8.83100    0.17805
  250.00000    6.13000   17.80000    7.78400    0.36858
  250.00000    6.13000   18.00000    7.04900    0.13070
  250.00000    6.13000   18.10000    6.64300    0.33177
  250.00000    6.13000   18.30000    6.08500    0.11300
  250.00000    6.13000   18.41000    5.84300    0.30529
  250.00000    6.13000   18.61000    5.26100    0.12341
  250.00000    6.13000   18.71000    4.65300    0.28659
  250.00000    6.13000   18.91000    3.86200    0.07479
  250.00000    6.13000   19.02000    3.72900    0.25879
  250.00000    6.13000   19.22000    2.91600    0.06037
  250.00000    6.13000   19.32000    2.59400    0.21439
  250.00000    6.13000   19.52000    2.95200    0.06160
  250.00000    6.13000   19.63000    3.26300    0.27613
  250.00000    6.13000   19.83000    3.77700    0.08225
  250.00000    6.13000   19.93000    4.12600    0.35831
  250.00000    6.13000   20.24000    4.56800    0.36571
  250.00000    6.13000   20.54000    4.80200    0.37319
  250.00000    6.13000   20.85000    5.16400    0.39982
  250.00000    6.13000   21.15000    5.12600    0.41989
  250.00000    6.13000   21.46000    4.50200    0.46317
  250.00000    6.13000   21.76000    4.24000    0.96017
  250.00000    6.13000   22.07000    3.58600    0.09328
  250.00000    6.13000   22.37000    3.05800    0.08468
  250.00000    6.13000   22.68000    2.83300    0.08264
  250.00000    6.13000   22.98000    2.46100    0.07410
  250.00000    6.13000   23.29000    2.05300    0.06359
  250.00000    6.13000   23.59000    1.94000    0.06124
  250.00000    6.13000   23.90000    1.87500    0.06187
  250.00000    6.13000   24.20000    1.87500    0.06713
  250.00000    6.13000   24.51000    1.79900    0.05945
  250.00000    6.13000   24.72000    1.80700    0.06413
  250.00000    6.13000   24.94000    1.82800    0.07099
  250.00000    6.13000   25.22000    1.86200    0.08355
  250.00000    6.13000   25.53000    1.84100    0.03179
  250.00000    6.13000   25.83000    1.72300    0.02835
  250.00000    6.13000   26.14000    1.61600    0.02771
  250.00000    6.13000   26.44000    1.46900    0.02642
  250.00000    6.13000   26.75000    1.33600    0.02588
  250.00000    6.13000   27.05000    1.20700    0.02340
  250.00000    6.13000   27.36000    1.04100    0.02072
  250.00000    6.13000   27.66000    1.00700    0.02202
  250.00000    6.13000   27.97000    0.95550    0.02152
  250.00000    6.13000   28.27000    0.89110    0.01998
  250.00000    6.13000   28.58000    0.85500    0.01948
  250.00000    6.13000   28.88000    0.83190    0.01992
  250.00000    6.13000   29.19000    0.83010    0.02023
  250.00000    6.13000   29.49000    0.83080    0.02048
  250.00000    6.13000   29.80000    0.87330    0.02164
  250.00000    6.13000   30.10000    0.79750    0.02009
  250.00000    6.13000   30.41000    0.71230    0.01798
  250.00000    6.13000   30.72000    0.64220    0.01732
  250.00000    6.13000   31.02000    0.61950    0.01645
  250.00000    6.13000   31.33000    0.55860    0.01566
  250.00000    6.13000   31.63000    0.54860    0.01538
  250.00000    6.13000   31.94000    0.50270    0.01564
  250.00000    6.13000   32.24000    0.46660    0.01484
  250.00000    6.13000   32.55000    0.38200    0.01295
  250.00000    6.13000   32.85000    0.36110    0.01369
  250.00000    6.13000   33.16000    0.35200    0.01352
  250.00000    6.13000   33.46000    0.32920    0.01267
  250.00000    6.13000   33.67000    0.32660    0.01356
  250.00000    6.13000   33.77000    0.32470    0.01348
  250.00000    6.13000   33.97000    0.31910    0.01363
  250.00000    6.13000   34.07000    0.31500    0.01345
  250.00000    6.13000   34.28000    0.30980    0.01464
  250.00000    6.13000   34.38000    0.30660    0.01449
  250.00000    6.13000   34.58000    0.29950    0.01323
  250.00000    6.13000   34.68000    0.30030    0.01326
  250.00000    6.13000   34.89000    0.28860    0.01407
  250.00000    6.13000   35.19000    0.25530    0.01313
  250.00000    6.13000   35.50000    0.22700    0.01329
  250.00000    6.13000   35.80000    0.22260    0.00683
  250.00000    6.13000   36.11000    0.22250    0.00712
  250.00000    6.13000   36.41000    0.20370    0.00676
  250.00000    6.13000   36.72000    0.18620    0.00624
  250.00000    6.13000   37.02000    0.18240    0.00654
  250.00000    6.13000   37.33000    0.17000    0.00666
  250.00000    6.13000   37.62000    0.16940    0.00685
  250.00000    6.13000   37.94000    0.16200    0.00660
  250.00000    6.13000   38.25000    0.15250    0.00643
  250.00000    6.13000   38.55000    0.14550    0.00598
  250.00000    6.13000   38.86000    0.13930    0.00598
  250.00000    6.13000   39.16000    0.13610    0.00571
  250.00000    6.13000   39.47000    0.13090    0.00561
  250.00000    6.13000   39.77000    0.11940    0.00510
  250.00000    6.13000   40.08000    0.10750    0.00532
  250.00000    6.13000   40.38000    0.11010    0.00529
  250.00000    6.13000   40.69000    0.10180    0.00521
  250.00000    6.13000   40.99000    0.09727    0.00504
  250.00000    6.13000   41.30000    0.09027    0.00484
  250.00000    6.13000   41.60000    0.07570    0.00429
  250.00000    6.13000   41.91000    0.06045    0.00384
  250.00000    6.13000   42.22000    0.05544    0.00407
  250.00000    6.13000   42.52000    0.05298    0.00441
  250.00000    6.13000   42.83000    0.05063    0.00383
  250.00000    6.13000   43.13000    0.04709    0.00366
  250.00000    6.13000   43.44000    0.04720    0.00431
  250.00000    6.13000   43.74000    0.04914    0.00457
  250.00000    6.92000    4.88000   97.65000   20.43297
  250.00000    6.92000    5.39000  153.10000   32.03679
  250.00000    6.92000    5.90000  110.20000    6.33756
  250.00000    6.92000    6.40000   52.84000    2.30112
  250.00000    6.92000    6.91000   36.58000    1.41435
  250.00000    6.92000    7.42000   32.70000    1.37812
  250.00000    6.92000    7.93000   32.57000    1.45581
  250.00000    6.92000    8.44000   28.17000    1.44909
  250.00000    6.92000    8.95000   23.82000    1.53785
  250.00000    6.92000    9.46000   10.67000    0.80985
  250.00000    6.92000    9.77000   15.25000    1.61905
  250.00000    6.92000    9.96000   18.07000    0.71737
  250.00000    6.92000   10.07000   19.46000    2.07897
  250.00000    6.92000   10.37000   19.79000    0.57269
  250.00000    6.92000   10.47000   19.97000    0.63071
  250.00000    6.92000   10.68000   22.08000    1.61231
  250.00000    6.92000   10.98000   23.25000    0.67706
  250.00000    6.92000   11.29000   22.99000    0.64966
  250.00000    6.92000   11.59000   21.80000    1.93867
  250.00000    6.92000   11.90000   16.58000    0.43473
  250.00000    6.92000   12.20000   13.73000    1.29536
  250.00000    6.92000   12.51000   14.75000    0.44352
  250.00000    6.92000   12.81000   12.60000    0.34236
  250.00000    6.92000   13.12000   10.27000    1.28998
  250.00000    6.92000   13.42000    8.41500    0.28310
  250.00000    6.92000   13.73000    6.94400    1.01731
  250.00000    6.92000   14.03000    8.00800    0.27308
  250.00000    6.92000   14.34000    7.65800    0.21293
  250.00000    6.92000   14.64000    6.52500    1.27061
  250.00000    6.92000   14.95000    6.75100    0.13633
  250.00000    6.92000   15.25000    6.61300    0.13236
  250.00000    6.92000   15.56000    7.60700    0.15336
  250.00000    6.92000   15.66000    8.61900    0.39561
  250.00000    6.92000   15.86000    6.39900    0.13161
  250.00000    6.92000   15.96000    6.24600    0.30002
  250.00000    6.92000   16.17000    5.39100    0.11925
  250.00000    6.92000   16.27000    4.74000    0.22753
  250.00000    6.92000   16.47000    5.02100    0.11907
  250.00000    6.92000   16.57000    4.84900    0.23950
  250.00000    6.92000   16.78000    4.98200    0.11769
  250.00000    6.92000   16.88000    5.02700    0.29095
  250.00000    6.92000   17.08000    4.80300    0.11582
  250.00000    6.92000   17.19000    4.78700    0.28856
  250.00000    6.92000   17.39000    4.13800    0.09886
  250.00000    6.92000   17.49000    4.20600    0.28216
  250.00000    6.92000   17.69000    4.24500    0.10921
  250.00000    6.92000   17.80000    4.16100    0.28645
  250.00000    6.92000   18.00000    4.39700    0.11555
  250.00000    6.92000   18.10000    4.25700    0.30159
  250.00000    6.92000   18.30000    4.36100    0.11616
  250.00000    6.92000   18.41000    4.48800    0.34943
  250.00000    6.92000   18.61000    4.41500    0.11263
  250.00000    6.92000   18.71000    4.23700    0.31589
  250.00000    6.92000   18.91000    3.98500    0.11341
  250.00000    6.92000   19.02000    3.84000    0.28473
  250.00000    6.92000   19.22000    3.23000    0.10000
  250.00000    6.92000   19.32000    3.44200    0.28029
  250.00000    6.92000   19.52000    2.88800    0.09713
  250.00000    6.92000   19.63000    2.49600    0.22210
  250.00000    6.92000   19.83000    2.33000    0.08348
  250.00000    6.92000   19.93000    2.15500    0.20096
  250.00000    6.92000   20.24000    2.19900    0.18180
  250.00000    6.92000   20.54000    2.17500    0.17300
  250.00000    6.92000   20.85000    2.28600    0.25260
  250.00000    6.92000   21.15000    2.30800    0.23831
  250.00000    6.92000   21.46000    2.05500    0.23970
  250.00000    6.92000   21.76000    2.00300    0.49014
  250.00000    6.92000   22.07000    1.85900    0.08357
  250.00000    6.92000   22.37000    1.63300    0.06280
  250.00000    6.92000   22.68000    1.48500    0.07081
  250.00000    6.92000   22.98000    1.18600    0.04934
  250.00000    6.92000   23.29000    0.94920    0.04236
  250.00000    6.92000   23.59000    0.85300    0.03959
  250.00000    6.92000   23.90000    0.74960    0.03730
  250.00000    6.92000   24.20000    0.70420    0.03690
  250.00000    6.92000   24.51000    0.61970    0.03834
  250.00000    6.92000   24.72000    0.66430    0.04148
  250.00000    6.92000   24.94000    0.71970    0.06151
  250.00000    6.92000   25.22000    0.76820    0.05751
  250.00000    6.92000   25.53000    0.79020    0.01982
  250.00000    6.92000   25.83000    0.78090    0.01950
  250.00000    6.92000   26.14000    0.76660    0.02101
  250.00000    6.92000   26.44000    0.72800    0.01901
  250.00000    6.92000   26.75000    0.63830    0.01827
  250.00000    6.92000   27.05000    0.59000    0.01655
  250.00000    6.92000   27.36000    0.58110    0.01654
  250.00000    6.92000   27.66000    0.55520    0.01589
  250.00000    6.92000   27.97000    0.48710    0.01478
  250.00000    6.92000   28.27000    0.48050    0.01509
  250.00000    6.92000   28.58000    0.49890    0.01512
  250.00000    6.92000   28.88000    0.47120    0.01477
  250.00000    6.92000   29.19000    0.41360    0.01451
  250.00000    6.92000   29.49000    0.37680    0.01204
  250.00000    6.92000   29.80000    0.31260    0.01150
  250.00000    6.92000   30.10000    0.31160    0.01304
  250.00000    6.92000   30.41000    0.32120    0.01297
  250.00000    6.92000   30.72000    0.31230    0.01211
  250.00000    6.92000   31.02000    0.29190    0.01112
  250.00000    6.92000   31.33000    0.23590    0.01038
  250.00000    6.92000   31.63000    0.18950    0.00834
  250.00000    6.92000   31.94000    0.18340    0.00911
  250.00000    6.92000   32.24000    0.20500    0.01080
  250.00000    6.92000   32.55000    0.21830    0.01116
  250.00000    6.92000   32.85000    0.20860    0.01136
  250.00000    6.92000   33.16000    0.18100    0.00892
  250.00000    6.92000   33.46000    0.15450    0.00829
  250.00000    6.92000   33.67000    0.13810    0.00777
  250.00000    6.92000   33.77000    0.13250    0.00746
  250.00000    6.92000   33.97000    0.12190    0.00781
  250.00000    6.92000   34.07000    0.11480    0.00735
  250.00000    6.92000   34.28000    0.10760    0.00691
  250.00000    6.92000   34.38000    0.10410    0.00669
  250.00000    6.92000   34.58000    0.09176    0.00568
  250.00000    6.92000   34.68000    0.08868    0.00549
  250.00000    6.92000   34.89000    0.10640    0.00773
  250.00000    6.92000   35.19000    0.10410    0.00909
  250.00000    6.92000   35.50000    0.09899    0.00851
  250.00000    6.92000   35.80000    0.09736    0.00449
  250.00000    6.92000   36.11000    0.09617    0.00466
  250.00000    6.92000   36.41000    0.08699    0.00432
  250.00000    6.92000   36.72000    0.07616    0.00364
  250.00000    6.92000   37.02000    0.07110    0.00410
  250.00000    6.92000   37.33000    0.06299    0.00369
  250.00000    6.92000   37.62000    0.05396    0.00352
  250.00000    6.92000   37.94000    0.05278    0.00381
  250.00000    6.92000   38.25000    0.05008    0.00359
  250.00000    6.92000   38.55000    0.04948    0.00359
  250.00000    6.92000   38.86000    0.04876    0.00429
  250.00000    6.92000   39.16000    0.04893    0.00415
  250.00000    6.92000   39.47000    0.04859    0.00431
  250.00000    6.92000   39.77000    0.04567    0.00326
  250.00000    6.92000   40.08000    0.04153    0.00307
  250.00000    6.92000   40.38000    0.04351    0.00345
  250.00000    6.92000   40.69000    0.04143    0.00324
  250.00000    6.92000   40.99000    0.03997    0.00349
  250.00000    6.92000   41.30000    0.04006    0.00335
  250.00000    6.92000   41.60000    0.03967    0.00365
  250.00000    6.92000   41.91000    0.04054    0.00356
  250.00000    6.92000   42.22000    0.04154    0.00306
  250.00000    6.92000   42.52000    0.03602    0.00334
  250.00000    6.92000   42.83000    0.03020    0.00275
  250.00000    6.92000   43.13000    0.02474    0.00286
  250.00000    6.92000   43.44000    0.02211    0.00224
  250.00000    6.92000   43.74000    0.01700    0.00231
  350.00000    6.13000   10.66000   10.54000    1.09620
  350.00000    6.13000   11.06000   14.26000    1.17780
  350.00000    6.13000   11.48000   17.31000    1.11930
  350.00000    6.13000   11.88000   17.28000    0.93841
  350.00000    6.13000   12.28000   11.92000    0.65760
  350.00000    6.13000   13.10000    6.40000    0.43680
  350.00000    6.13000   13.50000    5.74800    0.39366
  350.00000    6.13000   13.90000    5.07000    0.44280
  350.00000    6.13000   14.32000    5.75000    0.48175
  350.00000    6.13000   14.72000    7.95000    0.46605
  350.00000    6.13000   15.12000   10.12000    0.42504
  350.00000    6.13000   15.54000    7.36200    0.36074
  350.00000    6.13000   15.94000    6.17400    0.33340
  350.00000    6.13000   16.34000    4.01400    0.26894
  350.00000    6.13000   16.74000    3.43800    0.24754
  350.00000    6.13000   17.04000    3.60040    0.10801
  350.00000    6.13000   17.52000    3.92760    0.11783
  350.00000    6.13000   18.00000    3.73510    0.11205
  350.00000    6.13000   18.48000    3.51060    0.10532
  350.00000    6.13000   18.96000    2.91750    0.08753
  350.00000    6.13000   19.44000    2.47420    0.07423
  350.00000    6.13000   19.92000    1.82910    0.05487
  350.00000    6.13000   20.40000    1.51250    0.04538
  350.00000    6.13000   20.86000    1.39830    0.04195
  350.00000    6.13000   21.34000    1.49610    0.04488
  350.00000    6.13000   21.82000    1.40720    0.04222
  350.00000    6.13000   22.30000    1.34000    0.04020
  350.00000    6.13000   22.78000    1.15860    0.03476
  350.00000    6.13000   23.26000    0.87450    0.02624
  350.00000    6.13000   23.72000    0.69940    0.02098
  350.00000    6.13000   24.20000    0.61000    0.01830
  350.00000    6.13000   24.68000    0.59620    0.01789
  350.00000    6.13000   25.16000    0.55170    0.01655
  350.00000    6.13000   25.64000    0.48270    0.01448
  350.00000    6.13000   26.12000    0.43630    0.01309
  350.00000    6.13000   26.60000    0.39050    0.01172
  350.00000    6.13000   27.08000    0.37250    0.01118
  350.00000    6.13000   27.56000    0.32260    0.00968
  350.00000    6.13000   28.04000    0.24390    0.00732
  350.00000    6.13000   28.50000    0.21630    0.00692
  350.00000    6.13000   28.98000    0.20160    0.00665
  350.00000    6.13000   29.46000    0.19550    0.00645
  350.00000    6.13000   29.94000    0.17640    0.00617
  350.00000    6.13000   30.42000    0.17730    0.00621
  350.00000    6.13000   30.90000    0.12410    0.00521
  350.00000    6.13000   31.38000    0.11280    0.00496
  350.00000    6.13000   31.84000    0.09760    0.00459
  350.00000    6.13000   32.32000    0.08140    0.00423
  350.00000    6.13000   32.80000    0.08770    0.00439
  350.00000    6.13000   33.28000    0.08110    0.00422
  350.00000    6.92000   10.66000   19.39000    0.58170
  350.00000    6.92000   11.06000   16.13000    0.53229
  350.00000    6.92000   11.48000   12.58000    0.47804
  350.00000    6.92000   11.88000   10.94000    0.44854
  350.00000    6.92000   12.28000   10.82000    0.44362
  350.00000    6.92000   12.68000   12.53000    0.47614
  350.00000    6.92000   13.10000   10.22000    0.42924
  350.00000    6.92000   13.50000    9.43200    0.41501
  350.00000    6.92000   13.90000    9.19800    0.40471
  350.00000    6.92000   14.32000    7.02000    0.35802
  350.00000    6.92000   14.72000    5.72400    0.32054
  350.00000    6.92000   15.12000    5.00400    0.30024
  350.00000    6.92000   15.54000    5.43600    0.31529
  350.00000    6.92000   15.94000    3.69000    0.25830
  350.00000    6.92000   16.34000    4.15800    0.27443
  350.00000    6.92000   16.74000    4.35600    0.27878
  350.00000    6.92000   17.04000    3.49810    0.10494
  350.00000    6.92000   17.52000    3.01480    0.09044
  350.00000    6.92000   18.00000    2.59110    0.07773
  350.00000    6.92000   18.48000    2.14210    0.06426
  350.00000    6.92000   18.96000    2.02120    0.06064
  350.00000    6.92000   19.44000    1.82020    0.05461
  350.00000    6.92000   19.92000    1.49520    0.04486
  350.00000    6.92000   20.40000    1.42630    0.04279
  350.00000    6.92000   20.86000    1.20620    0.03619
  350.00000    6.92000   21.34000    0.96260    0.02888
  350.00000    6.92000   21.82000    0.84210    0.02526
  350.00000    6.92000   22.30000    0.76250    0.02288
  350.00000    6.92000   22.78000    0.57130    0.01714
  350.00000    6.92000   23.26000    0.51710    0.01551
  350.00000    6.92000   23.72000    0.50640    0.01519
  350.00000    6.92000   24.20000    0.39440    0.01341
  350.00000    6.92000   24.68000    0.31570    0.01200
  350.00000    6.92000   25.16000    0.29740    0.01160
  350.00000    6.92000   25.64000    0.32240    0.00967
  350.00000    6.92000   26.12000    0.27550    0.00827
  350.00000    6.92000   26.60000    0.22740    0.00705
  350.00000    6.92000   27.08000    0.19810    0.00654
  350.00000    6.92000   27.56000    0.20050    0.00662
  350.00000    6.92000   28.04000    0.19550    0.00645
  350.00000    6.92000   28.50000    0.17340    0.00607
  350.00000    6.92000   28.98000    0.14990    0.00570
  350.00000    6.92000   29.46000    0.12610    0.00517
  350.00000    6.92000   29.94000    0.10390    0.00478
  350.00000    6.92000   30.42000    0.08330    0.00425
  350.00000    6.92000   30.90000    0.07980    0.00415
  350.00000    6.92000   31.38000    0.07160    0.00394
  350.00000    6.92000   31.84000    0.07530    0.00407
  350.00000    6.92000   32.32000    0.05970    0.00358
  350.00000    6.92000   32.80000    0.03580    0.00279
  350.00000    6.92000   33.28000    0.02450    0.00230
  704.00000    6.13000    5.09000  406.00000   15.20860
  704.00000    6.13000    5.29200  453.40000   15.75706
  704.00000    6.13000    5.49600  419.00000   14.38222
  704.00000    6.13000    5.69800  350.10000   13.51761
  704.00000    6.13000    5.90200  307.90000   13.38635
  704.00000    6.13000    6.10600  249.40000   12.57774
  704.00000    6.13000    6.31000  188.10000   11.20102
  704.00000    6.13000    6.51200  127.90000    9.79373
  704.00000    6.13000    6.71600   99.83000    8.10337
  704.00000    6.13000    6.91800   54.61000    5.70698
  704.00000    6.13000    7.12200   64.01000    6.60096
  704.00000    6.13000    7.32600   67.01000    5.79415
  704.00000    6.13000    7.53000   72.29000    6.74837
  704.00000    6.13000    7.73200   78.73000    6.22045
  704.00000    6.13000    7.93600   94.76000    6.80934
  704.00000    6.13000    8.13800   97.71000    6.63200
  704.00000    6.13000    8.34200  101.30000    6.79191
  704.00000    6.13000    8.54600   97.49000    3.17166
  704.00000    6.13000    8.74800   76.84000    2.03528
  704.00000    6.13000    8.95200   53.68000    1.68515
  704.00000    6.13000    9.15400   39.28000    1.41721
  704.00000    6.13000    9.35800   30.28000    1.24842
  704.00000    6.13000    9.56200   26.56000    1.48244
  704.00000    6.13000    9.76600   25.02000    1.43061
  704.00000    6.13000    9.96800   21.74000    1.30975
  704.00000    6.13000   10.17000   21.60000    1.31818
  704.00000    6.13000   10.37400   27.28000    1.19061
  704.00000    6.13000   10.57800   28.73000    1.23951
  704.00000    6.13000   10.78000   29.96000    1.26758
  704.00000    6.13000   10.98400   29.45000    1.26327
  704.00000    6.13000   11.18800   23.35000    1.10168
  704.00000    6.13000   11.39000   22.54000    1.09820
  704.00000    6.13000   11.59400   19.16000    1.01944
  704.00000    6.13000   11.79800   16.78000    0.94357
  704.00000    6.13000   12.00200   12.67000    0.81049
  704.00000    6.13000   12.20400    9.00800    0.67284
  704.00000    6.13000   12.40600    9.06100    0.66588
  704.00000    6.13000   12.61000    6.21100    0.41299
  704.00000    6.13000   12.81400    6.35400    0.37936
  704.00000    6.13000   13.01600    6.37100    0.37135
  704.00000    6.13000   13.22000    5.77000    0.33542
  704.00000    6.13000   13.42400    7.22900    0.31807
  704.00000    6.13000   13.62600    5.24400    0.30491
  704.00000    6.13000   13.83000    5.21000    0.28383
  704.00000    6.13000   14.03400    4.86200    0.26429
  704.00000    6.13000   14.23600    4.58300    0.24248
  704.00000    6.13000   14.44000    3.94000    0.26362
  704.00000    6.92000    5.09000  420.00000   15.27460
  704.00000    6.92000    5.29200  347.70000   15.83603
  704.00000    6.92000    5.49600  305.40000   14.52440
  704.00000    6.92000    5.69800  267.30000   13.57416
  704.00000    6.92000    5.90200  242.30000   13.43052
  704.00000    6.92000    6.10600  228.70000   12.52057
  704.00000    6.92000    6.31000  198.80000   11.27570
  704.00000    6.92000    6.51200  189.80000   10.84453
  704.00000    6.92000    6.71600  180.40000    9.64685
  704.00000    6.92000    6.91800  142.20000    8.57928
  704.00000    6.92000    7.12200  143.40000    8.78222
  704.00000    6.92000    7.32600  130.00000    7.19499
  704.00000    6.92000    7.53000  124.50000    7.85873
  704.00000    6.92000    7.73200  108.00000    6.63564
  704.00000    6.92000    7.93600   92.96000    6.79423
  704.00000    6.92000    8.13800   80.64000    6.57901
  704.00000    6.92000    8.34200   63.62000    7.06706
  704.00000    6.92000    8.54600   37.07000    2.03063
  704.00000    6.92000    8.74800   37.50000    1.63689
  704.00000    6.92000    8.95200   37.08000    1.44176
  704.00000    6.92000    9.15400   33.42000    1.30691
  704.00000    6.92000    9.35800   29.61000    1.23361
  704.00000    6.92000    9.56200   34.27000    1.78643
  704.00000    6.92000    9.76600   33.75000    1.78364
  704.00000    6.92000    9.96800   33.30000    1.80341
  704.00000    6.92000   10.17000   31.02000    1.72524
  704.00000    6.92000   10.37400   23.36000    1.10323
  704.00000    6.92000   10.57800   18.45000    1.04118
  704.00000    6.92000   10.78000   18.56000    1.05655
  704.00000    6.92000   10.98400   16.88000    1.04054
  704.00000    6.92000   11.18800   13.52000    0.89116
  704.00000    6.92000   11.39000   10.40000    0.87257
  704.00000    6.92000   11.59400   12.80000    0.86951
  704.00000    6.92000   11.79800    8.79900    0.75671
  704.00000    6.92000   12.00200   10.15000    0.72892
  704.00000    6.92000   12.20400    9.96300    0.71246
  704.00000    6.92000   12.40600    7.92800    0.61971
  704.00000    6.92000   12.61000    9.42500    0.45293
  704.00000    6.92000   12.81400    8.29300    0.39624
  704.00000    6.92000   13.01600    7.62300    0.37973
  704.00000    6.92000   13.22000    6.75900    0.34175
  704.00000    6.92000   13.42400    4.18000    0.35369
  704.00000    6.92000   13.62600    4.90300    0.30459
  704.00000    6.92000   13.83000    4.23900    0.28667
  704.00000    6.92000   14.03400    3.29500    0.27803
  704.00000    6.92000   14.23600    3.09000    0.25489
  704.00000    6.92000   14.44000    2.75800    0.27575
 1120.00000    6.13000    3.56400  132.97000    9.03310
 1120.00000    6.13000    3.69500   85.54500    6.65140
 1120.00000    6.13000    3.82600  104.59000    8.29680
 1120.00000    6.13000    3.95700  115.58000    7.84270
 1120.00000    6.13000    4.08800  114.29000    8.74690
 1120.00000    6.13000    4.21800  105.86000    8.40380
 1120.00000    6.13000    4.34900  112.77000    8.91530
 1120.00000    6.13000    4.44700  122.14000    4.03820
 1120.00000    6.13000    4.57800  122.08000    3.94490
 1120.00000    6.13000    4.70900  125.19000    4.05530
 1120.00000    6.13000    4.84000  109.18000    3.72930
 1120.00000    6.13000    4.97100  104.41000    3.41610
 1120.00000    6.13000    5.10100   80.15800    2.90160
 1120.00000    6.13000    5.23200   64.17100    2.52600
 1120.00000    6.13000    5.36300   49.59900    2.17600
 1120.00000    6.13000    5.49400   38.62900    1.73710
 1120.00000    6.13000    5.62400   23.57600    1.20390
 1120.00000    6.13000    5.75500   16.39500    1.13860
 1120.00000    6.13000    5.88600   20.44900    1.08870
 1120.00000    6.13000    6.01700   20.28500    0.93405
 1120.00000    6.13000    6.14700   21.79500    1.12000
 1120.00000    6.13000    6.27800   24.32600    1.26080
 1120.00000    6.13000    6.40900   34.65600    1.68600
 1120.00000    6.13000    6.54000   31.45300    1.61450
 1120.00000    6.13000    6.67000   31.11000    1.59150
 1120.00000    6.13000    6.80100   30.58100    1.61060
 1120.00000    6.13000    6.93200   25.96100    1.55540
 1120.00000    6.13000    7.06300   24.88800    1.47800
 1120.00000    6.13000    7.19400   23.81400    1.44420
 1120.00000    6.13000    7.32400   19.13300    1.30760
 1120.00000    6.13000    7.45500   14.88000    1.14540
 1120.00000    6.13000    7.58600   17.00500    1.15620
 1120.00000    6.13000    7.71700   11.82600    0.90524
 1120.00000    6.13000    7.84700    8.87230    0.73424
 1120.00000    6.13000    7.97800    7.91240    0.68039
 1120.00000    6.13000    8.10900    6.65300    0.59061
 1120.00000    6.13000    8.24000    7.75500    0.71438
 1120.00000    6.13000    8.37000    8.28650    0.74938
 1120.00000    6.13000    8.50100    9.50880    0.79672
 1120.00000    6.13000    8.63200    7.11230    0.66806
 1120.00000    6.13000    8.76300    9.24240    0.80655
 1120.00000    6.13000    8.89300    9.97470    0.90112
 1120.00000    6.13000    8.95700    9.44580    0.27322
 1120.00000    6.13000    9.08800    8.67370    0.25211
 1120.00000    6.13000    9.21900    8.80670    0.26737
 1120.00000    6.13000    9.34900    8.13880    0.25623
 1120.00000    6.13000    9.48000    5.61680    0.19514
 1120.00000    6.13000    9.61100    4.55240    0.17026
 1120.00000    6.13000    9.74200    4.76550    0.18355
 1120.00000    6.13000    9.87200    4.18330    0.17266
 1120.00000    6.13000   10.00300    3.24670    0.14411
 1120.00000    6.13000   10.13400    2.87750    0.13411
 1120.00000    6.13000   10.26500    3.89290    0.16915
 1120.00000    6.13000   10.39500    3.13160    0.14370
 1120.00000    6.13000   10.52600    2.85540    0.13849
 1120.00000    6.13000   10.65700    3.31160    0.15415
 1120.00000    6.13000   10.78800    3.45120    0.17444
 1120.00000    6.13000   10.91800    3.39350    0.17000
 1120.00000    6.13000   11.04900    3.04720    0.15592
 1120.00000    6.13000   11.18000    3.25410    0.17420
 1120.00000    6.13000   11.31000    2.37660    0.13888
 1120.00000    6.13000   11.44100    3.00200    0.15823
 1120.00000    6.13000   11.57200    2.13350    0.12174
 1120.00000    6.13000   11.70300    1.84250    0.11843
 1120.00000    6.13000   11.83300    1.55480    0.10804
 1120.00000    6.13000   11.96400    1.17740    0.09286
 1120.00000    6.13000   12.09500    1.58310    0.11038
 1120.00000    6.13000   12.22600    1.36800    0.11369
 1120.00000    6.13000   12.35600    1.08590    0.10285
 1120.00000    6.13000   12.48700    1.07900    0.10302
 1120.00000    6.13000   12.61800    0.98922    0.09749
 1120.00000    6.13000   12.74900    0.99973    0.08924
 1120.00000    6.13000   12.87900    0.71716    0.08036
 1120.00000    6.13000   13.01000    0.76272    0.08501
 1120.00000    6.13000   13.14100    0.90638    0.09885
 1120.00000    6.13000   13.27100    0.98324    0.10391
 1120.00000    6.13000   13.40200    0.80347    0.09683
 1120.00000    6.13000   13.53300    0.64600    0.07298
 1120.00000    6.13000   13.66400    0.68197    0.08158
 1120.00000    6.13000   13.80200    0.55740    0.02208
 1120.00000    6.13000   13.93300    0.48396    0.02019
 1120.00000    6.13000   14.06400    0.47872    0.02119
 1120.00000    6.13000   14.19500    0.44306    0.02030
 1120.00000    6.13000   14.32500    0.38319    0.01910
 1120.00000    6.13000   14.45600    0.32670    0.01668
 1120.00000    6.13000   14.58700    0.37185    0.01906
 1120.00000    6.13000   14.71700    0.26759    0.01601
 1120.00000    6.13000   14.84800    0.27119    0.01706
 1120.00000    6.13000   14.97900    0.25679    0.01674
 1120.00000    6.13000   15.11000    0.22730    0.01618
 1120.00000    6.13000   15.24000    0.17602    0.01534
 1120.00000    6.13000   15.37100    0.19848    0.01492
 1120.00000    6.13000   15.43600    0.16597    0.00829
 1120.00000    6.13000   15.50200    0.14561    0.01125
 1120.00000    6.13000   15.69800    0.12397    0.00686
 1120.00000    6.13000   15.95900    0.11446    0.00717
 1120.00000    6.13000   16.22100    0.07971    0.00589
 1120.00000    6.13000   16.48200    0.06666    0.00566
 1120.00000    6.13000   16.74300    0.04004    0.00509
 1120.00000    6.13000   17.00500    0.03161    0.00440
 1120.00000    6.13000   17.26600    0.03760    0.00400
 1120.00000    6.13000   17.52700    0.01952    0.00283
 1120.00000    6.13000   17.78900    0.01953    0.00331
 1120.00000    6.92000    3.56400  203.53000   13.82700
 1120.00000    6.92000    3.69500  187.75000   14.59900
 1120.00000    6.92000    3.82600  168.71000   13.38300
 1120.00000    6.92000    3.95700  203.92000   13.83700
 1120.00000    6.92000    4.08800  151.61000   11.60300
 1120.00000    6.92000    4.21800  149.34000   11.85600
 1120.00000    6.92000    4.34900  130.73000   10.33500
 1120.00000    6.92000    4.44700  110.46000    3.65180
 1120.00000    6.92000    4.57800   87.61600    2.83110
 1120.00000    6.92000    4.70900   61.11200    1.97970
 1120.00000    6.92000    4.84000   46.71700    1.59570
 1120.00000    6.92000    4.97100   43.18700    1.41290
 1120.00000    6.92000    5.10100   35.84200    1.29740
 1120.00000    6.92000    5.23200   36.32900    1.43000
 1120.00000    6.92000    5.36300   35.35100    1.55100
 1120.00000    6.92000    5.49400   39.36100    1.76990
 1120.00000    6.92000    5.62400   39.83400    2.03410
 1120.00000    6.92000    5.75500   26.57500    1.84540
 1120.00000    6.92000    5.88600   37.25100    1.98330
 1120.00000    6.92000    6.01700   47.10500    2.16890
 1120.00000    6.92000    6.14700   36.56500    1.87900
 1120.00000    6.92000    6.27800   31.45400    1.63020
 1120.00000    6.92000    6.40900   25.30400    1.23100
 1120.00000    6.92000    6.54000   22.68700    1.16450
 1120.00000    6.92000    6.67000   22.06000    1.12850
 1120.00000    6.92000    6.80100   20.03900    1.05540
 1120.00000    6.92000    6.93200   16.04900    0.96155
 1120.00000    6.92000    7.06300   15.22200    0.90399
 1120.00000    6.92000    7.19400   16.05600    0.97378
 1120.00000    6.92000    7.32400   13.52700    0.92443
 1120.00000    6.92000    7.45500   11.05000    0.85062
 1120.00000    6.92000    7.58600   13.08500    0.88975
 1120.00000    6.92000    7.71700   13.07400    1.00080
 1120.00000    6.92000    7.84700   13.39800    1.10880
 1120.00000    6.92000    7.97800   11.71800    1.00760
 1120.00000    6.92000    8.10900   11.51700    1.02240
 1120.00000    6.92000    8.24000   10.13500    0.93362
 1120.00000    6.92000    8.37000   10.11400    0.91462
 1120.00000    6.92000    8.50100   10.29100    0.86228
 1120.00000    6.92000    8.63200    9.52770    0.89494
 1120.00000    6.92000    8.76300    8.89760    0.77645
 1120.00000    6.92000    8.89300    6.79530    0.61388
 1120.00000    6.92000    8.95700    6.36420    0.18408
 1120.00000    6.92000    9.08800    6.52630    0.18969
 1120.00000    6.92000    9.21900    5.37330    0.16313
 1120.00000    6.92000    9.34900    4.95120    0.15587
 1120.00000    6.92000    9.48000    5.41320    0.18806
 1120.00000    6.92000    9.61100    5.08660    0.19024
 1120.00000    6.92000    9.74200    4.32950    0.16675
 1120.00000    6.92000    9.87200    3.92370    0.16194
 1120.00000    6.92000   10.00300    3.96730    0.17609
 1120.00000    6.92000   10.13400    3.78050    0.17619
 1120.00000    6.92000   10.26500    3.14510    0.13665
 1120.00000    6.92000   10.39500    3.25340    0.14930
 1120.00000    6.92000   10.52600    2.99160    0.14511
 1120.00000    6.92000   10.65700    2.78940    0.12985
 1120.00000    6.92000   10.78800    2.04280    0.10326
 1120.00000    6.92000   10.91800    1.89050    0.09470
 1120.00000    6.92000   11.04900    1.95780    0.10018
 1120.00000    6.92000   11.18000    1.50190    0.08040
 1120.00000    6.92000   11.31000    1.60540    0.09382
 1120.00000    6.92000   11.44100    1.69000    0.08908
 1120.00000    6.92000   11.57200    1.95850    0.11176
 1120.00000    6.92000   11.70300    1.57250    0.10107
 1120.00000    6.92000   11.83300    1.44420    0.10036
 1120.00000    6.92000   11.96400    1.27860    0.10084
 1120.00000    6.92000   12.09500    1.17490    0.08192
 1120.00000    6.92000   12.22600    0.82800    0.06881
 1120.00000    6.92000   12.35600    0.71215    0.06745
 1120.00000    6.92000   12.48700    0.69103    0.06598
 1120.00000    6.92000   12.61800    0.59578    0.05871
 1120.00000    6.92000   12.74900    0.75127    0.06706
 1120.00000    6.92000   12.87900    0.57684    0.06464
 1120.00000    6.92000   13.01000    0.51228    0.05709
 1120.00000    6.92000   13.14100    0.34062    0.03715
 1120.00000    6.92000   13.27100    0.28376    0.02999
 1120.00000    6.92000   13.40200    0.27853    0.03357
 1120.00000    6.92000   13.53300    0.45600    0.05152
 1120.00000    6.92000   13.66400    0.31283    0.03742
 1120.00000    6.92000   13.80200    0.33290    0.01319
 1120.00000    6.92000   13.93300    0.32264    0.01346
 1120.00000    6.92000   14.06400    0.25698    0.01137
 1120.00000    6.92000   14.19500    0.22344    0.01024
 1120.00000    6.92000   14.32500    0.21561    0.01075
 1120.00000    6.92000   14.45600    0.22700    0.01159
 1120.00000    6.92000   14.58700    0.16495    0.00845
 1120.00000    6.92000   14.71700    0.16911    0.01012
 1120.00000    6.92000   14.84800    0.12841    0.00808
 1120.00000    6.92000   14.97900    0.11301    0.00737
 1120.00000    6.92000   15.11000    0.08430    0.00600
 1120.00000    6.92000   15.24000    0.06528    0.00569
 1120.00000    6.92000   15.37100    0.07362    0.00553
 1120.00000    6.92000   15.43600    0.10373    0.00518
 1120.00000    6.92000   15.50200    0.10789    0.00834
 1120.00000    6.92000   15.69800    0.09563    0.00530
 1120.00000    6.92000   15.95900    0.06184    0.00388
 1120.00000    6.92000   16.22100    0.05499    0.00406
 1120.00000    6.92000   16.48200    0.03605    0.00306
 1120.00000    6.92000   16.74300    0.02086    0.00265
 1120.00000    6.92000   17.00500    0.01795    0.00250
 1120.00000    6.92000   17.26600    0.02377    0.00253
 1120.00000    6.92000   17.52700    0.01952    0.00283
 1120.00000    6.92000   17.78900    0.01017    0.00172
ENDDATA            691
ENDSUBENT          697
SUBENT        O1662003   20081020   20081219   20081219       O037
BIB                  1          2
REACTION   (8-O-16(8-O-16,INL)8-O-16,PAR,DA)
            Sum 3-+2+ states
ENDBIB               2
COMMON               2          3
E-LVL      E-LVL
MEV        MEV
6.13       6.92
ENDCOMMON            3
DATA                 4        666
EN         ANG-CM     DATA-CM    DATA-ERR
MEV        ADEG       MB/SR      MB/SR
  250.00000    5.90000  297.10000    8.50817
  250.00000    6.42000  114.20000    5.28159
  250.00000    6.94000   70.06000    4.13986
  250.00000    7.42000   62.26000    3.90654
  250.00000    7.94000   79.91000    4.42833
  250.00000    8.46000   91.54000    4.74256
  250.00000    8.94000  102.60000    5.02434
  250.00000    9.46000   68.56000    4.10892
  250.00000    9.98000   71.27000    4.27393
  250.00000   10.50000   48.02000    2.82426
  250.00000   10.98000   36.69000    2.63012
  250.00000   11.26000   26.41000    2.16712
  250.00000   11.50000   23.29000    2.40035
  250.00000   11.58000   26.94000    0.80213
  250.00000   11.90000   27.33000    2.81624
  250.00000   12.02000   23.74000    0.69854
  250.00000   12.18000   29.52000    0.86376
  250.00000   12.50000   36.17000    3.69321
  250.00000   12.54000   39.18000    1.10542
  250.00000   12.82000   36.99000    0.94290
  250.00000   13.10000   35.54000    0.89656
  250.00000   13.42000   34.84000    3.03888
  250.00000   13.70000   31.17000    0.80305
  250.00000   14.02000   27.82000    0.72447
  250.00000   14.34000   21.23000    0.58492
  250.00000   14.62000   15.40000    0.44957
  250.00000   14.94000   12.75000    0.42673
  250.00000   15.06000   11.37000    1.92588
  250.00000   15.26000   10.42000    0.40945
  250.00000   15.34000   10.20000    1.39402
  250.00000   15.54000   10.16000    1.77697
  250.00000   15.66000   12.79000    0.61173
  250.00000   15.86000   10.96000    0.19596
  250.00000   15.98000   11.93000    0.57848
  250.00000   16.18000   12.10000    0.21465
  250.00000   16.26000   12.12000    0.56617
  250.00000   16.46000   14.67000    0.25781
  250.00000   16.58000   14.64000    0.65073
  250.00000   16.78000   15.62000    0.27251
  250.00000   16.90000   16.04000    0.64851
  250.00000   17.10000   15.60000    0.24778
  250.00000   17.18000   15.43000    0.60467
  250.00000   17.38000   13.21000    0.20058
  250.00000   17.50000   12.98000    0.50892
  250.00000   17.70000   13.08000    0.20256
  250.00000   17.78000   11.99000    0.51153
  250.00000   17.98000   11.56000    0.18073
  250.00000   18.10000   10.90000    0.46767
  250.00000   18.30000   10.45000    0.16921
  250.00000   18.42000   10.32000    0.14919
  250.00000   18.62000    9.64200    0.16261
  250.00000   18.70000    8.94200    0.42984
  250.00000   18.90000    7.87400    0.14351
  250.00000   19.02000    7.56800    0.40750
  250.00000   19.22000    6.14600    0.12535
  250.00000   19.34000    6.01200    0.35902
  250.00000   19.62000    5.74200    0.36030
  250.00000   19.94000    6.29800    0.44913
  250.00000   20.26000    6.79700    0.55195
  250.00000   20.54000    6.97700    0.49827
  250.00000   20.86000    7.46500    0.49514
  250.00000   21.18000    7.43200    0.59314
  250.00000   21.46000    6.55700    0.54003
  250.00000   21.78000    6.22200    0.14880
  250.00000   22.06000    5.47100    0.13081
  250.00000   22.38000    4.66600    0.10104
  250.00000   22.70000    4.29500    0.11275
  250.00000   22.98000    3.64700    0.10356
  250.00000   23.30000    2.98100    0.08827
  250.00000   23.62000    2.77300    0.08986
  250.00000   23.90000    2.62500    0.09684
  250.00000   24.22000    2.57500    0.09724
  250.00000   24.54000    2.40100    0.03726
  250.00000   24.62000    2.43600    0.03414
  250.00000   24.94000    2.54900    0.03377
  250.00000   25.26000    2.64100    0.03416
  250.00000   25.54000    2.63000    0.03342
  250.00000   25.86000    2.49100    0.03173
  250.00000   26.18000    2.36700    0.03100
  250.00000   26.46000    2.18400    0.02940
  250.00000   26.78000    1.95300    0.02734
  250.00000   27.10000    1.76800    0.02619
  250.00000   27.38000    1.61000    0.02507
  250.00000   27.70000    1.55600    0.02539
  250.00000   28.02000    1.42200    0.02362
  250.00000   28.30000    1.36600    0.02374
  250.00000   28.62000    1.35300    0.02400
  250.00000   28.90000    1.29900    0.02319
  250.00000   29.22000    1.23800    0.02254
  250.00000   29.54000    1.20200    0.02243
  250.00000   29.82000    1.18500    0.02245
  250.00000   30.14000    1.09800    0.02094
  250.00000   30.46000    1.02100    0.02025
  250.00000   30.74000    0.94950    0.01954
  250.00000   31.06000    0.90590    0.01934
  250.00000   31.38000    0.77380    0.01692
  250.00000   31.66000    0.73370    0.01737
  250.00000   31.98000    0.67920    0.01961
  250.00000   32.30000    0.66980    0.01694
  250.00000   32.58000    0.59200    0.01303
  250.00000   32.90000    0.56550    0.01256
  250.00000   33.18000    0.53040    0.01173
  250.00000   33.50000    0.47700    0.01035
  250.00000   33.82000    0.45360    0.01007
  250.00000   34.02000    0.43690    0.00954
  250.00000   34.10000    0.42570    0.00928
  250.00000   34.34000    0.41470    0.00885
  250.00000   34.62000    0.38720    0.00849
  250.00000   34.94000    0.39640    0.00900
  250.00000   35.26000    0.34920    0.00784
  250.00000   35.54000    0.32220    0.00771
  250.00000   35.86000    0.31950    0.00796
  250.00000   36.18000    0.31840    0.00797
  250.00000   36.46000    0.28480    0.00714
  250.00000   36.78000    0.25720    0.00683
  250.00000   37.10000    0.25230    0.00223
  250.00000   37.38000    0.22880    0.00646
  250.00000   37.70000    0.22160    0.00657
  250.00000   37.98000    0.21380    0.00644
  250.00000   38.30000    0.20070    0.00616
  250.00000   38.62000    0.19340    0.00613
  250.00000   38.90000    0.18730    0.00605
  250.00000   39.22000    0.18460    0.00607
  250.00000   39.54000    0.17800    0.00590
  250.00000   39.82000    0.16220    0.00547
  250.00000   40.14000    0.14600    0.00516
  250.00000   40.46000    0.15620    0.00583
  250.00000   40.74000    0.14050    0.00507
  250.00000   41.06000    0.13640    0.00519
  250.00000   41.38000    0.12830    0.00496
  250.00000   41.66000    0.11180    0.00446
  250.00000   41.98000    0.09794    0.00377
  250.00000   42.30000    0.09665    0.00370
  250.00000   42.58000    0.08691    0.00332
  250.00000   42.90000    0.07913    0.00329
  250.00000   43.18000    0.07026    0.00275
  250.00000   43.19000    0.06965    0.00273
  250.00000   43.58000    0.06913    0.00288
  250.00000   43.98000    0.06164    0.00246
  250.00000   44.42000    0.06733    0.00280
  250.00000   44.82000    0.06540    0.00261
  250.00000   45.22000    0.05492    0.00222
  250.00000   45.62000    0.06013    0.00266
  250.00000   46.02000    0.05175    0.00219
  250.00000   46.46000    0.05176    0.00236
  250.00000   46.86000    0.04985    0.00227
  250.00000   47.26000    0.04656    0.00217
  250.00000   47.66000    0.04109    0.00198
  250.00000   48.06000    0.03996    0.00205
  250.00000   48.50000    0.03774    0.00197
  250.00000   48.90000    0.03528    0.00189
  250.00000   49.30000    0.03228    0.00179
  250.00000   49.70000    0.02631    0.00153
  250.00000   50.14000    0.02459    0.00158
  250.00000   50.54000    0.02393    0.00160
  250.00000   50.74000    0.02494    0.00168
  250.00000   51.26000    0.02256    0.00148
  250.00000   51.78000    0.02275    0.00157
  250.00000   52.30000    0.02126    0.00146
  250.00000   52.78000    0.01847    0.00132
  250.00000   53.30000    0.01633    0.00125
  250.00000   53.82000    0.01412    0.00115
  250.00000   54.34000    0.01553    0.00136
  250.00000   54.82000    0.01413    0.00118
  250.00000   55.34000    0.01548    0.00136
  250.00000   55.86000    0.01217    0.00102
  250.00000   56.38000    0.01094    0.00104
  250.00000   56.86000    0.01029    0.00103
  250.00000   57.38000    0.00795    0.00082
  250.00000   57.90000    0.00800    0.00094
  250.00000   58.42000    0.00634    0.00043
  250.00000   58.94000    0.00586    0.00040
  250.00000   59.70000    0.00563    0.00040
  250.00000   60.34000    0.00519    0.00036
  250.00000   60.94000    0.00482    0.00035
  250.00000   61.54000    0.00534    0.00040
  250.00000   62.18000    0.00478    0.00034
  250.00000   62.78000    0.00449    0.00035
  250.00000   63.38000    0.00466    0.00036
  250.00000   64.02000    0.00419    0.00032
  250.00000   64.62000    0.00339    0.00027
  250.00000   65.22000    0.00445    0.00040
  250.00000   65.86000    0.00359    0.00028
  250.00000   66.46000    0.00375    0.00033
  250.00000   67.06000    0.00308    0.00026
  250.00000   67.70000    0.00266    0.00025
  250.00000   68.30000    0.00239    0.00024
  250.00000   68.94000    0.00235    0.00026
  250.00000   69.74000    0.00243    0.00022
  250.00000   70.58000    0.00358    0.00034
  250.00000   71.38000    0.00218    0.00021
  250.00000   72.22000    0.00219    0.00021
  250.00000   73.02000    0.00210    0.00020
  250.00000   73.86000    0.00167    0.00019
  250.00000   74.66000    0.00141    0.00017
  250.00000   75.50000    0.00148    0.00018
  250.00000   76.30000    0.00142    0.00017
  250.00000   77.30000    0.00106    0.00012
  250.00000   78.34000    0.00090    0.00010
  250.00000   79.38000    0.00083    0.00010
  250.00000   80.38000    0.00065    0.00008
  250.00000   81.42000    0.00069    0.00010
  250.00000   82.46000    0.00069    0.00010
  250.00000   83.46000    0.00096    0.00014
  250.00000   84.50000    0.00092    0.00011
  350.00000   10.66000   55.93000    1.67790
  350.00000   11.06000   55.39000    1.66170
  350.00000   11.48000   49.89000    1.49670
  350.00000   11.88000   42.22000    1.26660
  350.00000   12.28000   32.74000    0.98220
  350.00000   12.68000   27.04000    0.81120
  350.00000   13.10000   20.62000    0.61860
  350.00000   13.50000   18.18000    0.54540
  350.00000   13.90000   20.26800    0.60804
  350.00000   14.32000   18.77000    0.56310
  350.00000   14.72000   17.67400    0.53022
  350.00000   15.12000   15.12400    0.45372
  350.00000   15.54000   12.79800    0.38394
  350.00000   15.94000    9.86400    0.29592
  350.00000   16.34000    8.17200    0.24516
  350.00000   16.74000    7.79400    0.23382
  350.00000   17.04000    7.09850    0.21296
  350.00000   17.52000    6.94240    0.20827
  350.00000   18.00000    6.32620    0.18979
  350.00000   18.48000    5.65270    0.16958
  350.00000   18.96000    4.93870    0.14816
  350.00000   19.44000    4.29440    0.12883
  350.00000   19.92000    3.32430    0.09973
  350.00000   20.40000    2.93880    0.08816
  350.00000   20.86000    2.60450    0.07814
  350.00000   21.34000    2.45870    0.07376
  350.00000   21.82000    2.24930    0.06748
  350.00000   22.30000    2.10250    0.06308
  350.00000   22.78000    1.72990    0.05190
  350.00000   23.26000    1.39160    0.04175
  350.00000   23.72000    1.20580    0.03617
  350.00000   24.20000    1.00440    0.03013
  350.00000   24.68000    0.91190    0.02736
  350.00000   25.16000    0.84910    0.02547
  350.00000   25.64000    0.80510    0.02415
  350.00000   26.12000    0.71180    0.02135
  350.00000   26.60000    0.61790    0.01854
  350.00000   27.56000    0.52310    0.01569
  350.00000   28.04000    0.43940    0.01318
  350.00000   28.50000    0.38970    0.01169
  350.00000   28.98000    0.35150    0.01055
  350.00000   29.46000    0.32160    0.00965
  350.00000   29.94000    0.28030    0.00841
  350.00000   30.42000    0.26060    0.00782
  350.00000   30.90000    0.20390    0.00612
  350.00000   31.38000    0.18440    0.00553
  350.00000   31.84000    0.17290    0.00519
  350.00000   32.32000    0.14110    0.00423
  350.00000   32.80000    0.12350    0.00371
  350.00000   33.28000    0.10560    0.00317
  350.00000   33.60000    0.10180    0.00305
  350.00000   34.20000    0.09430    0.00283
  350.00000   34.80000    0.07530    0.00248
  350.00000   35.40000    0.06430    0.00225
  350.00000   36.00000    0.05280    0.00206
  350.00000   36.60000    0.04430    0.00190
  350.00000   37.20000    0.03870    0.00178
  350.00000   38.00000    0.04030    0.00121
  350.00000   38.60000    0.03430    0.00103
  350.00000   39.20000    0.03070    0.00092
  350.00000   39.80000    0.02630    0.00079
  350.00000   40.40000    0.02320    0.00070
  350.00000   41.00000    0.01940    0.00058
  350.00000   41.60000    0.01590    0.00049
  350.00000   42.20000    0.01450    0.00048
  350.00000   42.80000    0.01200    0.00043
  350.00000   43.40000    0.01070    0.00041
  350.00000   44.00000    0.00880    0.00037
  350.00000   44.70000    0.00910    0.00030
  350.00000   45.70000    0.00840    0.00029
  350.00000   46.70000    0.00660    0.00026
  350.00000   47.70000    0.00630    0.00025
  350.00000   48.70000    0.00540    0.00024
  350.00000   49.70000    0.00430    0.00021
  350.00000   50.70000    0.00340    0.00018
  350.00000   51.80000    0.00270    0.00017
  350.00000   52.80000    0.00180    0.00014
  350.00000   54.80000    0.00160    0.00013
  350.00000   55.80000    0.00150    0.00013
  350.00000   56.80000    0.00120    0.00012
  350.00000   57.80000    0.00095    0.00011
  350.00000   58.80000    0.00070    0.00009
  350.00000   59.80000    0.00060    0.00007
  350.00000   61.90000    0.00064    0.00009
  350.00000   63.90000    0.00047    0.00007
  350.00000   65.90000    0.00019    0.00003
  350.00000   68.00000    0.00014    0.00003
  350.00000   70.00000    0.00013    0.00003
  350.00000   72.00000    0.00013    0.00003
  350.00000   74.10000    0.00007    0.00002
  480.00000    8.18000   35.28000    0.43536
  480.00000    8.48000   39.46000    0.43643
  480.00000    8.78000   39.20000    0.42610
  480.00000    9.09000   39.20000    0.41866
  480.00000    9.39000   36.07000    0.39821
  480.00000    9.70000   32.13000    0.37913
  480.00000   10.01000   28.72000    0.35383
  480.00000   10.31000   23.47000    0.32928
  480.00000   10.62000   20.88000    0.30506
  480.00000   10.92000   15.25000    0.26901
  480.00000   11.23000   11.77000    0.25070
  480.00000   11.53000    9.52700    0.23103
  480.00000   11.84000    8.85600    0.22972
  480.00000   12.14000    9.10600    0.22273
  480.00000   12.44000    8.98900    0.21538
  480.00000   12.75000    8.83000    0.20733
  480.00000   13.05000    7.91400    0.19152
  480.00000   13.35000    6.75800    0.17976
  480.00000   13.66000    6.16300    0.17047
  480.00000   13.97000    5.36600    0.15531
  480.00000   14.27000    4.48400    0.14595
  480.00000   14.58000    4.32700    0.13825
  480.00000   14.88000    4.13000    0.13443
  480.00000   15.19000    3.83600    0.12824
  480.00000   15.49000    3.81200    0.12724
  480.00000   15.79000    3.78300    0.11648
  480.00000   16.10000    3.53200    0.11094
  480.00000   16.40000    3.12300    0.10768
  480.00000   16.70000    3.13200    0.10085
  480.00000   17.00000    2.42300    0.09212
  480.00000   17.01000    2.39500    0.03075
  480.00000   17.32000    2.22400    0.08518
  480.00000   17.52000    2.11100    0.02915
  480.00000   17.62000    1.96400    0.07986
  480.00000   17.93000    1.73500    0.07513
  480.00000   18.03000    1.65800    0.02628
  480.00000   18.53000    1.46300    0.02472
  480.00000   19.03000    1.46100    0.02434
  480.00000   19.55000    1.28600    0.02284
  480.00000   20.06000    1.19900    0.02191
  480.00000   20.56000    0.95930    0.01980
  480.00000   21.07000    0.75970    0.01781
  480.00000   21.58000    0.66210    0.01660
  480.00000   22.09000    0.62070    0.01588
  480.00000   22.59000    0.57430    0.01512
  480.00000   23.10000    0.52540    0.01432
  480.00000   23.61000    0.40380    0.01264
  480.00000   24.12000    0.35310    0.01173
  480.00000   24.62000    0.26490    0.00680
  480.00000   25.13000    0.22770    0.00584
  480.00000   25.64000    0.22230    0.00734
  480.00000   26.14000    0.19200    0.00687
  480.00000   26.64000    0.18020    0.00665
  480.00000   27.15000    0.14530    0.00604
  480.00000   27.66000    0.11950    0.00554
  480.00000   28.17000    0.11070    0.00532
  480.00000   28.67000    0.09776    0.00502
  480.00000   29.18000    0.08542    0.00470
  480.00000   29.69000    0.06129    0.00409
  480.00000   30.19000    0.05510    0.00387
  480.00000   30.70000    0.04936    0.00366
  480.00000   31.21000    0.05348    0.00371
  480.00000   31.72000    0.04804    0.00350
  480.00000   32.22000    0.03402    0.00298
  480.00000   32.23000    0.03323    0.00114
  480.00000   32.64000    0.03241    0.00112
  480.00000   32.73000    0.02996    0.00278
  480.00000   33.04000    0.02699    0.00103
  480.00000   33.45000    0.02671    0.00102
  480.00000   33.86000    0.02241    0.00094
  480.00000   34.26000    0.02111    0.00091
  480.00000   34.67000    0.02046    0.00089
  480.00000   35.07000    0.01971    0.00088
  480.00000   35.48000    0.01726    0.00082
  480.00000   35.88000    0.01673    0.00081
  480.00000   36.19000    0.01455    0.00076
  480.00000   36.70000    0.01335    0.00073
  480.00000   37.10000    0.01112    0.00066
  480.00000   37.50000    0.01058    0.00065
  480.00000   37.91000    0.00842    0.00058
  480.00000   38.32000    0.00851    0.00058
  480.00000   38.72000    0.00706    0.00053
  480.00000   39.13000    0.00568    0.00047
  480.00000   39.54000    0.00531    0.00042
  480.00000   39.94000    0.00386    0.00039
  480.00000   40.35000    0.00327    0.00036
  480.00000   40.75000    0.00260    0.00032
  480.00000   40.85000    0.00229    0.00019
  480.00000   41.16000    0.00196    0.00028
  480.00000   41.36000    0.00180    0.00017
  480.00000   41.56000    0.00152    0.00025
  480.00000   41.86000    0.00143    0.00014
  480.00000   41.97000    0.00153    0.00025
  480.00000   42.38000    0.00105    0.00010
  480.00000   42.88000    0.00101    0.00012
  480.00000   43.39000    0.00106    0.00012
  480.00000   43.90000    0.00085    0.00011
  480.00000   44.40000    0.00063    0.00007
  480.00000   44.91000    0.00065    0.00008
  480.00000   45.42000    0.00065    0.00008
  480.00000   45.92000    0.00051    0.00007
  480.00000   46.43000    0.00041    0.00006
  480.00000   46.94000    0.00044    0.00006
  480.00000   47.45000    0.00038    0.00006
  480.00000   47.95000    0.00033    0.00006
  480.00000   48.46000    0.00017    0.00004
  480.00000   48.97000    0.00019    0.00004
  480.00000   49.47000    0.00014    0.00004
  480.00000   49.98000    0.00013    0.00003
  480.00000   50.49000    0.00008    0.00003
  704.00000    5.09000  826.00000   10.02855
  704.00000    5.29200  801.10000    9.87732
  704.00000    5.49600  724.40000    9.39351
  704.00000    5.69800  617.40000    8.67342
  704.00000    5.90200  550.20000    8.18824
  704.00000    6.10600  478.00000    7.63313
  704.00000    6.31000  386.90000    6.86798
  704.00000    6.51200  317.70000    6.22403
  704.00000    6.51200  338.70000    4.31124
  704.00000    6.71600  280.20000    3.92165
  704.00000    6.71600  246.60000    5.48406
  704.00000    6.91800  196.80000    4.89938
  704.00000    6.91800  237.60000    3.61121
  704.00000    7.12200  207.40000    3.37471
  704.00000    7.12200  181.50000    4.70595
  704.00000    7.32600  177.20000    4.64950
  704.00000    7.32600  197.00000    3.28927
  704.00000    7.53000  196.80000    3.28778
  704.00000    7.53000  190.50000    4.82163
  704.00000    7.73200  167.40000    4.52020
  704.00000    7.73200  186.70000    3.20235
  704.00000    7.93600  183.30000    3.17311
  704.00000    7.93600  187.70000    4.78693
  704.00000    8.13800  178.30000    4.66552
  704.00000    8.13800  169.60000    3.05251
  704.00000    8.34200  150.10000    2.87224
  704.00000    8.34200  164.90000    4.48802
  704.00000    8.54600  134.60000    4.05558
  704.00000    8.54600  131.10000    2.68391
  704.00000    8.74800  114.30000    2.50620
  704.00000    8.74800  105.90000    3.59759
  704.00000    8.95200   76.50000    3.05755
  704.00000    8.95200   90.77000    2.23392
  704.00000    9.15400   72.69000    1.99921
  704.00000    9.15400   61.12000    2.73337
  704.00000    9.35800   58.56000    2.67568
  704.00000    9.35800   59.89000    1.81485
  704.00000    9.56200   58.58000    1.79504
  704.00000    9.56200   60.84000    2.72768
  704.00000    9.76600   58.77000    2.68108
  704.00000    9.76600   57.65000    1.78081
  704.00000    9.96800   51.23000    1.67900
  704.00000    9.96800   55.05000    2.59508
  704.00000   10.17000   52.62000    2.53756
  704.00000   10.17000   51.13000    1.67752
  704.00000   10.37400   50.64000    1.66955
  704.00000   10.37400   47.43000    2.40945
  704.00000   10.57800   51.91000    2.52097
  704.00000   10.57800   47.18000    1.61164
  704.00000   10.78000   48.51000    1.63435
  704.00000   10.78000   55.59000    2.60897
  704.00000   10.98400   52.18000    2.52813
  704.00000   10.98400   46.32000    1.59724
  704.00000   11.18800   36.85000    1.42470
  704.00000   11.39000   32.95000    1.34742
  704.00000   11.59400   31.97000    1.32748
  704.00000   11.79800   25.58000    1.18752
  704.00000   12.00200   22.83000    1.12203
  704.00000   12.20400   18.97000    1.02279
  704.00000   12.40600   16.99000    0.96810
  704.00000   12.61000   15.78000    0.93309
  704.00000   12.61000   15.64000    0.15878
  704.00000   12.81400   14.65000    0.15365
  704.00000   13.01600   13.99000    0.15015
  704.00000   13.22000   12.53000    0.14216
  704.00000   13.42400   11.41000    0.13569
  704.00000   13.62600   10.15000    0.12801
  704.00000   13.83000    9.44900    0.12353
  704.00000   14.03400    8.15700    0.11479
  704.00000   14.23600    7.67200    0.11136
  704.00000   14.44000    6.69900    0.10408
  704.00000   14.64400    6.29000    0.10087
  704.00000   14.84600    5.32700    0.09285
  704.00000   15.05000    5.15900    0.09139
  704.00000   15.25200    4.78300    0.08802
  704.00000   15.45600    4.35700    0.08402
  704.00000   15.65800    4.21100    0.08262
  704.00000   15.86200    3.81800    0.07869
  704.00000   16.06400    3.59700    0.07639
  704.00000   16.26800    3.32400    0.07345
  704.00000   16.47200    3.24200    0.07255
  704.00000   16.67400    2.77200    0.06710
  704.00000   16.87800    2.57500    0.06468
  704.00000   17.08000    2.34900    0.06180
  704.00000   17.28600    2.25500    0.06056
  704.00000   17.48800    2.02700    0.05742
  704.00000   17.69200    1.75200    0.05340
  704.00000   17.89400    1.67400    0.05222
  704.00000   18.09600    1.62400    0.05144
  704.00000   18.30000    1.38600    0.04753
  704.00000   18.50400    1.27400    0.04557
  704.00000   18.70600    1.33200    0.04661
  704.00000   18.70600    1.26800    0.02404
  704.00000   18.91000    1.27700    0.04566
  704.00000   19.01200    1.11000    0.02251
  704.00000   19.11400    1.21200    0.04448
  704.00000   19.31800    0.99180    0.04025
  704.00000   19.31800    0.96870    0.02103
  704.00000   19.52000    0.93770    0.03914
  704.00000   19.62200    0.84720    0.01967
  704.00000   19.72200    0.81610    0.03653
  704.00000   19.92600    0.77860    0.01886
  704.00000   19.92600    0.73010    0.03456
  704.00000   20.12800    0.62700    0.03203
  704.00000   20.23000    0.64990    0.01724
  704.00000   20.53600    0.58060    0.01630
  704.00000   20.84000    0.51140    0.01530
  704.00000   21.14400    0.47330    0.01472
  704.00000   21.45000    0.41590    0.01381
  704.00000   21.75400    0.37770    0.01316
  704.00000   22.06000    0.31570    0.01204
  704.00000   22.36400    0.29140    0.01157
  704.00000   22.66800    0.24100    0.01052
  704.00000   22.97200    0.22220    0.01011
  704.00000   23.27800    0.18270    0.00917
  704.00000   23.58400    0.16590    0.00874
  704.00000   23.88800    0.14950    0.00830
  704.00000   24.19200    0.09424    0.00659
  704.00000   24.49600    0.11490    0.00728
  704.00000   24.59800    0.09857    0.00189
  704.00000   24.80200    0.08824    0.00638
  704.00000   25.00400    0.07990    0.00167
  704.00000   25.10600    0.08111    0.00612
  704.00000   25.41000    0.06096    0.00146
  704.00000   25.41000    0.04894    0.00476
  704.00000   25.71600    0.04508    0.00457
  704.00000   25.81800    0.05096    0.00133
  704.00000   26.02000    0.04280    0.00445
  704.00000   26.22200    0.03710    0.00114
  704.00000   26.32600    0.04535    0.00458
  704.00000   26.63000    0.03318    0.00108
  704.00000   27.03600    0.02604    0.00095
  704.00000   27.44200    0.01867    0.00081
  704.00000   27.84800    0.01473    0.00072
  704.00000   28.25400    0.01190    0.00065
  704.00000   28.66000    0.00973    0.00058
  704.00000   29.06600    0.00830    0.00054
  704.00000   29.47400    0.00595    0.00046
  704.00000   29.87800    0.00409    0.00038
  704.00000   30.28400    0.00378    0.00036
  704.00000   30.69000    0.00261    0.00030
  704.00000   30.89400    0.00179    0.00007
  704.00000   31.09600    0.00156    0.00023
  704.00000   31.50400    0.00139    0.00007
  704.00000   31.50400    0.00138    0.00022
  704.00000   31.90800    0.00103    0.00019
  704.00000   32.11200    0.00129    0.00006
  704.00000   32.31400    0.00092    0.00018
  704.00000   32.72200    0.00084    0.00005
  704.00000   33.33000    0.00065    0.00004
  704.00000   33.94000    0.00037    0.00003
  704.00000   34.54800    0.00041    0.00004
  704.00000   35.15600    0.00020    0.00002
  704.00000   35.76600    0.00022    0.00003
  704.00000   36.37400    0.00016    0.00002
  704.00000   36.98200    0.00007    0.00002
  704.00000   37.59200    0.00013    0.00002
  704.00000   38.20000    0.00010    0.00002
 1120.00000    3.56400  336.50000   22.86000
 1120.00000    3.69500  273.30000   21.25000
 1120.00000    3.82600  273.30000   21.68000
 1120.00000    3.95700  319.50000   21.68000
 1120.00000    4.08800  265.90000   20.35000
 1120.00000    4.21800  255.20000   20.26000
 1120.00000    4.34900  243.50000   19.25000
 1120.00000    4.44700  232.60000    7.69000
 1120.00000    4.57800  209.70000    6.77600
 1120.00000    4.70900  186.30000    6.03500
 1120.00000    4.84000  155.90000    5.32500
 1120.00000    4.97100  147.60000    4.82900
 1120.00000    5.10100  116.00000    4.19900
 1120.00000    5.23200  100.50000    3.95600
 1120.00000    5.36300   84.95000    3.72700
 1120.00000    5.49400   77.99000    3.50700
 1120.00000    5.62400   63.41000    3.23800
 1120.00000    5.75500   42.97000    2.98400
 1120.00000    5.88600   57.70000    3.07200
 1120.00000    6.01700   67.39000    3.10300
 1120.00000    6.14700   58.36000    2.99900
 1120.00000    6.27800   55.78000    2.89100
 1120.00000    6.40900   59.96000    2.91700
 1120.00000    6.54000   54.14000    2.77900
 1120.00000    6.67000   53.17000    2.72000
 1120.00000    6.80100   50.62000    2.66600
 1120.00000    6.93200   42.01000    2.51700
 1120.00000    7.06300   40.11000    2.38200
 1120.00000    7.19400   39.87000    2.41800
 1120.00000    7.32400   32.66000    2.23200
 1120.00000    7.45500   25.93000    1.99600
 1120.00000    7.58600   30.09000    2.04600
 1120.00000    7.71700   24.90000    1.90600
 1120.00000    7.84700   22.27000    1.84300
 1120.00000    7.97800   19.63000    1.68800
 1120.00000    8.10900   18.17000    1.61300
 1120.00000    8.24000   17.89000    1.64800
 1120.00000    8.37000   18.40000    1.66400
 1120.00000    8.50100   19.80000    1.65900
 1120.00000    8.63200   16.64000    1.56300
 1120.00000    8.76300   18.14000    1.58300
 1120.00000    8.89300   16.77000    1.51500
 1120.00000    8.95700   15.81000    0.45730
 1120.00000    9.08800   15.20000    0.44180
 1120.00000    9.21900   14.18000    0.43050
 1120.00000    9.34900   13.09000    0.41210
 1120.00000    9.48000   11.03000    0.38320
 1120.00000    9.61100    9.63900    0.36050
 1120.00000    9.74200    9.09500    0.35030
 1120.00000    9.87200    8.10700    0.33460
 1120.00000   10.00300    7.21400    0.32020
 1120.00000   10.13400    6.65800    0.31030
 1120.00000   10.26500    7.03800    0.30580
 1120.00000   10.39500    6.38500    0.29300
 1120.00000   10.52600    5.84700    0.28360
 1120.00000   10.65700    6.10100    0.28400
 1120.00000   10.78800    5.49400    0.27770
 1120.00000   10.91800    5.28400    0.26470
 1120.00000   11.04900    5.00500    0.25610
 1120.00000   11.18000    4.75600    0.25460
 1120.00000   11.31000    3.98200    0.23270
 1120.00000   11.44100    4.69200    0.24730
 1120.00000   11.57200    4.09200    0.23350
 1120.00000   11.70300    3.41500    0.21950
 1120.00000   11.83300    2.99900    0.20840
 1120.00000   11.96400    2.45600    0.19370
 1120.00000   12.09500    2.75800    0.19230
 1120.00000   12.22600    2.19600    0.18250
 1120.00000   12.35600    1.79800    0.17030
 1120.00000   12.48700    1.77000    0.16900
 1120.00000   12.61800    1.58500    0.15620
 1120.00000   12.74900    1.75100    0.15630
 1120.00000   12.87900    1.29400    0.14500
 1120.00000   13.01000    1.27500    0.14210
 1120.00000   13.14100    1.24700    0.13600
 1120.00000   13.27100    1.26700    0.13390
 1120.00000   13.40200    1.08200    0.13040
 1120.00000   13.53300    1.10200    0.12450
 1120.00000   13.66400    0.99480    0.11900
 1120.00000   13.80200    0.89030    0.03527
 1120.00000   13.93300    0.80660    0.03365
 1120.00000   14.06400    0.73570    0.03256
 1120.00000   14.19500    0.66650    0.03054
 1120.00000   14.32500    0.59880    0.02985
 1120.00000   14.45600    0.55370    0.02827
 1120.00000   14.58700    0.53680    0.02751
 1120.00000   14.71700    0.43670    0.02613
 1120.00000   14.84800    0.39960    0.02513
 1120.00000   14.97900    0.36980    0.02411
 1120.00000   15.11000    0.31160    0.02218
 1120.00000   15.24000    0.24130    0.02103
 1120.00000   15.37100    0.27210    0.02045
 1120.00000   15.43600    0.26970    0.01347
 1120.00000   15.50200    0.25350    0.01959
 1120.00000   15.69800    0.21960    0.01216
 1120.00000   15.95900    0.17630    0.01105
 1120.00000   16.22100    0.13470    0.00995
 1120.00000   16.48200    0.10270    0.00871
 1120.00000   16.74300    0.06090    0.00774
 1120.00000   17.00500    0.04956    0.00691
 1120.00000   17.26600    0.06137    0.00653
 1120.00000   17.52700    0.03904    0.00565
 1120.00000   17.78900    0.02970    0.00503
ENDDATA            668
ENDSUBENT          679
ENDENTRY             3
