ENTRY            O1808   20091225   20100809   20100806       O041
SUBENT        O1808001   20091225   20100809   20100806       O041
BIB                 14         34
TITLE      Studies of single-neutron holes in the transitional
           nuclei N=83-89-The Ce-142(d,t)Ce-141 and
           Ce-142(He3,a)Ce-141 pick-up reactions.
AUTHOR     (J.R.Lien, G.Loevhoeiden, K.Aareskjold, S.El-Kazzaz,
           C.Ellegaard, K.Heyde, M.Waroquier, P.Van Isacker,
           H.Vincx, J.Rekstad, P.Kleinheinz)
INSTITUTE  (2NORBGN)
           (2DENNBI)
           (2BLGGHT)
           (2NOROSL)
           (2GERJUL)
REFERENCE  (J,NP/A,324,141,1979)
FACILITY   (VDGT,2DENNBI)
DETECTOR   (MAGSP) the Elbek-type multiangle spectrograph.
           (PLATE) The reaction products were detected in Ilford
           K-0 nuclear emulsions for the tritons and Ilford
           K-1 nuclear emulsions for the alpha-particles.
           (SI) as monitor detector
MONITOR    Cross section normalization was obtained through
           comparison of the measured yield of elastically
           scattered particles to the elastic scattering cross
           section calculated from the DWBA.
SAMPLE     The target thickness was approx. 50 mug/cm**2, the
           isotopic composition being 87% Ce-142 and 13% Ce-140.
INC-SOURCE *EN-RSL-FW*.Energy resolution.
ERR-ANALYS The uncertainties in the relative cross sections are
           generally smaller and of statistical nature only.
           (ANG-ERR-D) Angle digitizing error
           (ERR-DIG) Data digitizing error
           (ERR-S).Statistical  uncertainties.
EN-SEC     (E-LVL,58-CE-141)
METHOD     (BCINT)
STATUS     (CURVE).By CAJAD.
HISTORY    (20091223C) SB
ENDBIB              34
COMMON               2          3
ANG-ERR-D  ERR-DIG
ADEG       PER-CENT
0.4        1.2
ENDCOMMON            3
ENDSUBENT           41
SUBENT        O1808002   20091225   20100809   20100806       O041
BIB                  2          4
REACTION   (58-CE-142(D,T)58-CE-141,PAR,DA) fig.3
ERR-ANALYS (E-LVL-ERR).The uncertainty in the excitation energies
           ranged from +-3 keV for the lowest levels to +-9 keV
           for the highest energy levels.
ENDBIB               4
COMMON               3          3
EN         EN-RSL-FW  E-LVL-ERR
MEV        KEV        KEV
17.        15.        9.
ENDCOMMON            3
DATA                 4        264
E-LVL      ANG-CM     DATA-CM    ERR-S
MEV        ADEG       MB/SR      PER-CENT
    0.00000    8.70000    0.79400
    0.00000   13.80000    1.28500
    0.00000   18.70000    2.23000
    0.00000   24.20000    2.20000
    0.00000   28.90000    1.43200
    0.00000   33.90000    1.05200
    0.00000   38.70000    1.17300
    0.00000   44.10000    1.08900
    0.00000   48.90000    0.60100
    0.00000   53.50000    0.53500
    0.66100    8.10000    1.75600
    0.66100   13.00000    1.20300
    0.66100   18.10000    0.43100
    0.66100   22.50000    0.75400
    0.66100   27.80000    0.87300
    0.66100   33.10000    0.53800
    0.66100   37.00000    0.49700
    0.66100   42.50000    0.46200
    0.66100   47.40000    0.40500
    0.66100   52.70000    0.24100
    1.13900    8.40000    0.44000
    1.13900   13.10000    0.31800
    1.13900   18.10000    0.14730
    1.13900   23.10000    0.21350
    1.13900   28.50000    0.25220
    1.13900   33.20000    0.16020
    1.13900   38.00000    0.12070
    1.13900   42.80000    0.13440
    1.13900   47.90000    0.07600    8.00000
    1.13900   53.10000    0.07000    6.00000
    1.36100    7.50000    0.00860   19.00000
    1.36100   18.20000    0.00680   24.00000
    1.36100   22.40000    0.01390   18.00000
    1.36100   27.40000    0.02320   10.00000
    1.36100   32.60000    0.02340   11.00000
    1.36100   37.90000    0.01440   19.00000
    1.36100   43.00000    0.00960   18.00000
    1.36100   47.60000    0.01380   17.00000
    1.36100   53.00000    0.00520   30.00000
    1.38000    8.70000    0.04400    9.00000
    1.38000   13.10000    0.02700   15.00000
    1.38000   18.30000    0.01630   15.00000
    1.38000   23.20000    0.02330   10.00000
    1.38000   27.90000    0.04400    9.00000
    1.38000   32.70000    0.05600   11.00000
    1.38000   38.60000    0.07200    6.00000
    1.38000   43.00000    0.04500   11.00000
    1.38000   48.40000    0.01220   14.00000
    1.38000   53.20000    0.02600   12.00000
    1.49800    7.20000    0.07500    7.00000
    1.49800   12.50000    0.04900    8.00000
    1.49800   17.00000    0.10500    7.00000
    1.49800   22.10000    0.12100    6.00000
    1.49800   27.10000    0.06900    9.00000
    1.49800   32.70000    0.06000    8.00000
    1.49800   37.50000    0.06100    7.00000
    1.49800   42.60000    0.06700    6.00000
    1.49800   48.20000    0.04200   10.00000
    1.49800   52.90000    0.03200    9.00000
    1.62600    8.40000    1.60900
    1.62600   13.10000    2.13200
    1.62600   17.50000    3.32000
    1.62600   23.00000    2.67000
    1.62600   27.60000    1.89600
    1.62600   33.00000    2.35900
    1.62600   38.10000    2.35100
    1.62600   42.70000    1.61200
    1.62600   47.80000    1.14500
    1.62600   52.90000    1.25800
    1.73800   13.50000    0.00860   21.00000
    1.73800   19.00000    0.01720   13.00000
    1.73800   24.10000    0.02700   11.00000
    1.73800   28.60000    0.01890   14.00000
    1.73800   33.90000    0.00960   18.00000
    1.73800   38.80000    0.01130   13.00000
    1.73800   44.00000    0.01550   13.00000
    1.73800   48.30000    0.00340   24.00000
    1.73800   53.60000    0.00790   20.00000
    1.73800   71.80000    0.00172   10.00000
    1.78500    7.50000    6.09000
    1.78500   12.90000    1.20400
    1.78500   17.80000    3.42000
    1.78500   22.30000    4.28000
    1.78500   28.00000    2.15100
    1.78500   32.60000    1.74400
    1.78500   37.70000    2.65000
    1.78500   42.40000    2.32000    6.00000
    1.78500   48.10000    1.39900
    1.91500    7.90000    0.03100   13.00000
    1.91500   12.90000    0.03000   13.00000
    1.91500   17.80000    0.02800   11.00000
    1.91500   23.00000    0.04600    9.00000
    1.91500   27.60000    0.06400    8.00000
    1.91500   33.40000    0.10900    6.00000
    1.91500   38.00000    0.10500    7.00000
    1.91500   43.30000    0.09800    5.00000
    1.91500   48.10000    0.07800    6.00000
    1.91500   53.00000    0.06900    4.00000
    1.94200    8.90000    0.35600    1.10000
    1.94200   13.40000    0.07600    5.00000
    1.94200   18.40000    0.24100    4.00000
    1.94200   23.90000    0.26300    3.00000
    1.94200   28.30000    0.15700    4.00000
    1.94200   33.70000    0.12700    5.00000
    1.94200   38.50000    0.15400    5.00000
    1.94200   43.70000    0.15300    5.00000
    1.94200   48.70000    0.10200    5.00000
    1.94200   52.90000    0.07300    5.00000
    2.16500    7.20000    0.09100    7.00000
    2.16500   12.20000    0.06900    7.00000
    2.16500   17.00000    0.10900    5.00000
    2.16500   22.00000    0.13900    4.00000
    2.16500   27.10000    0.17650
    2.16500   32.10000    0.24580
    2.16500   36.90000    0.27600
    2.16500   42.50000    0.21750
    2.16500   47.60000    0.16960
    2.16500   52.60000    0.16830
    2.20300   13.70000    0.01290   20.00000
    2.20300   18.70000    0.03000   13.00000
    2.20300   24.50000    0.04000   10.00000
    2.20300   29.50000    0.05400    9.00000
    2.20300   34.20000    0.04900    8.00000
    2.20300   39.10000    0.04600    9.00000
    2.20300   43.90000    0.04700   11.00000
    2.20300   48.80000    0.04200   12.00000
    2.20300   53.90000    0.03400   12.00000
    2.40300    6.60000    0.03700    8.00000
    2.40300   15.90000    0.06400    6.00000
    2.40300   21.20000    0.07100    7.00000
    2.40300   26.40000    0.04100   10.00000
    2.40300   31.10000    0.03300    9.00000
    2.40300   35.80000    0.02900   10.00000
    2.40300   41.30000    0.02700   11.00000
    2.40300   46.30000    0.01860   12.00000
    2.40300   51.40000    0.02700   15.00000
    2.45800    6.60000    0.15100    3.00000
    2.45800   11.60000    0.18800    4.00000
    2.45800   16.70000    0.25800    2.30000
    2.45800   20.90000    0.33600    4.00000
    2.45800   26.60000    0.22600    4.00000
    2.45800   31.30000    0.21200    4.00000
    2.45800   36.30000    0.23600    3.00000
    2.45800   41.60000    0.19300    5.00000
    2.45800   46.50000    0.11000    5.00000
    2.45800   51.50000    0.12200    7.00000
    2.54300   12.70000    0.00430   21.00000
    2.54300   17.50000    0.00780   22.00000
    2.54300   22.40000    0.00850   19.00000
    2.54300   27.70000    0.00340   24.00000
    2.54300   33.00000    0.00690   25.00000
    2.54300   37.30000    0.01480   16.00000
    2.54300   47.60000    0.00770   23.00000
    2.54300   52.40000    0.00880   19.00000
    2.64900   12.60000    0.01540   16.00000
    2.64900   18.00000    0.02410   11.00000
    2.64900   22.70000    0.02700   11.00000
    2.64900   27.20000    0.01580   15.00000
    2.64900   32.50000    0.02010   12.00000
    2.64900   37.30000    0.01480   19.00000
    2.64900   42.80000    0.01740   14.00000
    2.64900   47.70000    0.01400   18.00000
    2.64900   52.40000    0.00880   19.00000
    2.84100    7.00000    0.05600    7.00000
    2.84100   11.90000    0.01300   10.00000
    2.84100   17.20000    0.02430   11.00000
    2.84100   22.20000    0.02900   10.00000
    2.84100   32.40000    0.01320   11.00000
    2.84100   37.50000    0.02310   10.00000
    2.84100   42.50000    0.02700   11.00000
    2.84100   52.70000    0.01140    9.00000
    2.88600    8.00000    0.05400    9.00000
    2.88600   13.00000    0.06800    7.00000
    2.88600   17.80000    0.13400    7.00000
    2.88600   23.00000    0.12000    7.00000
    2.88600   27.60000    0.08700    7.00000
    2.88600   32.60000    0.08000    8.00000
    2.88600   37.60000    0.07500    8.00000
    2.88600   42.80000    0.06300   10.00000
    2.88600   52.50000    0.05600    9.00000
    2.98700    8.40000    0.94900
    2.98700   13.00000    0.26400
    2.98700   18.40000    0.55200
    2.98700   33.30000    0.39700
    2.98700   38.20000    0.51700
    2.98700   43.10000    0.43500
    2.98700   47.90000    0.28800
    2.98700   52.80000    0.21900    5.00000
    3.05500    8.60000    0.26200
    3.05500   14.10000    0.41200
    3.05500   19.40000    0.60700
    3.05500   24.20000    0.78800
    3.05500   29.00000    0.49600
    3.05500   34.30000    0.52800    4.00000
    3.05500   39.30000    0.60900    4.00000
    3.05500   44.20000    0.46400
    3.05500   49.10000    0.40800
    3.05500   54.10000    0.39000    6.00000
    3.07100    7.30000    0.11100    5.00000
    3.07100   11.90000    0.15920
    3.07100   16.30000    0.34000
    3.07100   21.70000    0.36500
    3.07100   26.20000    0.29500    5.00000
    3.07100   31.40000    0.30700    5.00000
    3.07100   36.70000    0.26900    6.00000
    3.07100   41.40000    0.24500    4.00000
    3.07100   46.70000    0.13500    4.00000
    3.07100   51.60000    0.21600    3.00000
    3.11400   17.30000    0.02190   13.00000
    3.11400   22.30000    0.02900   14.00000
    3.11400   27.00000    0.02700   11.00000
    3.11400   36.50000    0.06800    7.00000
    3.11400   41.80000    0.06200   10.00000
    3.11400   51.70000    0.05300    6.00000
    3.21000    8.10000    0.01890   13.00000
    3.21000   13.30000    0.03000   10.00000
    3.21000   23.10000    0.05200   10.00000
    3.21000   28.00000    0.03000   10.00000
    3.21000   33.40000    0.03170    8.00000
    3.21000   38.50000    0.04300   12.00000
    3.21000   43.40000    0.02800   14.00000
    3.21000   53.20000    0.02200   12.00000
    3.41300    7.30000    0.12200    6.00000
    3.41300   13.10000    0.03100   10.00000
    3.41300   14.70000    0.02110    6.00000
    3.41300   17.60000    0.07500    8.00000
    3.41300   22.30000    0.07600    7.00000
    3.41300   27.60000    0.04900    6.00000
    3.41300   32.10000    0.05400    7.00000
    3.41300   37.30000    0.05400    9.00000
    3.41300   42.50000    0.04600   11.00000
    3.41300   47.20000    0.02500   12.00000
    3.41300   52.40000    0.04100   10.00000
    3.60900   12.40000    0.01920   13.00000
    3.60900   17.40000    0.09500    5.00000
    3.60900   22.50000    0.03300    9.00000
    3.60900   27.50000    0.02010   12.00000
    3.60900   32.30000    0.02020   13.00000
    3.60900   37.30000    0.02180   12.00000
    3.60900   42.20000    0.02390   10.00000
    3.60900   52.30000    0.03100   10.00000
    3.66000   13.30000    0.01380   17.00000
    3.66000   18.60000    0.03200   13.00000
    3.66000   23.80000    0.04500    9.00000
    3.66000   28.40000    0.02410   11.00000
    3.66000   33.30000    0.01960   14.00000
    3.66000   38.00000    0.02800   11.00000
    3.66000   53.40000    0.01880   13.00000
    3.68600   11.20000    0.00770   22.00000
    3.68600   15.50000    0.04800   10.00000
    3.68600   20.20000    0.05600    7.00000
    3.68600   25.80000    0.02900   10.00000
    3.68600   30.60000    0.02900   10.00000
    3.68600   36.40000    0.03000   13.00000
    3.68600   40.80000    0.05200   10.00000
    3.68600   51.20000    0.02150   12.00000
    3.70400   12.60000    0.02700   11.00000
    3.70400   18.10000    0.04800   10.00000
    3.70400   22.50000    0.01400   19.00000
    3.70400   27.90000    0.03000   10.00000
    3.70400   32.90000    0.03200    9.00000
    3.70400   37.80000    0.03000   10.00000
    3.70400   42.90000    0.01150   15.00000
    3.70400   52.80000    0.03000   13.00000
ENDDATA            266
ENDSUBENT          279
SUBENT        O1808003   20091202   20100809   20100806       O041
BIB                  2          3
REACTION   (58-CE-142(HE3,A)58-CE-141,PAR,DA) fig.4
ERR-ANALYS (E-LVL-ERR).The estimated uncertainties in excitation
           energies .
ENDBIB               3
COMMON               3          3
EN         EN-RSL-FW  E-LVL-ERR
MEV        KEV        KEV
24.        30.        10.
ENDCOMMON            3
DATA                 4        204
E-LVL      ANG-CM     DATA-CM    ERR-S
MEV        ADEG       MB/SR      PER-CENT
    0.00000    7.40000    0.01740   11.00000
    0.00000   12.50000    0.01150   10.00000
    0.00000   17.10000    0.01030   12.00000
    0.00000   27.50000    0.02400   21.00000
    0.00000   32.10000    0.03410    7.00000
    0.00000   42.40000    0.02750    9.00000
    0.00000   47.60000    0.01960   12.00000
    0.00000   57.30000    0.01920   10.00000
    0.00000   62.20000    0.01830   10.00000
    0.00000   72.50000    0.01130   12.00000
    1.36400    7.80000    0.03800   11.00000
    1.36400   13.30000    0.04700    6.00000
    1.36400   27.90000    0.04400    7.00000
    1.36400   33.40000    0.05360    5.00000
    1.36400   38.60000    0.05200    6.00000
    1.36400   48.30000    0.03600    8.00000
    1.36400   57.80000    0.01780    7.00000
    1.36400   62.70000    0.01480   10.00000
    1.36400   72.50000    0.00770   14.00000
    1.62300    7.30000    0.01230   24.00000
    1.62300   12.10000    0.00770   17.00000
    1.62300   17.60000    0.01210   10.00000
    1.62300   33.10000    0.02360   10.00000
    1.62300   43.40000    0.04100    7.00000
    1.62300   48.40000    0.04690    5.00000
    1.62300   58.40000    0.04030    6.00000
    1.62300   63.40000    0.03700    8.00000
    1.62300   73.40000    0.02680    9.00000
    1.78100    7.50000    0.00150   27.00000
    1.78100   12.90000    0.00670   13.00000
    1.78100   17.90000    0.00180   40.00000
    1.78100   27.70000    0.00210   24.00000
    1.78100   33.20000    0.00450   18.00000
    1.78100   37.80000    0.00280   25.00000
    1.78100   43.20000    0.00860   12.00000
    1.78100   48.10000    0.00710   20.00000
    1.78100   57.90000    0.00840   15.00000
    1.78100   63.40000    0.01350   10.00000
    1.78100   73.40000    0.01170   14.00000
    1.91000    7.60000    0.04630    6.00000
    1.91000   12.20000    0.05610    5.00000
    1.91000   17.60000    0.04850
    1.91000   27.30000    0.05710
    1.91000   32.10000    0.07120
    1.91000   37.00000    0.04930    4.00000
    1.91000   47.00000    0.04740    5.00000
    1.91000   56.90000    0.02920    7.00000
    1.91000   62.40000    0.02520    8.00000
    1.91000   72.00000    0.00900   12.00000
    2.04400    7.50000    0.03100   10.00000
    2.04400   12.60000    0.03100   10.00000
    2.04400   17.50000    0.02910    7.00000
    2.04400   27.50000    0.03250    7.00000
    2.04400   32.40000    0.04300    6.00000
    2.04400   37.60000    0.04200   10.00000
    2.04400   42.40000    0.04700    6.00000
    2.04400   47.30000    0.03090    9.00000
    2.04400   57.60000    0.01860    6.00000
    2.04400   62.50000    0.01900    7.00000
    2.04400   73.10000    0.01190   12.00000
    2.16300   12.80000    0.13470
    2.16300   17.80000    0.12600    5.00000
    2.16300   28.40000    0.13940
    2.16300   33.10000    0.16300    4.00000
    2.16300   38.10000    0.13790
    2.16300   43.10000    0.12110
    2.16300   48.90000    0.11700    6.00000
    2.16300   58.00000    0.08200    6.00000
    2.16300   63.50000    0.05400    6.00000
    2.16300   72.90000    0.03230    8.00000
    2.24300   12.90000    0.01250   13.00000
    2.24300   18.30000    0.01120   10.00000
    2.24300   28.90000    0.01680   10.00000
    2.24300   33.60000    0.01460   10.00000
    2.24300   38.60000    0.01320   11.00000
    2.24300   44.00000    0.01430   10.00000
    2.24300   48.40000    0.01060   13.00000
    2.24300   59.10000    0.01200    9.00000
    2.24300   63.70000    0.00700   13.00000
    2.24300   73.00000    0.00190   26.00000
    2.31600    8.00000    0.00620   16.00000
    2.31600   12.60000    0.00350   17.00000
    2.31600   17.70000    0.00260   19.00000
    2.31600   27.40000    0.00480   17.00000
    2.31600   31.90000    0.00360   19.00000
    2.31600   37.50000    0.00470   17.00000
    2.31600   42.40000    0.00590   15.00000
    2.31600   46.90000    0.00290   28.00000
    2.31600   57.30000    0.00300   23.00000
    2.31600   62.40000    0.00140   29.00000
    2.31600   72.50000    0.00080   50.00000
    2.45800    7.10000    0.00240   30.00000
    2.45800   11.80000    0.00290   28.00000
    2.45800   17.70000    0.00180   28.00000
    2.45800   27.50000    0.00630   14.00000
    2.45800   32.60000    0.00610   15.00000
    2.45800   37.90000    0.00870   11.00000
    2.45800   42.70000    0.00660   18.00000
    2.45800   47.80000    0.00590   20.00000
    2.45800   57.90000    0.00650   12.00000
    2.45800   62.70000    0.00390   15.00000
    2.45800   72.40000    0.00400   17.00000
    2.53100    8.00000    0.00520   17.00000
    2.53100   13.60000    0.00630   17.00000
    2.53100   18.30000    0.00630   16.00000
    2.53100   28.80000    0.00600   13.00000
    2.53100   33.40000    0.00400   20.00000
    2.53100   38.40000    0.00440   18.00000
    2.53100   43.70000    0.00400   20.00000
    2.53100   58.50000    0.00240   21.00000
    2.53100   63.10000    0.00200   25.00000
    2.53100   73.20000    0.00100   40.00000
    2.58300    6.40000    0.00550   16.00000
    2.58300   11.50000    0.00350   23.00000
    2.58300   16.80000    0.00480   21.00000
    2.58300   26.70000    0.00300   23.00000
    2.58300   32.30000    0.00610   15.00000
    2.58300   37.10000    0.00300   23.00000
    2.58300   42.10000    0.00570   18.00000
    2.58300   46.30000    0.00390   21.00000
    2.58300   57.10000    0.00170   29.00000
    2.58300   62.40000    0.00120   30.00000
    2.58300   72.30000    0.00100   40.00000
    2.67100   13.50000    0.00370   27.00000
    2.67100   18.00000    0.00240   17.00000
    2.67100   53.40000    0.00450   24.00000
    2.67100   58.30000    0.00480   21.00000
    2.67100   63.60000    0.00750   13.00000
    2.67100   68.70000    0.00430   19.00000
    2.67100   73.40000    0.00640   14.00000
    2.67100   78.50000    0.00390   18.00000
    2.67100   83.80000    0.00530   19.00000
    2.67100   88.40000    0.00530   19.00000
    2.88400    7.90000    0.00550   16.00000
    2.88400   12.80000    0.00610   13.00000
    2.88400   17.70000    0.00420   21.00000
    2.88400   27.40000    0.00820   13.00000
    2.88400   32.60000    0.00380   18.00000
    2.88400   37.20000    0.00530   23.00000
    2.88400   42.30000    0.00300   23.00000
    2.88400   47.50000    0.00380   30.00000
    2.88400   57.50000    0.00800   40.00000
    2.88400   62.40000    0.00400   20.00000
    2.88400   72.70000    0.00400   20.00000
    2.98600    8.10000    0.00610   15.00000
    2.98600   18.20000    0.01130   12.00000
    2.98600   27.90000    0.01220   11.00000
    2.98600   33.70000    0.01360   10.00000
    2.98600   38.20000    0.01690    9.00000
    2.98600   43.50000    0.01420   11.00000
    2.98600   47.90000    0.01270   11.00000
    2.98600   57.60000    0.01220   25.00000
    2.98600   62.90000    0.01470   11.00000
    2.98600   73.20000    0.01070   13.00000
    3.05600    8.20000    0.02400   13.00000
    3.05600   13.20000    0.02610    9.00000
    3.05600   18.40000    0.03760    7.00000
    3.05600   28.30000    0.05050    5.00000
    3.05600   33.40000    0.05920
    3.05600   38.50000    0.06930
    3.05600   43.30000    0.07200    7.00000
    3.05600   48.00000    0.08200    5.00000
    3.05600   58.10000    0.07200
    3.05600   63.40000    0.04650    5.00000
    3.05600   73.80000    0.03130    8.00000
    3.11400   12.10000    0.07870
    3.11400   17.20000    0.07880
    3.11400   26.60000    0.08370
    3.11400   31.80000    0.07450
    3.11400   37.00000    0.08810
    3.11400   42.10000    0.07800    5.00000
    3.11400   46.70000    0.06600    8.00000
    3.11400   56.50000    0.04530    6.00000
    3.11400   61.70000    0.03380    7.00000
    3.11400   71.60000    0.01390   11.00000
    3.33300    7.10000    0.02650    6.00000
    3.33300   17.10000    0.02220    8.00000
    3.33300   27.20000    0.02840    6.00000
    3.33300   32.40000    0.02480    9.00000
    3.33300   37.60000    0.03190    5.00000
    3.33300   42.20000    0.02960    6.00000
    3.33300   47.00000    0.03140    5.00000
    3.33300   62.30000    0.02460    9.00000
    3.33300   72.70000    0.01210   12.00000
    3.40900    7.60000    0.01880   11.00000
    3.40900   17.50000    0.01730    8.00000
    3.40900   27.20000    0.01720    9.00000
    3.40900   32.70000    0.01280   10.00000
    3.40900   37.70000    0.02010    9.00000
    3.40900   42.30000    0.01730   10.00000
    3.40900   47.30000    0.01030   11.00000
    3.40900   57.20000    0.01560   15.00000
    3.40900   62.20000    0.00940   13.00000
    3.40900   72.70000    0.00580   17.00000
    3.60500    6.20000    0.01970   10.00000
    3.60500   11.20000    0.02090    9.00000
    3.60500   26.90000    0.01870    7.00000
    3.60500   31.80000    0.01240   10.00000
    3.60500   36.50000    0.01440    9.00000
    3.60500   41.50000    0.01880   10.00000
    3.60500   46.50000    0.01630    9.00000
    3.60500   56.70000    0.01040   15.00000
    3.60500   61.80000    0.00830   12.00000
    3.60500   72.10000    0.00300   20.00000
ENDDATA            206
ENDSUBENT          218
ENDENTRY             3
