ENTRY            D8057   20230428   20240313   20240313       D139
SUBENT        D8057001   20230428   20240313   20240313       D139
BIB                 10         15
TITLE      Low Energy Resonances 22Ne(a,a) in Elastic Scattering
AUTHOR     (D.K.Nauruzbayev, A.K.Nurmukhanbetova, V.Z.Goldberg)
INSTITUTE  (4KASNZR,4RUSSUL,1USATAM)
REFERENCE  (J,PPN,53,312,2022)
FACILITY   (CYCLO,4KASATN) DC60 cyclotron
SAMPLE     He gas with purity 99.99%.
METHOD     (TTM,TOFDE)
PART-DET   (A)
DETECTOR   (SI) 15 Si detector with an active area of 10x10 mm2
            and 350 um thickness
           (SI) Eight Si detectors placed in the chamber to
            detect ions elastically scattered from the Ti foil at
            a 21 degree angle to monitor the beam intensity
HISTORY    (20230428C) TZh
           (20230428R) Received by e-mail from D.Nauruzbayev
ENDBIB              15
NOCOMMON             0          0
ENDSUBENT           18
SUBENT        D8057002   20230428   20240313   20240313       D139
BIB                  3          4
REACTION   ((2-HE-4(10-NE-20,EL)2-HE-4,,DA,RSD)=
           (10-NE-20(A,EL)10-NE-20,,DA,RSD))
ERR-ANALYS (ERR-S) Statistical uncertainty
STATUS     (TABLE,,D.K.Nauruzbayev+,J,PPN,53,312,2022) Fig.3
ENDBIB               4
COMMON               1          3
ANG-CM
ADEG
 180.
ENDCOMMON            3
DATA                 3       1168
EN-CM      DATA-CM    ERR-S
MEV        MB/SR      MB/SR
    1.49855  213.30293    1.98295
    1.50099  215.73465    1.99472
    1.50342  214.97293    1.99468
    1.50584  217.64056    2.01054
    1.50828  216.47606    2.00751
    1.51072  217.52248    2.01315
    1.51316  212.28735    1.98956
    1.51559   212.0746    1.98678
    1.51802  211.71208    1.98226
    1.52045   212.5145    1.98343
    1.52291  209.44446    1.97633
    1.52537  215.11713    2.01035
    1.52781  205.77373    1.96987
    1.53024  207.27008    1.97499
    1.53267  208.53734    1.97899
     1.5351  208.12616    1.97759
    1.53754  210.18523    1.98926
    1.53998  207.89456    1.98031
    1.54243  208.94785    1.98782
    1.54488  206.75449    1.97989
    1.54733  204.84506    1.97258
    1.54977  205.10603    1.97318
    1.55221  203.49026    1.96474
    1.55465  206.82193    1.98118
     1.5571  200.63416    1.95251
    1.55954   202.6691    1.96359
    1.56199  200.76132    1.95597
    1.56443  200.67278    1.95725
    1.56688   199.2999    1.95233
    1.56933  203.68376    1.97593
    1.57178  199.65305    1.95851
    1.57423  200.01463    1.96178
    1.57667  199.16331    1.95814
    1.57912  196.00018    1.94307
    1.58157  198.34888    1.95839
    1.58404  199.21039    1.96747
     1.5865  195.72231     1.9542
    1.58895  198.55647    1.96677
    1.59141  195.84015    1.95178
    1.59386  197.40648     1.9601
    1.59631  195.90674    1.95614
    1.59876  196.43356    1.96228
    1.60121  192.10339    1.94064
    1.60366  192.24481    1.93989
    1.60611  191.07811    1.93255
    1.60857   189.8663     1.9279
    1.61103  191.20462    1.93631
    1.61349  190.44083    1.93423
    1.61595  192.97791    1.94927
    1.61841  194.59856    1.95965
    1.62087  191.25217    1.94559
    1.62333  188.41176    1.93429
     1.6258  192.34543    1.95762
    1.62825  187.15268    1.93187
    1.63069  188.90407    1.94159
    1.63314   186.3744     1.9293
     1.6356  186.93689    1.93315
    1.63806  184.79938    1.92301
    1.64052  187.27977    1.93597
    1.64299  184.39189    1.92023
    1.64546  185.86592    1.92713
    1.64792  183.80717    1.91977
    1.65038  181.81126    1.91317
    1.65284  183.03371    1.92273
     1.6553  181.36041    1.91351
    1.65776  181.78841    1.91537
    1.66023  185.01703    1.93262
    1.66269  178.45346    1.89919
    1.66516  181.54726    1.91677
    1.66763  179.44833    1.90913
     1.6701    181.362    1.92362
    1.67257   181.7697    1.92958
    1.67503  179.63681    1.91559
    1.67749  177.59953     1.9021
    1.67995  174.79716    1.88631
    1.68242  176.37767    1.89664
    1.68489  178.33191    1.90896
    1.68737   177.4192     1.9074
    1.68984   176.6541    1.90724
    1.69231  177.14255    1.91385
    1.69477  177.31427    1.91336
    1.69724  175.54753     1.9024
     1.6997   175.2852    1.90112
    1.70219  172.12491    1.88807
    1.70468  177.71355    1.92272
    1.70715  171.98846    1.89365
    1.70962  175.66681    1.91497
     1.7121  174.46353    1.90959
    1.71456  170.84839    1.88993
    1.71702  170.70032    1.88934
    1.71949  174.87134    1.91291
    1.72197  172.95306    1.90415
    1.72445  169.93532    1.88922
    1.72693  169.57768    1.88805
    1.72941  167.04384    1.87394
    1.73188  166.63383     1.8717
    1.73436  170.40143    1.89428
    1.73685  169.07082    1.88862
    1.73933  167.73953    1.88281
     1.7418  169.36031    1.89327
    1.74428  167.00104    1.88141
    1.74676  168.48871    1.89075
    1.74923   165.8199    1.87634
     1.7517  171.41264    1.90836
    1.75418  167.95302    1.89058
    1.75666   166.9256    1.88656
    1.75913  166.85683    1.88783
    1.76163  167.91496    1.89459
    1.76412   161.8508    1.86085
     1.7666  165.09665    1.87974
    1.76908  160.47354    1.85311
    1.77156  160.77368    1.85472
    1.77405  162.47348    1.86726
    1.77654  162.37413    1.87008
    1.77903  159.63754    1.85751
    1.78152  162.24753     1.8751
      1.784  163.34982    1.88394
    1.78648  162.78833     1.8816
    1.78895  159.19333     1.8594
    1.79143  161.42212    1.87107
    1.79392  161.82686    1.87437
    1.79642  158.49039    1.85677
    1.79892  153.61177    1.82988
    1.80141  158.93752    1.86406
     1.8039  160.45677    1.87569
    1.80638  159.66785    1.87211
    1.80886  158.56667    1.86433
    1.81135  160.18417    1.87251
    1.81384  156.61313    1.85396
    1.81633  157.28758    1.86195
    1.81882  153.73135     1.8447
    1.82132  154.49684    1.84923
    1.82381  155.57286    1.85561
    1.82631  153.94919    1.84652
     1.8288  154.05809    1.84889
    1.83129  155.18982     1.8574
    1.83378  154.38614     1.8547
    1.83627  153.82611     1.8536
    1.83876  148.66463    1.82441
    1.84125  151.75113    1.84337
    1.84375   152.1517    1.84593
    1.84624   152.3716    1.84751
    1.84873  153.86765    1.85706
    1.85122  151.86737    1.84547
    1.85372  153.00395    1.85449
    1.85622  148.35393    1.82916
    1.85872  153.20624    1.86187
    1.86122  151.51103    1.85183
    1.86371  150.65303    1.84687
    1.86621  152.78708    1.86008
    1.86871   147.2298    1.82588
    1.87121  149.44022    1.83948
     1.8737  150.83624    1.84953
    1.87619  151.76077    1.85752
    1.87868  149.17941    1.84397
    1.88119  149.76303    1.84822
    1.88369  146.97572    1.83148
     1.8862  147.20476    1.83377
     1.8887  149.72681    1.85102
    1.89121  146.54961    1.83287
     1.8937  148.81723    1.84841
    1.89619   145.3743    1.82821
    1.89868  146.25009    1.83502
    1.90119  142.67726      1.812
    1.90369   145.0802    1.82668
     1.9062  144.31883    1.82201
    1.90871  143.93001    1.82132
    1.91122   143.6088    1.82105
    1.91373  139.57224    1.79649
    1.91623   143.9393    1.82538
    1.91874  138.31012    1.79036
    1.92125  141.86781    1.81598
    1.92375  142.53197    1.82299
    1.92625  142.09325    1.82186
    1.92876  141.39452    1.81679
    1.93126  140.23096    1.80872
    1.93378  136.39793    1.78515
    1.93629  140.96339    1.81726
    1.93881  138.62329    1.80457
    1.94132  138.69687    1.80675
    1.94383  138.27536    1.80571
    1.94634   140.8829    1.82335
    1.94884  137.74376      1.802
    1.95134    136.237     1.7912
    1.95385  138.53088    1.80812
    1.95637  138.40562     1.8105
    1.95888  138.41827    1.81377
    1.96138  136.48355    1.79989
    1.96388   138.3241    1.81083
    1.96639  136.11137    1.79623
    1.96892  135.02661    1.79146
    1.97145   133.6019    1.78437
    1.97397   135.9399    1.80199
    1.97648  135.85025    1.80334
    1.97899  130.99884    1.77268
     1.9815  132.54208    1.78396
      1.984  132.91077     1.7873
    1.98651  133.29572    1.79086
    1.98903  134.98399    1.80332
    1.99155  132.96181     1.7909
    1.99406  133.04456    1.79267
    1.99657  130.64001    1.77762
    1.99908  132.92339     1.7943
    2.00161  132.06886    1.78897
    2.00413  130.94717     1.7818
    2.00666  129.98895    1.77618
    2.00917  128.03925    1.76426
    2.01169  127.81187    1.76414
     2.0142  128.37746    1.76942
    2.01671  127.57367    1.76523
    2.01923  129.54219    1.78007
    2.02174   126.0088    1.75589
    2.02426  126.02257    1.75625
    2.02678  126.06913    1.75724
     2.0293  127.74503    1.77014
    2.03182  125.10252    1.75299
    2.03435  124.38221    1.74909
    2.03687  123.65664    1.74511
    2.03939  124.99995    1.75569
    2.04191   123.8987    1.74905
    2.04443  123.58585    1.74794
    2.04695  120.83921    1.72945
    2.04946  124.32338    1.75522
    2.05198  120.99319    1.73255
     2.0545  120.62171    1.73149
    2.05702   122.4601     1.7464
    2.05955  124.69699    1.76383
    2.06207   122.1575      1.746
     2.0646  122.43786    1.74822
    2.06713  122.68233    1.75153
    2.06965   123.1918    1.75773
    2.07218  124.00556    1.76611
     2.0747  123.89594    1.76473
    2.07722   128.4384    1.79586
    2.07974   126.7969     1.7841
    2.08227  127.10744     1.7883
     2.0848  125.95655    1.78219
    2.08733  125.27684    1.77953
    2.08985  128.86771    1.80717
    2.09237  124.47317    1.77837
     2.0949  126.79107    1.79399
    2.09742  125.37718    1.78293
    2.09995  120.30437    1.74685
    2.10248  121.03362    1.75522
    2.10501  121.12872      1.759
    2.10753  120.49439    1.75442
    2.11005  117.30639    1.72959
    2.11257  117.05785     1.7263
     2.1151  118.60651    1.74102
    2.11763  112.81152    1.70128
    2.12016  116.53162    1.73139
    2.12269  112.41386    1.70051
    2.12522  115.93661    1.72694
    2.12774  117.08323    1.73499
    2.13027  117.46347     1.7372
     2.1328  115.38303    1.72156
    2.13534  120.01795    1.75927
    2.13787  121.45255    1.77327
     2.1404  118.96436    1.75652
    2.14292  124.42719    1.79539
    2.14545  129.51645    1.83072
    2.14798  124.59968    1.79694
    2.15052  129.47495     1.8338
    2.15306  127.46692    1.82151
    2.15559  127.42058     1.8229
    2.15813  124.60432    1.80434
    2.16066  123.81821     1.7992
    2.16318  124.27035    1.80216
    2.16571  123.57323    1.79678
    2.16824  122.82185    1.79364
    2.17078  120.76791    1.78121
    2.17331  118.71693    1.76796
    2.17584  120.87412    1.78374
    2.17837  123.87298    1.80553
     2.1809  115.11839    1.74142
    2.18344   121.5944    1.79145
    2.18598    120.823    1.78747
    2.18852  120.29472    1.78533
    2.19105  119.10043    1.77821
    2.19359   119.4296    1.78174
    2.19612  120.95577    1.79297
    2.19865  122.29604    1.80276
    2.20118  118.12189    1.77291
    2.20372  123.44333    1.81417
    2.20625  121.99472     1.8052
    2.20879  121.96093    1.80589
    2.21132  122.43577    1.81034
    2.21386  123.28235     1.8179
    2.21641   122.8587    1.81659
    2.21895  117.42707    1.77777
    2.22148  121.69683    1.81073
    2.22401  118.32334    1.78623
    2.22654   114.8171    1.76039
    2.22908  117.90393    1.78499
    2.23162  112.34017    1.74344
    2.23416  113.49742    1.75297
    2.23669  113.00221    1.74929
    2.23923  111.91135    1.74098
    2.24177  110.79247    1.73474
    2.24432  110.85168    1.73801
    2.24686  109.79937    1.73154
     2.2494  112.56217    1.75259
    2.25194   109.3226     1.7266
    2.25448  108.48105     1.7217
    2.25701  112.50824    1.75623
    2.25955  111.21211    1.74883
    2.26209  110.90155    1.74654
    2.26462  110.04102     1.7399
    2.26716  109.95943    1.73926
     2.2697  111.38755    1.75029
    2.27224  110.42326    1.74246
    2.27479  105.76639    1.70702
    2.27734  107.19505    1.72091
    2.27988  105.85699    1.71228
    2.28242  103.82421     1.6968
    2.28496  108.81101    1.73814
     2.2875  109.10398    1.74127
    2.29003  106.78185    1.72318
    2.29257  112.52636    1.76949
    2.29511  106.61163    1.72268
    2.29765  107.56744    1.73069
     2.3002   105.0654    1.71115
    2.30275  104.66994    1.70994
     2.3053  104.30036    1.70892
    2.30785  105.88382    1.72357
    2.31039  104.33324    1.71245
    2.31293  106.53371    1.73185
    2.31547  105.46098    1.72286
    2.31801   104.4456     1.7143
    2.32055  103.74741    1.70906
     2.3231  101.14192    1.68899
    2.32564   99.77015      1.679
    2.32818  101.37841    1.69246
    2.33073  100.33467    1.68327
    2.33327  103.55529    1.71008
    2.33583   99.49423    1.67936
    2.33839  101.94601    1.70313
    2.34093  101.70419     1.7017
    2.34348   98.88133    1.67668
    2.34602   98.82121    1.67494
    2.34857   97.76849    1.66864
    2.35112   95.29623    1.65017
    2.35366   96.87417    1.66555
     2.3562   96.92097    1.66561
    2.35874   96.68204    1.66323
    2.36128   97.91007    1.67545
    2.36383   95.08942    1.65379
    2.36638   94.79326    1.65365
    2.36893   91.81128    1.62683
    2.37147   91.74353    1.62563
    2.37402   94.57467    1.65135
    2.37657   91.62009    1.62753
    2.37912   92.09898    1.63398
    2.38166    90.7641    1.62312
    2.38421   89.92981    1.61649
    2.38675   92.59187    1.64092
    2.38929   89.89033    1.61683
    2.39183   88.14863    1.60112
    2.39438    88.4435    1.60462
    2.39694   85.85692    1.58236
    2.39949    86.2677    1.58751
    2.40204   88.71707    1.61011
    2.40459   92.27879    1.64235
    2.40714   89.44428    1.61746
    2.40969   92.00922    1.64145
    2.41225   98.65545     1.7007
    2.41479   101.8471     1.7297
    2.41734   104.8962    1.75732
    2.41989   109.9683    1.80107
    2.42245  109.39671    1.79701
      2.425   112.2511    1.82095
    2.42755  109.90227    1.80289
    2.43011  107.68176    1.78603
    2.43267  109.96294    1.80632
    2.43522  108.91992    1.79843
    2.43777  107.16219    1.78455
    2.44032  105.74327    1.77351
    2.44287  104.13618    1.76098
    2.44542  104.40368    1.76424
    2.44797  100.90322    1.73482
    2.45052  104.92587    1.76928
    2.45307  101.09007      1.737
    2.45563   96.78242    1.70108
    2.45819   97.79086    1.71142
    2.46075   101.2608    1.74225
     2.4633   99.47256    1.72689
    2.46586   96.63484    1.70217
    2.46842   95.46581    1.69291
    2.47098   95.37785    1.69322
    2.47353   94.21961     1.6841
    2.47609   91.36289    1.65977
    2.47865   92.96658    1.67569
    2.48121   93.81591     1.6839
    2.48376    93.6657    1.68283
    2.48632   89.75294    1.64774
    2.48889   89.36491     1.6459
    2.49146    88.1245    1.63615
    2.49402   86.86098    1.62506
    2.49657    82.6658    1.58534
    2.49913   83.36575    1.59204
    2.50169   84.23866    1.60201
    2.50426   82.30714    1.58518
    2.50682   81.18323    1.57585
    2.50937   77.70968    1.54312
    2.51193   78.24506    1.54979
    2.51449   76.61216    1.53378
    2.51705    74.3915    1.51129
    2.51961   73.17032     1.4989
    2.52218   71.28398    1.48027
    2.52474   71.02447    1.47839
    2.52731   69.37711    1.46195
    2.52987   69.32931    1.46224
    2.53243   68.91025     1.4586
      2.535   71.71401    1.48856
    2.53756   74.52223    1.51802
    2.54012   80.27491    1.57584
    2.54269   84.25452    1.61432
    2.54526   93.21259    1.69786
    2.54783  104.17928    1.79726
    2.55041  107.52917    1.82884
    2.55298  114.43667    1.88849
    2.55555  126.25829    1.98249
    2.55811  134.10477    2.04199
    2.56068  131.84302    2.02596
    2.56325  134.22099    2.04637
    2.56582  135.89265    2.06135
    2.56838  131.41908    2.02953
    2.57095   133.7099    2.04957
    2.57352  127.55634    2.00262
    2.57609  126.16886    1.99093
    2.57866  121.29967    1.95138
    2.58123  121.56443    1.95564
    2.58381  118.51576    1.93329
    2.58638  113.83403    1.89565
    2.58896  113.31159    1.89037
    2.59153  112.82233    1.88535
     2.5941  112.55125    1.88478
    2.59668  107.06272    1.84045
    2.59925  104.76104    1.82228
    2.60182  111.31026    1.87854
    2.60439  104.57608    1.82099
    2.60697  103.44199    1.81226
    2.60955   104.8224    1.82611
    2.61213  103.83318    1.81912
    2.61471  101.26583    1.79689
    2.61728   99.94042     1.7855
    2.61986  101.61559    1.80168
    2.62243   99.94871     1.7888
    2.62501   99.55769    1.78724
    2.62758  101.07812    1.80038
    2.63015    99.3503    1.78438
    2.63273  101.00682     1.7994
    2.63532   99.82181    1.79026
     2.6379  100.20866    1.79517
    2.64049   96.82487    1.76513
    2.64307   98.53055     1.7809
    2.64566  105.44464    1.84283
    2.64824  102.29738    1.81606
    2.65083   103.5651    1.82822
    2.65341   102.6871     1.8204
    2.65599  105.99545    1.84907
    2.65858  107.47118    1.86183
    2.66117  104.22365    1.83528
    2.66377  102.06417    1.81794
    2.66636  101.88764    1.81768
    2.66895   100.7402    1.80847
    2.67154  100.88983    1.81087
    2.67413   98.92174    1.79413
    2.67672    97.3727    1.78104
    2.67931   98.05893    1.78852
    2.68189   96.41215    1.77479
    2.68448    95.8073    1.77057
    2.68706   96.87493     1.7812
    2.68964   94.66471    1.76153
    2.69223   98.64722    1.79895
    2.69483  100.52885    1.81672
    2.69743   97.84647    1.79301
    2.70002   98.70705    1.80154
    2.70261  100.75327    1.82078
     2.7052   98.41874    1.80048
    2.70779   101.7686    1.83226
    2.71038    97.7941    1.79749
    2.71297   99.42344     1.8125
    2.71556   95.99608    1.78076
    2.71815    94.5773    1.76788
    2.72076   90.89915    1.73527
    2.72336   90.58987    1.73443
    2.72595   87.62983    1.70679
    2.72855   88.44265    1.71515
    2.73115   89.74945    1.72851
    2.73373   91.32202    1.74525
    2.73632     86.618    1.70134
    2.73891   89.97255    1.73506
     2.7415   88.01118    1.71682
    2.74409   87.04501    1.70808
    2.74667   86.03393    1.69807
    2.74926   88.34106    1.72064
    2.75185    84.7246    1.68608
    2.75445    85.2007    1.69288
    2.75705   88.33498    1.72577
    2.75965   85.25816    1.69569
    2.76224   85.24963    1.69586
    2.76483   81.47758    1.65867
    2.76742    82.8511    1.67384
    2.77001   84.87215    1.69541
     2.7726     82.610    1.67411
     2.7752   80.64687    1.65554
    2.77779   80.35407    1.65301
    2.78038   79.36906    1.64181
    2.78297   83.37315    1.68165
    2.78557   82.53411    1.67532
    2.78817   84.71512    1.70009
    2.79077   83.10614    1.68589
    2.79336   85.68623     1.7127
    2.79595    82.7887    1.68431
    2.79854   83.20877    1.68937
    2.80113   81.36299    1.67129
    2.80371   82.46629    1.68334
    2.80631   83.97633    1.69935
     2.8089   82.80444    1.68813
    2.81149   83.37359    1.69446
    2.81409   82.62824    1.68735
    2.81668   84.84076    1.71055
    2.81927   82.01427    1.68361
    2.82187    81.3576    1.67864
    2.82446    82.3328    1.68979
    2.82705   81.61585    1.68325
    2.82964    84.4426      1.713
    2.83223   83.80005    1.70736
    2.83481   81.20615    1.68161
    2.83741   87.41085    1.74508
     2.8400   82.36481    1.69402
    2.84259   83.18124    1.70255
    2.84519   85.34774    1.72675
    2.84779   88.64565    1.76202
    2.85038   89.89391    1.77599
    2.85297    89.4155    1.77243
    2.85555   91.00833     1.7893
    2.85813   90.37843    1.78348
    2.86072   90.52276    1.78528
     2.8633   90.16473    1.78273
    2.86589   86.23498    1.74506
    2.86848   86.39447    1.74829
    2.87107   88.93739    1.77414
    2.87366   85.73652    1.74212
    2.87625   81.01743    1.69412
    2.87884   81.91371    1.70469
    2.88143   83.20328    1.71928
    2.88402   80.71034    1.69438
     2.8866   79.17166    1.67919
    2.88919   82.85831     1.7184
    2.89177   77.63103    1.66306
    2.89436   80.63454    1.69466
    2.89695   79.58849    1.68576
    2.89954   78.44204     1.6762
    2.90213   78.45615    1.67842
    2.90471   77.96769    1.67373
     2.9073   78.30564    1.67789
    2.90988   76.03371    1.65408
    2.91246   82.76564    1.72653
    2.91504   79.65249    1.69473
    2.91763   81.02658    1.71085
    2.92021   85.55418    1.75961
    2.92279   82.50122    1.72856
    2.92537   86.43777    1.76957
    2.92795   88.51029     1.7911
    2.93054   94.88908    1.85594
    2.93312   95.94298    1.86764
    2.93571   96.96222    1.87896
    2.93829  102.61485    1.93441
    2.94088  107.33858    1.97962
    2.94345  111.29096    2.01549
    2.94603   116.9934    2.06623
    2.94861   120.6534    2.09999
    2.95119  129.19588    2.17605
    2.95377  124.65289     2.1403
    2.95635  122.49094    2.12299
    2.95892  114.31845    2.05223
     2.9615  114.33936    2.05326
    2.96408  100.95994     1.9298
    2.96666   91.22649    1.83483
    2.96924   86.83263     1.7916
    2.97182   77.86948    1.69804
    2.97439   73.65712     1.6524
    2.97697   69.54709    1.60612
    2.97954   69.47764     1.6058
    2.98212   64.95226    1.55354
    2.98469   65.44019    1.56031
    2.98727   63.91172    1.54284
    2.98985   63.19167    1.53488
    2.99242   61.46265    1.51448
     2.9950   62.24786    1.52506
    2.99758   61.09106    1.51177
    3.00015   62.17549    1.52604
    3.00272   60.40786    1.50503
    3.00529   61.48924     1.5193
    3.00787   59.62777    1.49632
    3.01044    60.7234    1.51008
    3.01301   61.61675    1.52152
     3.0156   60.12042    1.50395
    3.01818   59.14741    1.49275
    3.02076   60.71452    1.51314
    3.02333   62.88247    1.54061
    3.02591   60.25642    1.50877
    3.02849   62.31422      1.535
    3.03106   62.36992    1.53637
    3.03364    61.5785    1.52804
    3.03622    60.7648     1.5196
     3.0388   60.79256    1.52124
    3.04137   60.82497    1.52158
    3.04395   59.90603    1.50997
    3.04652   61.49134    1.53013
     3.0491   57.83497    1.48441
    3.05168   59.26708    1.50345
    3.05426     59.239    1.50516
    3.05684   59.24887    1.50736
    3.05941   59.39234    1.50954
    3.06198   56.90562     1.4772
    3.06456   58.34217    1.49546
    3.06713   58.15773    1.49368
    3.06971   58.62573    1.50027
    3.07229   55.46797    1.46019
    3.07487   55.24307    1.45832
    3.07746   54.39491    1.44809
    3.08003   57.42371    1.48814
    3.08261   54.05064    1.44405
    3.08519   55.95281     1.4699
    3.08777   55.09456    1.45949
    3.09035   54.23529    1.44898
    3.09293   53.30718    1.43759
    3.09551   53.26926    1.43813
    3.09808   52.54427    1.42849
    3.10066   52.58309    1.42849
    3.10324   51.15136    1.40843
    3.10582   48.39439    1.37155
     3.1084   49.16989    1.38411
    3.11099   49.86387    1.39537
    3.11357   48.59817    1.37898
    3.11615    45.3194    1.33292
    3.11872   46.69642    1.35196
    3.12129   48.10849    1.37117
    3.12387    43.5469    1.30471
    3.12646   43.16064    1.30016
    3.12904   43.28296    1.30325
    3.13162    42.6307    1.29422
    3.13421   45.98925    1.34508
    3.13679   45.54851    1.33908
    3.13937   53.30786    1.44871
    3.14196   54.45387    1.46426
    3.14454   60.36529    1.54276
    3.14713    68.2279    1.64131
    3.14971   74.56034    1.71687
    3.15229   80.81935    1.78849
    3.15488   90.53988    1.89407
    3.15746   94.53773    1.93661
    3.16004  100.92856    2.00222
    3.16262  103.99245     2.0336
     3.1652  103.04005    2.02546
    3.16778  108.46326    2.07931
    3.17037  107.26836    2.06745
    3.17295  110.49209    2.09787
    3.17554  106.90234    2.06384
    3.17813   111.3612    2.10754
    3.18072  117.74593    2.16825
     3.1833  127.03284     2.2534
    3.18589  129.37766    2.27539
    3.18847  143.20738    2.39512
    3.19106  161.13292    2.54171
    3.19365  178.44765    2.67595
    3.19624  193.25058    2.78701
    3.19883  207.13893    2.88781
    3.20141  213.74646    2.93493
     3.2040  217.88374    2.96365
    3.20659  212.84146    2.92969
    3.20918  207.86456    2.89737
    3.21176  190.09218    2.77278
    3.21434   165.2146    2.58654
    3.21693  147.66037    2.44644
    3.21951  134.20898    2.33345
     3.2221  123.91575    2.24192
    3.22469  113.18156    2.14238
    3.22728   105.8758    2.07202
    3.22988   92.34017    1.93513
    3.23247    85.5872    1.86323
    3.23507   84.65709    1.85489
    3.23767   83.27522    1.84149
    3.24026   81.65894    1.82458
    3.24286   79.26229    1.79817
    3.24545   78.04527    1.78485
    3.24804   76.16225     1.7636
    3.25063   78.19985    1.78745
    3.25322   78.42091    1.79157
    3.25581   81.70858    1.83118
    3.25841   86.21798    1.88322
     3.2610   83.52045    1.85372
    3.26359   87.57085    1.89834
    3.26619   87.81563    1.90052
    3.26878   89.30611    1.91581
    3.27138   91.54068    1.93935
    3.27398   88.91607    1.91273
    3.27659   86.53101    1.88826
    3.27919    83.3181    1.85426
    3.28179   73.77321    1.74614
    3.28438   69.75597    1.69884
    3.28698   64.75693    1.63693
    3.28957   62.69513    1.61075
    3.29217    56.8051    1.53415
    3.29477   54.68885     1.5064
    3.29737   50.32057    1.44602
    3.29997   50.80471    1.45394
    3.30257   49.16521    1.43125
    3.30517     44.997    1.36985
    3.30777   43.99123    1.35502
    3.31036   46.20332     1.3893
    3.31296   45.45431    1.37867
    3.31555   46.58744    1.39644
    3.31814   43.30409    1.34669
    3.32074   44.29053     1.3623
    3.32334   43.17495    1.34528
    3.32594   45.65655    1.38353
    3.32854   43.44313    1.34971
    3.33114   40.88428    1.31002
    3.33375   43.86666    1.35764
    3.33635   45.51921    1.38382
    3.33895   44.10809    1.36315
    3.34156   46.69904    1.40357
    3.34416   45.06147     1.3795
    3.34675   43.63166    1.35819
    3.34935   43.38283    1.35505
    3.35195   42.58209    1.34321
    3.35455   42.92372     1.3493
    3.35715   41.51944    1.32765
    3.35975   39.56022    1.29653
    3.36235   40.09789    1.30577
    3.36494   41.10095     1.3224
    3.36754   40.07195    1.30631
    3.37015   38.80991    1.28654
    3.37275   34.81047    1.21936
    3.37535   35.17025    1.22596
    3.37795   35.69381    1.23524
    3.38055   33.21633    1.19163
    3.38315   31.66406    1.16321
    3.38575   31.99261    1.16898
    3.38836     30.299    1.13871
    3.39096   31.05222    1.15405
    3.39357   32.86806    1.18835
    3.39618   32.26255    1.17806
    3.39878     33.206    1.19588
    3.40137   34.32319    1.21655
    3.40397   35.74519    1.24223
    3.40656   37.30447    1.26986
    3.40916   39.00128    1.29932
    3.41176   40.96224     1.3325
    3.41436   45.95694    1.41222
    3.41696   47.61784    1.43835
    3.41956   58.24305    1.59108
    3.42216   62.37192    1.64651
    3.42476   71.07031    1.75764
    3.42736   75.66298    1.81388
    3.42996   86.74089     1.9425
    3.43256   91.88618    2.00036
    3.43516   99.46275    2.08256
    3.43777  106.55262    2.15665
    3.44037   104.6361    2.13766
    3.44297  104.94621    2.14131
    3.44558   99.09223    2.08212
    3.44818   96.30572    2.05418
    3.45078   97.03124    2.06356
    3.45338   91.39851    2.00453
    3.45598   94.99425    2.04537
    3.45858  100.49921     2.1038
    3.46117  105.91473    2.15973
    3.46377   107.3054    2.17456
    3.46637   120.2802    2.30373
    3.46897  127.49453    2.37325
    3.47157  137.00449    2.46067
    3.47417  141.03999    2.49716
    3.47678  149.14793    2.56808
    3.47938  155.63774    2.62327
    3.48199  155.38391     2.6216
    3.48459  154.89049       2.62
     3.4872  152.70744    2.60402
     3.4898  143.42773    2.52523
     3.4924  143.53253    2.52747
     3.4950  131.11977    2.41698
     3.4976  128.00542    2.38939
    3.50021  119.03527     2.3054
    3.50281   110.3681    2.22073
    3.50541  104.05238    2.15702
    3.50801   98.86346    2.10348
    3.51061    94.8056    2.06099
    3.51321   85.22137    1.95511
    3.51581   81.03695    1.90741
    3.51841   78.50733    1.87829
    3.52101    76.6039    1.85574
    3.52361    70.1281    1.77554
    3.52621     68.199      1.751
    3.52882   68.06624     1.7499
    3.53143   58.88459    1.62816
    3.53403   56.69556    1.59912
    3.53664   54.75245    1.57337
    3.53924   54.38948    1.56944
    3.54184   50.25728    1.50847
    3.54445   49.65786    1.49929
    3.54705   45.79697    1.44104
    3.54965   43.88844    1.41209
    3.55226   42.48917    1.39029
    3.55485   42.00274    1.38254
    3.55745   37.14595    1.30037
    3.56006   37.34426    1.30412
    3.56266     37.224     1.3023
    3.56526    34.4505    1.25378
    3.56787   34.39311    1.25419
    3.57047   31.25376    1.19677
    3.57307   32.36161    1.21795
    3.57567   31.86535    1.20872
    3.57828   28.47133    1.14252
    3.58088   27.64239    1.12569
    3.58349   25.58861    1.08325
    3.58609   25.75812    1.08751
     3.5887   22.25032    1.01138
     3.5913   25.53667    1.08397
     3.5939   22.15068    1.00998
    3.59651    22.4978    1.01843
    3.59911   21.83585    1.00401
    3.60172   18.81342    0.93255
    3.60432   19.51345     0.9499
    3.60693   19.61266    0.95248
    3.60953   19.21013    0.94299
    3.61214   17.05005     0.8888
    3.61474   18.18399    0.91843
    3.61734   15.01384    0.83539
    3.61995   14.76507    0.82929
    3.62255   13.78216    0.80107
    3.62515   15.25948    0.84256
    3.62775   14.70276    0.82709
    3.63036   13.46776    0.79222
    3.63297   12.69559    0.76978
    3.63557    14.3492    0.81895
    3.63818    13.7139    0.80117
    3.64078    15.9661    0.86461
    3.64339    18.7213    0.93606
    3.64599   21.29606    0.99837
     3.6486   26.54005    1.11556
     3.6512   30.25306    1.19214
     3.6538   39.87465     1.3693
    3.65641    45.6419    1.46547
    3.65901    59.0087    1.66702
    3.66162    70.4952    1.82322
    3.66423   89.18753    2.05205
    3.66684   98.67644    2.15844
    3.66944   105.1802    2.22831
    3.67205   116.7369    2.34792
    3.67466  118.37738    2.36518
    3.67727  111.52458    2.29667
    3.67987   103.2952    2.21234
    3.68248   93.27896    2.10427
    3.68509   81.29069    1.96467
    3.68769   68.44273    1.80237
     3.6903   60.33498    1.69237
    3.69291   50.67826    1.55218
    3.69553   42.23082    1.41797
    3.69813   37.91626    1.34391
    3.70074   34.35686    1.27952
    3.70335   34.18675    1.27673
    3.70596   33.25949    1.25979
    3.70857   34.67828    1.28703
    3.71118    35.9246    1.31178
    3.71378   34.77611    1.29244
    3.71639   37.08021    1.33455
    3.71899   39.76461    1.38108
     3.7216   43.43083    1.44289
    3.72421   40.55013    1.39497
    3.72682     43.428    1.44439
    3.72943   49.65852     1.5458
    3.73204    52.7309    1.59425
    3.73465   57.59423    1.66677
    3.73726   59.56686    1.69501
    3.73987   61.16781    1.71776
    3.74248    65.7395    1.78261
    3.74509   71.78279    1.86465
     3.7477   73.87313    1.89232
    3.75031   74.90779    1.90574
    3.75292   79.58234    1.96455
    3.75553   85.52534    2.03689
    3.75815   84.58141    2.02594
    3.76075   87.45579     2.0625
    3.76336   87.03442    2.06002
    3.76596   92.94067    2.12941
    3.76857   91.64063    2.11353
    3.77117   99.14521    2.19781
    3.77379  107.32259    2.28865
     3.7764  122.86208    2.45088
    3.77901  139.41171    2.61234
    3.78162  161.36627    2.81201
    3.78423   186.6366    3.02486
    3.78685  214.42107    3.24137
    3.78946  240.18073    3.42975
    3.79207  255.48524    3.54158
    3.79468  280.50818    3.71542
    3.79729  298.05243    3.83096
    3.79989  302.74554    3.85984
     3.8025  303.22433    3.86281
    3.80511  316.03217    3.94794
    3.80773   315.1058    3.94654
    3.81034  315.26248    3.95005
    3.81295   310.1106     3.9198
    3.81556  311.78082    3.93057
    3.81817  313.41141    3.93893
    3.82078  310.30197    3.91815
    3.82339  308.05161    3.91005
     3.8260  305.83554    3.90209
     3.8286  307.72003    3.91595
    3.83121  295.03842    3.83426
    3.83382  283.65869    3.75979
    3.83643  284.41678    3.76587
    3.83905  267.51468    3.65329
    3.84166  248.22192    3.52026
    3.84427  241.89409    3.47627
    3.84688  230.37131    3.39295
    3.84949  223.52966    3.34223
     3.8521  214.91919    3.27787
    3.85471  215.31851    3.28434
    3.85733  210.09645    3.24766
    3.85994  207.43843    3.22903
    3.86255  204.42239    3.20705
    3.86516  204.88905    3.21239
    3.86777  207.49303    3.23459
    3.87039  217.26331    3.31169
     3.8730   217.5584    3.31504
     3.8756   227.0029    3.38735
    3.87821   232.8356    3.43111
    3.88082  250.61961       3.56
    3.88343  272.19296    3.71061
    3.88604   293.8837    3.85689
    3.88865  320.61746    4.02982
    3.89127  348.53989    4.20385
    3.89388  362.77881    4.29121
     3.8965  387.68921    4.43835
    3.89911  374.27762    4.36299
    3.90173  381.79126    4.40855
    3.90434  359.99933    4.28237
    3.90695  332.21301    4.11522
    3.90956  307.48239    3.96101
    3.91217   285.7829    3.82064
    3.91478  249.85381    3.57408
    3.91739  235.37669    3.47044
     3.9200  222.16772    3.37315
    3.92261  201.70871    3.21635
    3.92523  187.81729     3.1058
    3.92784  183.64182    3.07138
    3.93045  174.66862     2.9951
    3.93306  162.52612    2.88938
    3.93568  165.67702    2.91831
     3.9383  149.69887    2.77506
    3.94091  147.88741    2.75955
    3.94353  134.42375    2.63222
    3.94614  135.01466    2.63924
    3.94875  126.98145    2.56071
    3.95137  126.44752    2.55671
    3.95398  118.70111    2.47886
    3.95659  119.95306    2.49362
    3.95921  113.36924    2.42588
    3.96182  116.48754     2.4607
    3.96443  111.30686    2.40611
    3.96704  111.69084    2.41047
    3.96965  112.77824    2.42268
    3.97227  114.87071    2.44627
    3.97488   109.3538      2.388
    3.97749  110.33303    2.39854
     3.9801  109.63506    2.39073
    3.98271  112.09325    2.41747
    3.98533  111.60297    2.41251
    3.98794  113.70506    2.43585
    3.99056  105.51353    2.34881
    3.99318  105.09529    2.34649
    3.99579  105.05979    2.34686
    3.99841  102.90359    2.32317
    4.00103   98.92039    2.27901
    4.00364   100.3995    2.29789
    4.00626  101.53792    2.31246
    4.00886  101.21149    2.30862
    4.01147  101.93844    2.31678
    4.01409  104.59812    2.34771
    4.01671  112.03425    2.43094
    4.01932  114.75186    2.46224
    4.02194  124.29453    2.56564
    4.02455   142.4733    2.74955
    4.02716  150.88503    2.82782
    4.02977  163.19406    2.93912
    4.03239  186.30766    3.14245
    4.03501   197.2572    3.23677
    4.03762  221.91232    3.43483
    4.04023  236.42581    3.54457
    4.04284  258.11615     3.7029
    4.04546   279.3056    3.85405
    4.04808  300.32956    3.99871
     4.0507  305.23886    4.03486
    4.05331  322.85413    4.15386
    4.05592  335.10617    4.23406
    4.05854  347.34323    4.30959
    4.06115  355.45471    4.35887
    4.06377  354.77417    4.35971
    4.06638  357.36526    4.38065
     4.0690  373.96875    4.48325
     4.0716  368.79742    4.45272
    4.07422  378.25464    4.51039
    4.07683   383.2572    4.54171
    4.07945  383.42273    4.54431
    4.08206   377.9075    4.51364
    4.08468  383.39001     4.5484
    4.08729   401.3103    4.65289
    4.08991  404.51373    4.66968
    4.09252  421.58066    4.76766
    4.09514  427.39175    4.80519
    4.09776  431.87204    4.83513
    4.10037    456.629    4.97336
    4.10299    478.702    5.09373
    4.10561  482.55814    5.11712
    4.10823  496.65042    5.19491
    4.11085  497.85477    5.20437
    4.11346   492.5451    5.17895
    4.11607  471.46085    5.06918
    4.11868   449.0632    4.94732
     4.1213   405.5181    4.70136
    4.12391  360.37421    4.43389
    4.12653  336.53198    4.28747
    4.12914  299.78329    4.04854
    4.13176  265.79556    3.81267
    4.13437  251.86794    3.71198
    4.13699  237.23238    3.60354
    4.13961  237.80605    3.60893
    4.14223  234.88913    3.58871
    4.14485  240.02882    3.63014
    4.14746  247.62274    3.68888
    4.15008   249.4718     3.7033
     4.1527  255.67494     3.7498
    4.15531  268.81317    3.84805
    4.15793  273.93826     3.8877
    4.16054   282.1445     3.9481
    4.16316  292.10654     4.0196
    4.16577  300.56882    4.07891
    4.16839  301.86008    4.08778
     4.1710  308.75958    4.13447
    4.17362  313.56622    4.16794
    4.17623  319.10025    4.20598
    4.17885  319.63522     4.2101
    4.18147  319.40585    4.20891
    4.18408  321.83234    4.22623
    4.18671  334.61502    4.31232
    4.18933   337.6091    4.33438
    4.19195  340.25946    4.35265
    4.19457  342.30045    4.36699
    4.19719  345.68954    4.39132
     4.1998  350.53677    4.42514
    4.20242  353.82141    4.44856
    4.20503  357.77032    4.47563
    4.20764   363.4577      4.513
    4.21026  360.96671      4.497
    4.21287  360.66211     4.4946
    4.21549   368.9491    4.54835
    4.21811  366.46527    4.53603
    4.22073  374.96741    4.59125
    4.22335  374.01132    4.58815
    4.22597  374.39346    4.59249
    4.22859  379.37189    4.62236
     4.2312  391.10562    4.69274
    4.23382  386.07086    4.66434
    4.23644  390.94659    4.69591
    4.23906  387.37943    4.67674
    4.24168  396.02606    4.73105
     4.2443  400.33212    4.75912
    4.24692  396.88309    4.74095
    4.24954  407.65619    4.80728
    4.25216  407.09344      4.808
    4.25478  406.58844    4.80909
    4.25739  404.95096    4.80048
    4.26001  404.43323    4.79704
    4.26262  412.82535    4.84705
    4.26524  405.17093     4.8041
    4.26786  396.18649    4.75268
    4.27047  389.63089    4.71424
    4.27309  397.79248    4.76441
    4.27571  393.79358    4.74106
    4.27833  404.38605    4.80494
    4.28095  394.51431    4.74836
    4.28357  404.40015    4.81224
    4.28619  415.92969    4.88417
    4.28881  435.84918    4.99888
    4.29143  439.24957    5.01746
    4.29406  453.84409    5.10518
    4.29668  477.53937    5.24262
     4.2993  490.13077    5.31434
    4.30191  510.14822    5.42281
    4.30452  537.41754    5.56708
    4.30714  541.77014     5.5912
    4.30976  573.32214    5.75339
    4.31238  584.18549    5.81114
     4.3150  592.42743    5.85558
    4.31762  593.92694    5.86353
    4.32024  611.11267    5.94688
    4.32285  625.77905    6.01961
    4.32547  648.63251    6.13448
    4.32809  660.09943    6.19382
    4.33071  672.25555    6.24847
    4.33332  667.50818    6.22428
    4.33595  693.52496    6.34847
    4.33857  685.11993    6.31588
     4.3412   705.3313    6.41237
    4.34381  700.19263    6.39079
    4.34643   694.2207    6.36498
    4.34905  703.98663    6.40995
    4.35167  698.81305    6.38672
    4.35429  696.25916    6.38072
     4.3569  692.39319    6.36914
    4.35952  691.47375    6.36607
    4.36214  679.87982    6.31035
    4.36476  663.33978    6.23383
    4.36738  646.13806    6.15956
    4.37001  639.55762    6.13486
    4.37263  613.59412    6.00755
    4.37524  585.07153    5.86481
    4.37787  578.97656    5.83694
    4.38049   534.2879    5.61104
    4.38311  520.84344    5.54371
    4.38572  504.91278    5.46179
    4.38834  472.73734    5.28768
    4.39096  463.24698    5.23351
    4.39358  434.02194    5.06495
     4.3962  415.45096    4.95886
    4.39882  393.48691    4.82997
    4.40144  377.19513    4.73011
    4.40406  362.99725    4.63972
    4.40668  339.54889    4.48839
     4.4093  328.88165    4.42139
    4.41192  322.57083    4.38274
    4.41454  292.17377    4.17221
    4.41716   282.6684    4.10484
    4.41978  264.00366     3.9683
     4.4224  242.82001     3.8071
    4.42503  226.29535    3.67681
    4.42765  201.82079    3.47399
    4.43027   185.6414    3.33314
    4.43288  171.76538    3.20623
     4.4355  150.10762    2.99736
    4.43812  135.34413    2.84825
    4.44074  123.07465    2.71826
    4.44336  112.16754    2.59594
    4.44598  104.13184    2.50141
     4.4486   96.54833     2.4092
    4.45123   97.26311    2.41951
    4.45385   92.55138     2.3615
    4.45647   90.55362    2.33653
    4.45909   92.47466    2.36185
    4.46171    90.7421    2.34061
    4.46433   94.99468    2.39592
    4.46695   91.97942    2.35845
    4.46957   84.46704    2.26071
    4.47219   78.21595    2.17603
    4.47481   75.82902    2.14305
    4.47743    64.0479    1.97001
    4.48005   58.36939     1.8819
    4.48267   45.93256    1.67055
     4.4853   35.75283    1.47442
    4.48792   32.12236    1.39795
    4.49054   27.57979    1.29581
    4.49316   22.85279    1.18011
    4.49578   16.16301    0.99289
ENDDATA           1170
ENDSUBENT         1183
SUBENT        D8057003   20230428   20240313   20240313       D139
BIB                  3          4
REACTION   ((2-HE-4(10-NE-22,EL)2-HE-4,,DA,RSD)=
           (10-NE-22(A,EL)10-NE-22,,DA,RSD))
ERR-ANALYS (ERR-S) Statistical uncertainty
STATUS     (TABLE,,D.K.Nauruzbayev+,J,PPN,53,312,2022) Fig.4
ENDBIB               4
COMMON               1          3
ANG-CM
ADEG
 180.
ENDCOMMON            3
DATA                 3       1038
EN-CM      DATA-CM    ERR-S
MEV        MB/SR      MB/SR
    1.84853  151.67859    1.76657
    1.85145  154.96512    1.78357
    1.85438  146.12286    1.73075
    1.85732  147.21977    1.73996
    1.86027  150.34451     1.7611
    1.86321  146.37738    1.74062
    1.86615  148.14581     1.7541
    1.86909  145.54694    1.73987
    1.87203  147.41373    1.74862
    1.87497  145.56975    1.73531
    1.87792  146.81772    1.74462
    1.88086  142.18144     1.7189
    1.88381   143.1577    1.72579
    1.88675  145.09982     1.7375
     1.8897  145.43872    1.73994
    1.89265  139.37344    1.70718
     1.8956  145.16217    1.74628
    1.89855  143.47115    1.73691
     1.9015  142.01378    1.72751
    1.90446  142.79218    1.73263
    1.90741  140.25914    1.71945
    1.91036  143.46085    1.74126
    1.91331  140.35875    1.72326
    1.91625  137.05867    1.70368
    1.91921  137.34703    1.70581
    1.92217  140.46677    1.72498
    1.92512  138.97002    1.71581
    1.92808  135.24765    1.69351
    1.93103  138.20448    1.71277
    1.93399  137.25491     1.7081
    1.93695  139.00882    1.72036
    1.93991  139.88513    1.72711
    1.94287  135.55447    1.70136
    1.94582  134.59038    1.69649
    1.94879  134.87732    1.69916
    1.95175  135.20284    1.70205
    1.95472  136.32172    1.71031
    1.95768  136.37669    1.71222
    1.96065  133.73639    1.69695
     1.9636   131.8022    1.68507
    1.96656  130.27597    1.67572
    1.96953  135.12042    1.70833
     1.9725  128.52429     1.6683
    1.97547  136.35472    1.72023
    1.97844  127.16349     1.6623
     1.9814  131.63449    1.69236
    1.98436  129.21889    1.67647
    1.98733  129.91272    1.68067
     1.9903  133.57196    1.70575
    1.99328  132.02574    1.69879
    1.99626   131.0954    1.69512
    1.99923  130.53552    1.69142
     2.0022  127.89456    1.67415
    2.00517    130.179    1.69078
    2.00815  129.68199     1.6896
    2.01112  126.71318    1.67163
    2.01408  129.94313    1.69358
    2.01704  127.62804    1.67917
    2.02002  126.28607    1.66992
      2.023  125.43176    1.66387
    2.02598  122.16418    1.64368
    2.02897  129.06061    1.69217
    2.03195  126.79733    1.67903
    2.03492  125.00812    1.66692
    2.03789   124.3983    1.66264
    2.04087  125.47691    1.67154
    2.04385  122.16735    1.65121
    2.04683   122.5416    1.65491
    2.04981  126.75465    1.68364
    2.05279  120.05199    1.63917
    2.05578  121.99464    1.65387
    2.05876   125.8984    1.68164
    2.06174   120.7015    1.64773
    2.06472  121.53837    1.65454
    2.06771  123.17406    1.66695
    2.07069  122.57529     1.6645
    2.07368  123.16075    1.66999
    2.07666  118.83912    1.64014
    2.07965  121.53595    1.65835
    2.08264  119.08036      1.643
    2.08562  118.21804    1.63923
    2.08861  120.17654     1.6545
    2.09159   120.8527    1.65988
    2.09457  116.66998    1.63163
    2.09756  115.31068    1.62233
    2.10055  119.35564    1.65073
    2.10355  117.97445    1.64234
    2.10653  116.81335     1.6362
    2.10952  114.13303    1.61895
    2.11251  118.00964    1.64682
     2.1155  115.79765    1.63192
    2.11849  114.56139    1.62421
    2.12147  112.08808    1.60767
    2.12446  110.42447    1.59684
    2.12745  111.86541    1.60845
    2.13044  113.54001    1.62167
    2.13344   113.6179    1.62328
    2.13644  113.46384    1.62323
    2.13943  113.49154    1.62346
    2.14242  112.08157    1.61306
    2.14542  111.86994    1.61252
    2.14842  113.17012    1.62503
    2.15142  114.01116    1.63424
     2.1544  113.84632    1.63272
    2.15739  111.45325    1.61509
    2.16039  110.54933    1.60826
     2.1634  110.05137    1.60441
     2.1664  109.79979    1.60347
     2.1694  110.11922    1.60917
     2.1724  110.46404    1.61507
     2.1754  107.16267    1.59078
     2.1784  110.65266    1.61627
     2.1814  109.79041    1.61161
     2.1844  107.84109    1.60015
     2.1874  109.93448    1.61738
     2.1904  109.77744    1.61472
    2.19339  107.84405    1.59896
    2.19639  107.10019    1.59532
     2.1994  108.63173    1.60905
    2.20241  107.14397    1.59952
    2.20541  108.55418    1.61073
    2.20842  108.10773    1.60818
    2.21142  104.96195    1.58561
    2.21443  108.33178    1.61187
    2.21743  104.36501    1.58347
    2.22044  104.89415    1.58894
    2.22344  104.53761    1.58737
    2.22644  103.38358    1.57934
    2.22944  104.29643      1.587
    2.23244  104.72348    1.59037
    2.23544  101.60017    1.56661
    2.23846  103.20528    1.57994
    2.24148  104.97266    1.59471
    2.24449   103.7002    1.58659
    2.24749  102.02895    1.57565
     2.2505  102.51488    1.58109
    2.25351  101.43759    1.57159
    2.25651  102.50394    1.57867
    2.25953  103.44385    1.58769
    2.26254  104.49822    1.59861
    2.26555  105.04677    1.60456
    2.26856  106.36261    1.61489
    2.27157  103.71356    1.59503
    2.27458  101.07021    1.57576
    2.27759    102.331    1.58677
     2.2806  100.26807    1.57149
    2.28362  104.44079     1.6045
    2.28664  102.52723    1.59057
    2.28965  100.35367    1.57477
    2.29267   99.33678    1.56791
    2.29568  102.30482    1.59231
     2.2987  101.90608    1.59034
    2.30171  102.71796      1.597
    2.30472    98.9176    1.56716
    2.30774   100.5607    1.58094
    2.31077    99.0723    1.57159
     2.3138   99.66648    1.57863
    2.31681  101.37773     1.5926
    2.31982  103.66711    1.61097
    2.32283  100.28419    1.58504
    2.32585   97.25172    1.56148
    2.32886   98.46709    1.57191
    2.33188   97.82205    1.56761
    2.33489   96.74827    1.55985
    2.33792    98.0133    1.57128
    2.34094   96.55752    1.56083
    2.34396   97.49539    1.57026
    2.34698   96.92295    1.56777
       2.35   94.01995    1.54526
    2.35301   94.25869    1.54689
    2.35602   97.19255    1.57048
    2.35904   94.50075    1.54961
    2.36207    94.0918    1.54728
    2.36509   94.43478    1.55082
    2.36812   95.70746    1.56186
    2.37114   93.43829    1.54428
    2.37416   93.12602    1.54334
    2.37719   95.66431    1.56574
    2.38021   93.69129    1.54909
    2.38323    95.6888     1.5651
    2.38626   92.86893    1.54332
    2.38929   93.18236     1.5481
    2.39232   91.71922    1.53722
    2.39535   92.05048    1.54018
    2.39838    92.2873    1.54263
     2.4014   91.12456    1.53525
    2.40442   91.25148     1.5387
    2.40744   89.59141    1.52486
    2.41046   91.26028    1.53863
    2.41349   89.65695    1.52488
    2.41653   86.70784    1.49965
    2.41956   86.71957    1.50008
     2.4226   88.25997    1.51521
    2.42563   86.78284    1.50433
    2.42866   86.80022    1.50553
    2.43169   86.40946    1.50306
    2.43472   86.82713    1.50691
    2.43776   82.49071    1.46837
    2.44079   85.26308    1.49286
    2.44383   83.86842    1.48214
    2.44688   84.17387    1.48637
    2.44992   83.72972    1.48409
    2.45295    86.3424    1.50875
    2.45599   86.71028    1.51264
    2.45902   87.00432    1.51524
    2.46206   85.82362    1.50545
     2.4651   87.61778    1.52292
    2.46814   85.86476    1.50942
    2.47117   87.19047    1.52079
    2.47421   85.72998    1.50775
    2.47725   83.63211    1.49034
    2.48029   86.38245    1.51642
    2.48333   83.14733    1.48881
    2.48637   82.29301    1.48113
    2.48941   82.83313    1.48605
    2.49246   85.67464    1.51264
     2.4955   82.90782    1.48931
    2.49855   82.92111    1.48979
     2.5016   81.72778    1.47913
    2.50465   80.92511    1.47258
     2.5077   82.06776    1.48431
    2.51075   83.10833    1.49484
    2.51379   80.41116    1.47055
    2.51683   82.15145    1.48655
    2.51988   78.96812    1.45962
    2.52294   79.07284    1.46306
    2.52599   82.85329    1.49803
    2.52903   85.04374     1.5167
    2.53208   84.78547    1.51427
    2.53513   84.10244    1.50979
    2.53818   88.73816    1.55252
    2.54123   92.13991    1.58228
    2.54429   88.44998    1.55056
    2.54735   88.13779    1.54842
    2.55042   90.75023    1.57192
    2.55347   87.90503    1.54768
    2.55652   85.88876    1.53032
    2.55957   87.04452    1.54115
    2.56264   85.73247    1.53045
     2.5657   86.08581    1.53456
    2.56876   84.58182    1.52233
    2.57183   81.12854    1.49218
    2.57489   80.59788    1.48848
    2.57795   83.11719    1.51272
    2.58101   83.37215    1.51611
    2.58406   85.95499    1.54032
    2.58712   87.01272    1.55059
    2.59018   85.52728    1.53661
    2.59324   86.27924    1.54267
    2.59631   83.04169    1.51486
    2.59939   88.92033     1.5697
    2.60246   88.90015    1.57032
    2.60552   90.13036    1.58075
    2.60859   88.53766    1.56685
    2.61166   88.38093    1.56703
    2.61473   88.30693    1.56794
     2.6178   87.93519    1.56554
    2.62088   87.31003    1.56085
    2.62395   85.41824     1.5444
    2.62702   81.50006      1.509
    2.63009   81.75227     1.5116
    2.63317   82.32121    1.51694
    2.63624   81.01441    1.50544
    2.63932    78.2179    1.48162
     2.6424    78.8942    1.49043
    2.64548   80.40424    1.50453
    2.64856   77.08106    1.47283
    2.65163   80.36031     1.5037
    2.65471    79.7355    1.49779
     2.6578   80.09289    1.50186
    2.66088   77.81078    1.48191
    2.66397   75.75254    1.46356
    2.66705    77.3052      1.479
    2.67013   79.08672    1.49647
    2.67322   77.47971    1.48234
    2.67631   74.02759    1.45013
    2.67939   76.04483    1.47086
    2.68248   75.24264    1.46413
    2.68556   75.74809     1.4698
    2.68864   77.27322    1.48493
    2.69172   74.36749    1.45735
     2.6948   72.72277    1.44267
    2.69788   72.21811    1.43919
    2.70097   74.56718    1.46295
    2.70405   72.02679    1.43824
    2.70714   73.93791    1.45791
    2.71022   71.57797     1.4353
    2.71331   72.08537    1.44084
    2.71639   72.08794    1.44089
    2.71948   71.68851    1.43722
    2.72257   69.65469    1.41828
    2.72567   72.90819    1.45265
    2.72876   71.72353    1.44199
    2.73184   72.01505     1.4461
    2.73493   74.79423    1.47423
    2.73801   72.84328    1.45512
    2.74109    73.7121    1.46461
    2.74418   72.83858    1.45735
    2.74726   68.86052    1.41837
    2.75034   73.01883    1.46184
    2.75343   65.90363    1.38999
    2.75651   71.33718    1.44596
     2.7596   70.02897    1.43245
    2.76268    69.9688    1.43302
    2.76577   69.09557    1.42564
    2.76885   69.94087    1.43546
    2.77194   67.05543    1.40617
    2.77502   66.82827    1.40419
    2.77811   66.29939    1.39834
    2.78119   68.98931    1.42618
    2.78429   65.00404    1.38589
    2.78738   66.86436    1.40713
    2.79047   66.16227    1.40106
    2.79356   66.96893    1.41089
    2.79665   66.99506    1.41175
    2.79973   66.10928    1.40246
    2.80282   67.08312    1.41361
     2.8059     65.715    1.40137
    2.80899   64.43463    1.38963
    2.81207    66.3586    1.41061
    2.81515   68.67484    1.43541
    2.81822   65.93783    1.40676
     2.8213    67.8509    1.42725
    2.82438   65.96259    1.40825
    2.82747   65.37909    1.40349
    2.83056   65.89844     1.4101
    2.83364   63.35941    1.38295
    2.83673   62.30144    1.37167
    2.83982   61.62339     1.3647
    2.84291   64.05969    1.39194
    2.84599    63.3043    1.38538
    2.84908   61.30643    1.36506
    2.85216   59.26458    1.34346
    2.85525   60.34379    1.35681
    2.85833   59.97191    1.35359
     2.8614   59.54952    1.34957
    2.86448   58.25468     1.3354
    2.86756   60.25738    1.35831
    2.87064   60.27427    1.35869
    2.87372   57.48536    1.32792
     2.8768    58.6817    1.34272
    2.87988   58.64079    1.34319
    2.88296    56.1946    1.31578
    2.88604   57.55609    1.33205
    2.88912   58.02556    1.33755
     2.8922   57.32584    1.32993
    2.89528     59.106    1.35172
    2.89836   60.95794     1.3741
    2.90144   63.09832    1.39977
    2.90452   64.43986    1.41635
     2.9076   67.16123    1.44608
    2.91067   70.63814    1.48293
    2.91375    66.9455    1.44479
    2.91682   66.92552    1.44638
    2.91989   69.10274    1.47127
    2.92296   69.52599    1.47694
    2.92603   71.71831    1.50099
    2.92911   70.90424    1.49247
    2.93218   71.78686    1.50176
    2.93525   69.04809    1.47379
    2.93832    66.3029    1.44513
    2.94139   67.55633    1.46036
    2.94446   65.03906    1.43472
    2.94753   65.93821    1.44544
     2.9506   65.47387    1.44012
    2.95367   63.75042    1.42125
    2.95674   61.63078    1.39889
    2.95981   61.05944    1.39385
    2.96288   60.94521    1.39342
    2.96595   58.11929    1.36159
    2.96902   59.36221     1.3768
    2.97209   59.10266    1.37448
    2.97515   57.47951    1.35594
    2.97822   59.00992    1.37418
    2.98129   55.70177    1.33573
    2.98436   56.75856    1.34948
    2.98743   58.80791    1.37471
     2.9905   58.22174     1.3685
    2.99357   56.73295    1.35155
    2.99664   54.68222    1.32702
     2.9997   54.14178    1.32053
    3.00277   52.02672    1.29501
    3.00585   54.44276    1.32551
    3.00892   54.53842    1.32784
    3.01199   53.28052    1.31407
    3.01507   49.52042    1.26809
    3.01813    54.4068    1.32937
     3.0212   53.35149    1.31662
    3.02427   53.89469    1.32399
    3.02734   51.24824    1.29174
    3.03042    52.2368     1.3047
    3.03349   51.03986    1.29019
    3.03656   49.07127    1.26575
    3.03963   49.65629    1.27408
     3.0427   49.88424    1.27782
    3.04578   49.68884    1.27617
    3.04885   48.22811    1.25789
    3.05193   47.45524    1.24753
      3.055   46.84797    1.23929
    3.05808   45.08011    1.21661
    3.06116    44.4249    1.20865
    3.06423   42.03831    1.17731
     3.0673    44.4132    1.21192
    3.07037   41.02956    1.16563
    3.07344   42.38716    1.18476
    3.07651   43.11874    1.19498
    3.07958   40.47825    1.15794
    3.08265   42.44934    1.18603
    3.08573   39.56373    1.14593
    3.08881   38.23127    1.12738
    3.09189   38.96109    1.13855
    3.09497   38.09151     1.1262
    3.09804   39.16898    1.14219
    3.10112   37.80898    1.12227
     3.1042   38.59242    1.13458
    3.10728     38.146    1.12929
    3.11036   40.55325    1.16534
    3.11344   41.00835    1.17215
    3.11652   42.64209    1.19562
    3.11959   47.22901     1.2591
    3.12267    50.7187    1.30564
    3.12574   53.64821    1.34331
    3.12882   54.59295    1.35554
     3.1319   56.33318    1.37767
    3.13498   58.08565    1.39976
    3.13806    62.4265    1.45178
    3.14115   59.08987    1.41292
    3.14423   61.06971    1.43703
    3.14732   59.49132    1.41928
     3.1504   60.92135    1.43713
    3.15348   59.27256     1.4181
    3.15656   56.97613     1.3909
    3.15965     60.969    1.43945
    3.16273   59.56085    1.42337
    3.16581   59.09756    1.41839
     3.1689   58.59793    1.41292
    3.17198    59.5543    1.42525
    3.17507   62.75116    1.46409
    3.17815    60.3492    1.43648
    3.18124   64.07829    1.48022
    3.18432   60.91494    1.44342
    3.18741   62.88606    1.46764
     3.1905   62.80477    1.46774
    3.19359   59.97259    1.43526
    3.19668   61.70721    1.45688
    3.19977   60.68231    1.44523
    3.20286   61.05908    1.45009
    3.20595   60.79692    1.44755
    3.20904   61.37038    1.45503
    3.21212   58.69576    1.42358
    3.21521    55.9785     1.3908
    3.21831   57.40588    1.40897
     3.2214   55.92635    1.39122
     3.2245   53.92755    1.36668
     3.2276   54.15986    1.37037
    3.23069   54.04559    1.36967
    3.23378   53.09345     1.3578
    3.23688   51.85989    1.34215
    3.23997   52.81476    1.35556
    3.24307   52.26319    1.34988
    3.24617   52.39308    1.35233
    3.24927   50.04329    1.32197
    3.25237    47.2577    1.28476
    3.25547   48.57368    1.30238
    3.25857   47.37178    1.28644
    3.26167   48.24686     1.2997
    3.26477   47.19032    1.28674
    3.26787   45.03503    1.25778
    3.27097    47.9392     1.2985
    3.27407   49.29439    1.31698
    3.27717   45.33421    1.26319
    3.28027   50.38053    1.33228
    3.28337   50.78895    1.33841
    3.28647   49.40684    1.32093
    3.28957   53.64894    1.37743
    3.29267   53.67818    1.37863
    3.29577   57.02828    1.42171
    3.29887   57.47971    1.42809
    3.30197   61.63604    1.47974
    3.30507   65.12762    1.52202
    3.30817   65.67773    1.52946
    3.31127   66.44328    1.53938
    3.31437   70.71803    1.58767
    3.31747   70.10433    1.58027
    3.32058   71.44883    1.59645
    3.32369   69.75347     1.5788
     3.3268   69.74812    1.57989
     3.3299   66.90186    1.54834
    3.33301   68.33784    1.56572
    3.33611   65.84985    1.53764
    3.33921   64.02817    1.51676
    3.34232    61.1443    1.48253
    3.34542   60.12091    1.47074
    3.34852   55.10767    1.40978
    3.35161   56.46302    1.42864
    3.35471   56.45994    1.42902
    3.35781   54.71982    1.40724
    3.36091   55.28766    1.41531
    3.36401   53.86523     1.3978
    3.36712   58.06272    1.45111
    3.37022   60.27473    1.47805
    3.37332   59.17572    1.46482
    3.37644   59.81861    1.47353
    3.37954   59.05895    1.46552
    3.38265   62.94326    1.51506
    3.38576   65.17245      1.543
    3.38886   63.84746    1.52712
    3.39196   64.45107    1.53455
    3.39507   62.85448    1.51688
    3.39817   66.53005    1.56207
    3.40127   67.82271    1.57813
    3.40437    66.2876    1.56111
    3.40747   65.69076     1.5544
    3.41057   64.68236    1.54268
    3.41367   64.96649    1.54638
    3.41678    64.5163    1.54135
    3.41989   63.18656    1.52578
      3.423   64.80788    1.54568
    3.42611   64.68529    1.54539
    3.42922   62.92664     1.5262
    3.43233   60.21928    1.49432
    3.43543   58.56725    1.47389
    3.43854   60.88463    1.50298
    3.44164   57.56331    1.46164
    3.44475   54.21425    1.41885
    3.44786   55.49548    1.43721
    3.45096   56.03641    1.44589
    3.45406    58.1347     1.4733
    3.45716   57.31815    1.46346
    3.46027   54.73016     1.4304
    3.46338   58.75641    1.48241
    3.46649   58.22818    1.47614
     3.4696   55.53123      1.442
    3.47271   55.94856    1.44797
    3.47582   58.99895    1.48758
    3.47893   57.58484    1.47074
    3.48203   57.30671    1.46892
    3.48514   56.64159    1.46151
    3.48825    54.3592     1.4315
    3.49136   53.38309    1.41864
    3.49447   52.96521    1.41454
    3.49758   50.34454    1.38047
    3.50069    47.4148    1.34002
    3.50379   41.98162    1.26122
    3.50691   41.86126    1.25931
    3.51002   39.58069    1.22441
    3.51313   34.39086    1.14256
    3.51624   33.79683    1.13415
    3.51934   32.23958    1.10842
    3.52245   32.37728    1.11119
    3.52555   34.74371    1.15174
    3.52866   35.33146    1.16232
    3.53177   40.76434    1.24912
    3.53487   44.33863    1.30295
    3.53798   46.53672    1.33508
    3.54109   51.41888    1.40361
    3.54421   55.78484    1.46246
    3.54731    54.5447    1.44747
    3.55042   58.29476    1.49769
    3.55353   59.85684    1.51792
    3.55665   60.84264    1.53066
    3.55976    56.3597     1.4745
    3.56287   59.78408    1.51999
    3.56598   56.17585    1.47373
    3.56909   52.20712     1.4209
    3.57219    52.3122    1.42323
     3.5753   47.81908    1.36182
    3.57841   44.64537    1.31652
    3.58152   39.58559    1.24008
    3.58463   38.75145    1.22727
    3.58774   34.29524    1.15478
    3.59085   34.09295    1.15189
    3.59396   33.72279    1.14661
    3.59707   33.22068    1.13879
    3.60018   34.32444    1.15773
     3.6033    32.2342    1.12225
    3.60642   34.83237    1.16758
    3.60953    33.3999    1.14426
    3.61264   33.12761     1.1403
    3.61575   32.69744    1.13358
    3.61886   32.53882     1.1308
    3.62197   33.79492     1.1524
    3.62508   33.44861    1.14728
    3.62819   31.88566    1.12104
     3.6313   32.78159    1.13718
    3.63441   31.53952    1.11579
    3.63752     32.764    1.13794
    3.64064   32.69688    1.13767
    3.64375   33.60606    1.15336
    3.64687   35.85138    1.19043
    3.64998   33.92288    1.15811
    3.65311   36.14018    1.19672
    3.65623   38.39687    1.23476
    3.65934   39.60953    1.25508
    3.66246   41.76736    1.28958
    3.66557   43.65165    1.31855
    3.66869   42.80041    1.30601
    3.67181   44.03502     1.3259
    3.67492   44.62266    1.33574
    3.67803   46.47333    1.36274
    3.68115   45.84837    1.35317
    3.68427   43.98229    1.32672
    3.68739   44.47447     1.3355
     3.6905   42.13458    1.30092
    3.69361   40.46958    1.27594
    3.69673   37.05712    1.22041
    3.69985   35.47671    1.19321
    3.70297   33.93208    1.16799
    3.70609   32.71073    1.14863
    3.70921   32.86223    1.15182
    3.71232   32.36207    1.14274
    3.71544   32.27613    1.14185
    3.71856   32.88135    1.15391
    3.72168   37.27658    1.22964
     3.7248   40.26937    1.27855
    3.72792   42.81364    1.31875
    3.73104   45.22857    1.35571
    3.73416   50.22297    1.42912
    3.73728    57.0151    1.52379
    3.74039   60.90221    1.57564
    3.74351   67.66484    1.66027
    3.74662   68.74017    1.67311
    3.74974   70.43781    1.69545
    3.75287   74.30874    1.74326
    3.75599   74.49513    1.74619
    3.75911    75.2964    1.75631
    3.76223   78.88387    1.79886
    3.76535   81.99029    1.83519
    3.76847   81.61953    1.83241
    3.77159   83.14436    1.85085
     3.7747   80.67625    1.82322
    3.77782   74.14402    1.74759
    3.78094   74.14103    1.74849
    3.78406   73.80248    1.74586
    3.78718   69.58086    1.69609
     3.7903   64.58943    1.63478
    3.79342   64.09811    1.62914
    3.79653   58.13295    1.55201
    3.79965   58.26686    1.55447
    3.80277   51.43901    1.46136
    3.80589   48.29038    1.41663
    3.80901   45.25338    1.37194
    3.81214   45.91692    1.38256
    3.81526   40.29144    1.29569
    3.81838   41.46063    1.31505
     3.8215   41.10568     1.3104
    3.82462   42.03524    1.32596
    3.82774   41.29332    1.31438
    3.83086   43.06839    1.34261
    3.83399   46.38957    1.39427
    3.83711   48.66548    1.42887
    3.84023   51.32414     1.4676
    3.84335   57.63791    1.55551
    3.84647   54.88393    1.51871
    3.84959   57.71931    1.55827
    3.85271   57.56475    1.55808
    3.85583   63.03808    1.63254
    3.85895   60.03095    1.59306
    3.86207   62.49124    1.62493
    3.86519   57.66295    1.56131
    3.86832   59.82507    1.59096
    3.87144   62.58856    1.62801
    3.87456   58.36517    1.57285
    3.87769   58.87917     1.5804
    3.88081   56.71666     1.5517
    3.88394   54.10352    1.51699
    3.88706   54.75388    1.52803
    3.89019    51.7575    1.48608
    3.89331    50.1431     1.4622
    3.89643   51.44231    1.48193
    3.89956   46.62114    1.41276
    3.90268   41.89851    1.33977
     3.9058   43.85155    1.36969
    3.90892   45.43644    1.39425
    3.91204   49.54965    1.45734
    3.91516   48.89424    1.44876
    3.91829   49.40925      1.457
    3.92141   53.65924    1.51893
    3.92453   56.47679    1.55861
    3.92766   60.87467    1.61887
    3.93079   64.16859    1.66405
    3.93391    68.4771    1.72055
    3.93703   70.95293    1.75099
    3.94016    70.7801    1.74886
    3.94329   79.52008    1.85584
    3.94642   81.89245     1.8852
    3.94954   81.91302    1.88518
    3.95266   83.02463    1.89774
    3.95579     80.041    1.86394
    3.95892   83.22583    1.90134
    3.96204   85.14468    1.92519
    3.96516   81.70592    1.88792
    3.96829   80.72236    1.87625
    3.97141   76.89812    1.83091
    3.97453   70.20625    1.75133
    3.97766   70.94959    1.76276
    3.98078   69.64584    1.74606
     3.9839   64.37529     1.6779
    3.98703   66.33892    1.70493
    3.99017   61.41081    1.64245
    3.99329   63.07863    1.66574
    3.99642   57.95058    1.59746
    3.99954   56.07147    1.57155
    4.00267   57.34921    1.58936
     4.0058   54.49882    1.55016
    4.00893   53.73684    1.54038
    4.01205   51.25388    1.50487
    4.01517   43.49205    1.38648
    4.01829   42.69384    1.37436
    4.02142   43.01755     1.3805
    4.02454     40.573     1.3413
    4.02767   36.95741     1.2805
     4.0308   37.48029    1.29012
    4.03393   33.79208    1.22577
    4.03706   30.89509    1.17276
    4.04018   32.62561    1.20588
    4.04331   33.41542    1.22097
    4.04644   31.20753    1.18038
    4.04957   33.02467    1.21483
    4.05269   34.36147    1.23991
    4.05582   35.22836    1.25576
    4.05894   37.67589     1.2984
    4.06207   40.46024    1.34569
    4.06519   41.84993    1.36937
    4.06832   43.10184    1.39038
    4.07145   43.40211    1.39572
    4.07458   47.93842    1.46758
    4.07771   46.84593    1.45193
    4.08084   48.75673    1.48225
    4.08397     51.678    1.52656
     4.0871   48.83425     1.4846
    4.09023   50.38542    1.50892
    4.09335   52.16429    1.53624
    4.09648   55.70708    1.58839
    4.09961   54.54267    1.57255
    4.10274   56.19112    1.59701
    4.10587   60.82167    1.66214
      4.109   64.34438    1.70933
    4.11213   65.34946    1.72271
    4.11526   68.81216    1.76907
    4.11839   69.67515    1.78128
    4.12152   73.72577    1.83286
    4.12465   73.04782    1.82506
    4.12778   70.62163    1.79553
    4.13091   72.67024    1.82246
    4.13404   70.24735    1.79298
    4.13716   69.18932    1.78054
    4.14029   64.70693    1.72261
    4.14342   66.09666     1.7418
    4.14655   66.93327    1.75413
    4.14968    66.2386    1.74615
    4.15281   63.93674    1.71492
    4.15594   63.21484    1.70478
    4.15908   61.88987    1.68818
    4.16221   67.97962    1.77064
    4.16534   64.64693    1.72715
    4.16847   65.46869    1.73858
    4.17161   67.84521    1.77075
    4.17474   69.81264    1.79717
    4.17786   73.57384    1.84628
    4.18099   72.00531    1.82776
    4.18412   76.61945     1.8851
    4.18725   74.55632    1.85927
    4.19038   78.57362    1.91189
    4.19351   79.30003    1.92387
    4.19664   82.69703    1.96342
    4.19977   89.30152    2.03908
    4.20291    90.9848     2.0604
    4.20604   90.56718    2.05781
    4.20918   95.20605    2.10945
    4.21231   89.98813    2.05049
    4.21544    92.0995    2.07661
    4.21858   98.20318    2.14655
    4.22171   89.93326    2.05458
    4.22484   91.33112     2.0709
    4.22797    87.6017    2.02904
     4.2311   84.47752    1.99337
    4.23423   81.47915    1.95952
    4.23735   77.00624    1.90677
    4.24048   72.83652    1.85424
    4.24361   69.41924    1.80998
    4.24675   66.31409    1.77042
    4.24988   63.01242    1.72718
    4.25301   56.98614    1.64163
    4.25614    57.8683    1.65338
    4.25928   53.62495    1.59313
    4.26242   57.99534    1.65836
    4.26555    56.8111    1.64205
    4.26868   55.19885     1.6193
    4.27182   58.06012    1.66226
    4.27496   62.69381    1.72887
    4.27809   62.66835    1.72948
    4.28122   64.40572     1.7542
    4.28435   64.82112    1.75965
    4.28748    65.8184    1.77306
    4.29061   62.39485    1.72787
    4.29374   61.97063     1.7234
    4.29687   58.73821    1.67687
        4.3   55.08872    1.62307
    4.30314   55.34488     1.6285
    4.30628   50.60378     1.5587
    4.30942   48.26746    1.52255
    4.31255   44.30289    1.45904
    4.31569    38.4345    1.36057
    4.31883   37.40823    1.34374
    4.32195   33.76288    1.27703
    4.32508   29.82129    1.20056
    4.32822    28.8639    1.18132
    4.33135   23.50603    1.06626
    4.33449   22.65091    1.04704
    4.33762    20.1484    0.98786
    4.34075    21.1346    1.01216
    4.34388   19.11412    0.96296
    4.34702   22.13676    1.03665
    4.35016   18.36516     0.9446
    4.35329   17.86074    0.93232
    4.35643   20.71564    1.00486
    4.35956   16.29545    0.89165
     4.3627   17.87432    0.93431
    4.36583    15.7436    0.87736
    4.36897   14.82727     0.8518
     4.3721   16.78199    0.90614
    4.37523   13.89779    0.82468
    4.37837   14.35473    0.83861
    4.38151   16.08409     0.8881
    4.38464   15.20632    0.86366
    4.38778    17.0804    0.91561
    4.39091   17.59181    0.92976
    4.39405   20.56714    1.00597
    4.39718   20.74832    1.01121
    4.40032   23.04603    1.06644
    4.40345   25.28456    1.11743
    4.40659   26.89221    1.15299
    4.40972   29.46044    1.20776
    4.41286   32.70472    1.27303
    4.41599   38.43393     1.3797
    4.41913   40.88151    1.42331
    4.42227   44.23454    1.48191
     4.4254   48.34486    1.54986
    4.42854   54.88114    1.65098
    4.43168   56.09672    1.66952
    4.43482   63.97706    1.78404
    4.43795   63.06361     1.7724
    4.44109   68.18587    1.84421
    4.44422   67.55306    1.83652
    4.44735   67.69743    1.83909
    4.45049     62.723    1.77124
    4.45362   60.91604    1.74689
    4.45676   59.53344    1.72724
     4.4599   56.59926    1.68373
    4.46304   53.27218     1.6347
    4.46618   46.77269    1.53374
    4.46931   41.59762    1.44649
    4.47245    35.4248    1.33418
    4.47559   32.05987    1.27026
    4.47873   26.39119    1.15401
    4.48186   22.50134    1.06547
      4.485   18.09419    0.95498
    4.48814   18.78523    0.97397
    4.49128   18.32647    0.96322
    4.49442   17.72916    0.94766
    4.49756   17.83593    0.95066
    4.50069   16.83613      0.924
    4.50383   18.17009    0.96032
    4.50696   19.91945    1.00608
    4.51009   17.45073    0.94225
    4.51323   16.89306    0.92713
    4.51637   20.55808     1.0228
    4.51951    21.6544    1.05039
    4.52265   20.86367    1.03164
    4.52579    21.4655    1.04616
    4.52893   23.90872      1.104
    4.53207   24.11308    1.10989
    4.53521   23.64617    1.10012
    4.53835   25.75879    1.14853
    4.54148   23.87965     1.1062
    4.54462   24.82701     1.1285
    4.54776   26.59593    1.16856
     4.5509   26.92435     1.1762
    4.55403   23.86214    1.10777
    4.55717   21.62368    1.05513
    4.56031   20.41103    1.02569
    4.56345   17.28641    0.94446
    4.56659   15.13178    0.88401
    4.56973   12.34768     0.7987
    4.57287     8.5824    0.66612
    4.57601    7.24633    0.61243
    4.57915    4.40271    0.47754
    4.58229    3.31608    0.41451
    4.58543    3.26746    0.41166
    4.58857    2.07757    0.32849
    4.59171    2.59891    0.36754
    4.59485    2.13191    0.33295
    4.59799    2.02991    0.32505
    4.60112    2.39722    0.35345
    4.60426    1.66916    0.29507
     4.6074    2.45356    0.35789
    4.61054    1.98492      0.322
    4.61368    2.66541    0.37323
    4.61682    2.24932    0.34302
    4.61996    2.46093    0.35896
     4.6231    1.88675    0.31446
    4.62624    2.20328    0.33997
    4.62939    2.62385    0.37107
    4.63253    2.57232    0.36747
    4.63567    2.20702    0.34055
    4.63881    3.57662    0.43373
    4.64195    3.42087    0.42431
    4.64509    2.73902    0.37983
    4.64823    4.22166      0.472
    4.65137    4.06877    0.46368
    4.65451    5.17849    0.52311
    4.65765    6.45012    0.58397
    4.66079    5.61259    0.54514
    4.66393    5.72364    0.55076
    4.66707    5.51144    0.54044
    4.67021     5.4106    0.53573
    4.67336    6.64559     0.5944
     4.6765    5.79959     0.5555
    4.67964    5.21126    0.52642
    4.68278    4.89675    0.51052
    4.68593    5.75976    0.55423
    4.68907    5.22584    0.52789
    4.69221    6.12542     0.5712
    4.69535    6.61281    0.59385
     4.6985    7.58778    0.63675
    4.70164    5.99304    0.56629
    4.70479    7.92946     0.6518
    4.70792    8.52684    0.67622
    4.71106    9.50081    0.71412
     4.7142   11.86756     0.7983
    4.71734   11.65748    0.79136
    4.72048   12.09464    0.80631
    4.72363   12.58765    0.82288
    4.72677   14.17341    0.87397
    4.72991   14.78556    0.89323
    4.73306   15.68881    0.91969
     4.7362   17.25047    0.96433
    4.73935   18.79659     1.0076
    4.74249     19.092    1.01616
    4.74563   19.20478    1.01928
    4.74877   19.87127    1.03727
    4.75191   22.23696    1.09821
    4.75505    21.4936    1.08009
    4.75819   21.38142    1.07718
    4.76134   18.78992    1.01015
    4.76448   19.84854    1.03892
    4.76762   18.77427    1.01077
    4.77077   18.07362    0.99192
    4.77391   15.75867    0.92698
    4.77706   14.91708    0.90282
     4.7802   12.58324    0.82971
    4.78334   13.85686    0.87117
    4.78648   11.33117    0.78757
    4.78963   10.66794    0.76395
    4.79277   10.18683    0.74693
    4.79592   12.06236    0.81324
    4.79906     8.8925    0.69866
    4.80221    8.51796    0.68418
    4.80535    8.08724    0.66702
     4.8085    8.25869    0.67432
    4.81164    6.71788    0.60821
    4.81478    6.17198     0.5832
    4.81792    6.95485    0.61959
    4.82107     7.2363    0.63224
     4.8242    7.29086    0.63459
    4.82735    8.56643    0.68807
    4.83049   10.34626    0.75659
    4.83364   14.67177    0.90128
    4.83679   14.23569      0.888
    4.83993    18.8499    1.02228
    4.84308   24.19661    1.15881
    4.84622   28.44873    1.25727
    4.84937   33.10151    1.35703
    4.85251   34.24254    1.38079
    4.85566   38.95043    1.47324
     4.8588   39.24785    1.47921
    4.86195   37.88105    1.45374
    4.86509   39.45535    1.48492
    4.86823    38.9568    1.47665
    4.87137   36.64566    1.43296
    4.87451   36.05885    1.42202
    4.87765   32.64955    1.35337
    4.88079   32.88264    1.35837
    4.88393   30.69897    1.31259
    4.88708   32.37123     1.3488
    4.89022   34.08226    1.38564
    4.89336   35.14581    1.40809
     4.8965   35.17773    1.40937
    4.89963   39.92722    1.50162
    4.90277   36.93182    1.44415
    4.90592   35.10346    1.40752
    4.90907   37.78674    1.45983
    4.91221    37.7737    1.46151
    4.91536   35.42948    1.41718
     4.9185   35.62847    1.42173
    4.92164   34.06938    1.39088
    4.92478   32.28599    1.35469
    4.92792   32.06995    1.35039
    4.93107   29.93602    1.30403
    4.93421   31.89734    1.34671
    4.93736   30.12258    1.31092
    4.94049   31.81685    1.34812
    4.94363   32.37103    1.35946
    4.94677   30.78781    1.32612
    4.94991     30.821    1.32755
    4.95306   30.70166    1.32487
     4.9562   28.79783    1.28276
    4.95935   25.42822    1.20677
    4.96249   27.28022     1.2517
    4.96563   21.95371    1.12325
    4.96877   20.47182      1.085
    4.97191   19.44516    1.05768
    4.97506   18.64479    1.03582
     4.9782   15.35982    0.94001
    4.98134    13.2414    0.87311
    4.98449   12.53008     0.8506
    4.98763   12.49804    0.85038
    4.99077    13.7253    0.89155
    4.99391   11.12079    0.80257
    4.99705   11.75211    0.82484
    5.00019   10.13027    0.76578
    5.00334    9.72644    0.75041
    5.00649    8.46556    0.70061
    5.00964    8.71425    0.71152
    5.01278     7.7379    0.67096
    5.01592    5.70933    0.57673
    5.01906    5.06591    0.54312
     5.0222    6.11187    0.59646
    5.02535    4.19295    0.49414
    5.02849    4.60462    0.51806
    5.03164    3.50375    0.45233
    5.03479     3.0412    0.42174
    5.03793    2.45889    0.37942
    5.04107    3.10536    0.42655
    5.04421     2.3451    0.37079
    5.04736    1.81762    0.32645
     5.0505    1.11387    0.25554
ENDDATA           1040
ENDSUBENT         1053
ENDENTRY             3
