ENTRY            O1379   20191208   20200302   20200301       O073
SUBENT        O1379001   20191208   20200302   20200301       O073
BIB                 13         87
TITLE      Electron screening in d(d,p)t for deuterated metals:
           temperature effects.
REFERENCE  (J,JP/G,31,1141,2005)
           (J,EPJ/AS,27,(S01),79,2006) same result.
           (T,RAIOLA,2005) Ruhr university.
AUTHOR     (F.Raiola, B.Burchard, Z.Fuelop, G.Gyurky, S.Zeng,
           J.Cruz, A.Di Leva, B.Limata, M.Fonseca, H.Luis,
           M.Aliotta, H.W.Becker, C.Broggini, A.D'Onofrio,
           L.Gialanella, G.Imbriani, A.P.Jesus, M.Junker,
           J.P.Ribeiro, V.Roca, C.Rolfs, M.Romano, E.Somorjai,
           F.Strieder, F.Terrasi)
INSTITUTE  (2GERBOC,3HUNDEB,3CPRAEP,2PRTLIS,2ITYNAP,2UK EDG,
           2ITYPAD,2ITYFSN,2ITYLGS)
SAMPLE     Target holder consists of a diamond plate coated with a
           metallic layer (area = 20X20 mm2, thickness t=1 mm)
           and heated by current flow.  A given metal sheet (a =
           15X17 mm2) is placed on top of the diamond plate with
           interim plates (from bottom to top) of MACOR (t = 1
           mm), Cu (t = 3 mm) and MACOR (t=1 mm).  At the centre
           of the top MACOR plate there is a hole of = 5 mm
           diameter, filled with another diamond of cylindrical
           shape and 2 mm height: it provides the thermal contact
           to the metal foil.  The metal foil is electrically
           insulated for current measurement.  Thermal elements
           measure the temperature at the diamond plate and the
           metal foil (near the area of the ion beam spot).  For
           example, for t=340 centigrade the diamond plate had  to
           have a temperature of 750 centigrade, which was the
           maximum for the present set-up;  above these
           temperatures, the insulators started to lose their
           electrical insulations more and more.
           In the first step, the surface of a given sample was
           cleaned "in situ" by Kr sputtering at 35 keV removing
           typically about 300 monolayers.
COMMENT    -By authors. Summary of results. See Rel-Ref
           description: temperature (temp) in centigrade.
           Ue - screening potential energy (eV).
           N/Eff - a number of valence electrons per metallic atom
           material   Temp       Ue         solubility     N/Eff
             Pt        20      675+/-70        0.06
                      100      530+/-40        0.06
                      200      530+/-40        0.05
                      300      465+/-38        0.04
                      340      480+/-70        0.04
             Co        20      640+/-70        0.14
                      200      480+/-60        0.02
             Ti       -10      <30             2.1
                       50      <50             1.1
                      100      250+/-40        0.26
                      150      295+/-40        0.23
                      200      290+/-65        0.20     1.7+/-0.7
             Sc       200      320+/-50        0.11      2.6+/-0.8
             Y        200      270+/-75        0.09      2.6+/-1.4
             Zr       200      205+/-70        0.13      1.1+/-0.7
             Lu       200      265+/-70        0.08      2.2+/-1.2
             Hf       200      370+/-70        0.04      4.0+/-1.5
             La       200      245+/-70        0.09      2.4+/-1.4
             Ce       200      200+/-50        0.11      1.5+/-0.7
             Nd       200      190+/-50        0.08      1.4+/-0.7
             Sm       200      314+/-60        0.08      3.5+/-1.3
             Eu       200      120+/-60        0.05      0.8+/-0.8
             Gd       200      340+/-85        0.08      4.2+/-2.1
             Tb       200      340+/-80        0.18      3.9+/-1.8
             Dy       200      340+/-70        0.09      4.9+/-2.0
             Ho       200      165+/-50        0.07      0.9+/-0.5
             Er       200      360+/-80        0.05      4.3+/-1.9
             Tm       200      260+/-80        0.05      2.2+/-1.4
             Yb       200      110+/-40        0.13      0.4+/-0.3
             C        200        <50           0.15
           -by authors.  The absolute beam energy uncertainty
           leads to a negligible uncertainty in the d(d,p)t cross
           section (e.g.  0.7% at ed = 4 keV).
PART-DET   (P)
DETECTOR   (SIBAR) The Si detectors were cooled to 0 centigrade.
FACILITY   (ACCEL,2GERBOC) 100-kV accelerator.
METHOD     (EXTB,SITA,BCINT)
           The beam current on target was kept below 2 muA leading
           to a negligible influence on the target temperature
            (less than 2 centigrade variation).
ADD-RES    (THEO)
STATUS     (CURVE) Figs 1,4 from J.Phys.,G31(2005)1141
HISTORY    (20060418C) CAJaD
           (20060602A) Reaction lines are corrected.
           (20070404A) Reference are corrected
           (20090828A).Correction in author' list has been done,
           according V.Zerkin remarks.
           (20191208U) SD: Ref. EPJ/AS,27,(S01),79,2006 added.
ENDBIB              87
NOCOMMON             0          0
ENDSUBENT           90
SUBENT        O1379002   20060602   20060720   20060703       O026
BIB                  2          2
REACTION   (1-H-2(D,P)1-H-3,,SIG/TMP,,SFC)
MISC-COL   (MISC) The solubility of hydrogen in Pt.
ENDBIB               2
COMMON               2          3
EN-ERR     EN-ERR-DIG
PER-CENT   PER-CENT
       0.03        1.2
ENDCOMMON            3
DATA                 5         40
EN-CM      TEMP       DATA       DATA-ERR   MISC
KEV        DEG-C      B*KEV      B*KEV      NO-DIM
       3.87       300.        90.         5.       0.05
       4.14        20.       135.        12.       0.04
       4.36        20.       121.        10.
       4.63        20.       101.        10.
       4.73       300.        79.         4.
       4.86        20.       116.        11.
        5.3        20.        92.         6.
       5.49       300.        72.         5.
       5.76        20.        87.         9.
       6.26        20.        77.         8.
       6.27       300.       68.2        3.6
       6.74        20.        77.         8.
       7.22       300.        68.         3.
       7.32        20.        78.         8.
        7.7        20.        76.         6.
       7.97       300.       64.5        2.8
       8.22        20.        76.         9.
        8.8        20.        67.         5.
       8.81       300.        61.        2.3
        9.3        20.        81.        11.
       9.64       300.       62.1         3.
        9.7        20.        75.         5.
      10.57       300.       56.5        1.6
      10.81        20.        73.         7.
      11.29       300.       58.6        2.1
      11.83        20.        76.         6.
      11.96       300.       58.6        2.1
      12.16       300.       56.9         2.
      12.26        20.        59.         9.
      12.88        20.        57.         6.
       13.1       300.       55.5        1.8
      13.19        20.        67.         7.
      13.99       300.       55.5        2.1
      14.12        20.        52.         5.
      15.07       300.       55.6         2.
      16.79       300.       52.1        2.5
      18.08       300.       53.5         3.
      19.32       300.        53.         3.
      20.47       300.       52.5        2.3
      21.87       300.        53.         3.
ENDDATA             42
ENDSUBENT           53
SUBENT        O1379003   20060602   20060720   20060703       O026
BIB                  2          2
REACTION   (1-H-2(D,P)1-H-3,,SIG/TMP,,SFC)
MISC-COL   (MISC) The solubility of hydrogen in hafnium.
ENDBIB               2
COMMON               2          3
EN-ERR     EN-ERR-DIG
PER-CENT   PER-CENT
       0.03        0.7
ENDCOMMON            3
DATA                 5         24
EN-CM      TEMP       DATA       DATA-ERR   MISC
KEV        DEG-C      B*KEV      B*KEV      NO-DIM
      3.853       200.        81.         8.       0.08
       4.17        20.        46.         4.        1.8
       4.38        20.        39.         5.
       4.63       200.        75.         6.
       4.66        20.       39.8        2.8
       5.09        20.       38.3        2.8
       5.53       200.        72.         4.
       5.72        20.        41.         8.
       6.29        20.        46.         4.
       6.32       200.        62.         5.
       7.03        20.        49.         3.
       7.14       200.        63.         4.
       7.99       200.        61.         4.
       8.31        20.       48.3        2.6
       8.68       200.        57.         4.
       9.55        20.       46.7        2.9
       9.92       200.        57.         6.
      10.56        20.        48.         5.
      11.21       200.        55.         4.
      11.48        20.       50.4        0.7
      12.46       200.       52.8        2.5
      12.76        20.        50.        1.7
      14.24       200.        55.         4.
      14.74        20.        49.         3.
ENDDATA             26
ENDSUBENT           37
ENDENTRY             3
