ENTRY            D5067   20200502   20200806   20200806       D127
SUBENT        D5067001   20200502   20200806   20200806       D127
BIB                 12         40
TITLE      Cross sections of the 3H(d,3He) nn reaction at the
           deuteron beam energy 37 MeV
AUTHOR     (O.O.Beljuskina,V.I.Grantsev,V.M.Lebedev,A.L.Litvinsky,
           K.K.Kisurin,G.P.Palkin,S.E.Omelchuk,J.S.Roznjuk,
           B.A.Rudenko,V.S.Semenov,L.I.Sljusarenko,B.G.Struzhko,
           V.A.Shitjuk)
INSTITUTE  (4UKRIJD,4RUSMOS)
REFERENCE  (J,YFE,9,(3/25),53,2008)
           (J,IZV,74,489,2010)
           (J,BAS,74,453,2010) English translation
           #doi:10.3103/S1062873810040064
           #NSR:2010BE10
FACILITY   (CYCLO,4UKRIJD)Isochronous cyclotron U-240
SAMPLE     Films of natural titanium thick 4.9 and 7.5 mg/cm2, the
           first of them was saturated by tritium. Ratio between
           quantity of nuclei of titanium and tritium was about 1.
           Film of  deuterated polyethylene thick 6 mg/cm2 was
           used for check measurements of beam energy.
DETECTOR   (TELES)Three deltaE-E telescopes are used
           simultaneously.
           (TELES,SIBAR,NAICR)Silicium surface barrier detectors
           thick 150 micro-m and full-absorption detectors on
           basis NaI(Tl)with thicknesses 25 mm ,for single-charge
           product registration.
           (TELES,SI)For double-charge particle registration
           silicium E-detector with thicknesses 2.5 mm  and
           silicium deltaE-E detector with thicknesses 56 micro-m
           were used.
CORRECTION Corrected for background.
ERR-ANALYS (ERR-S) Statistical error
METHOD     (EXTB,EDE,COINC)
ADD-RES    (COMP)The Watson-Migdal approximation for np FSI in the
           singlet and triplet states.
HISTORY    (20090610C) UKRNDC
           (20101221C) OG: ref. on IZV,74 and BAS,74,
                                  #doi and #NSR were added
           (20101221A) OG:deuteron energy was changed from
                      37.1 MeV to 36.9 MeV. Subentry 10 was added
           (20200502A) OG. Sub002-009 combined. Sub003-009
                      deleted. DATA in Sub010 corrected.
ENDBIB              40
COMMON               1          3
EN
MEV
36.9
ENDCOMMON            3
ENDSUBENT           47
SUBENT        D5067002   20200502   20200806   20200806       D127
BIB                  4          8
REACTION   (1-H-3(D,2N)2-HE-3,,DA/DE,HE3)
           ANG is angle between incident deuteron beam and He3.
EN-SEC     (E,HE3)
STATUS     (APRVD,TABLE) Correspond to Fig.4 (p.56) in Yad.Fiz. ta
           Energ.,9,53,2008 and Fig.2 (p.454) in Bull.Rus.Acad. of
           Sc.-Phys.,74,453,2010.
HISTORY    (20200502A) OG. Sub002-009 combined. STATUS updated.
                      deleted. DATA in Sub010 corrected.
ENDBIB               8
NOCOMMON             0          0 3
DATA                 4       1469
ANG        E          DATA       ERR-S
ADEG       MEV        MB/SR/MEV  MB/SR/MEV
        7.6      9.150      0.008      0.022
        7.6      9.300      0.026      0.023
        7.6      9.450      0.358      0.055
        7.6      9.600      0.994      0.089
        7.6      9.750      1.453      0.111
        7.6      9.900      1.527      0.118
        7.6     10.050      1.413      0.119
        7.6     10.200      1.463      0.125
        7.6     10.350      1.716      0.133
        7.6     10.500      1.498      0.132
        7.6     10.650      1.545      0.138
        7.6     10.800      1.389      0.138
        7.6     10.950      1.500      0.137
        7.6     11.100      1.276      0.134
        7.6     11.250      1.596      0.138
        7.6     11.400      1.278      0.129
        7.6     11.550      1.338      0.127
        7.6     11.700      1.718      0.133
        7.6     11.850      1.559      0.129
        7.6     12.000      1.456      0.129
        7.6     12.150      1.551      0.130
        7.6     12.300      1.513      0.130
        7.6     12.450      1.438      0.125
        7.6     12.600      1.389      0.129
        7.6     12.750      1.535      0.126
        7.6     12.900      1.886      0.140
        7.6     13.050      1.925      0.137
        7.6     13.200      1.453      0.127
        7.6     13.350      1.517      0.130
        7.6     13.500      1.612      0.126
        7.6     13.650      1.967      0.135
        7.6     13.800      1.726      0.135
        7.6     13.950      1.768      0.130
        7.6     14.100      1.680      0.131
        7.6     14.250      1.893      0.138
        7.6     14.400      1.735      0.131
        7.6     14.550      1.925      0.135
        7.6     14.700      1.818      0.135
        7.6     14.850      1.726      0.132
        7.6     15.000      1.896      0.136
        7.6     15.150      1.869      0.133
        7.6     15.300      1.732      0.128
        7.6     15.450      1.733      0.132
        7.6     15.600      1.824      0.131
        7.6     15.750      1.783      0.132
        7.6     15.900      1.748      0.130
        7.6     16.050      1.859      0.134
        7.6     16.200      1.737      0.129
        7.6     16.350      1.796      0.133
        7.6     16.500      2.015      0.138
        7.6     16.650      1.909      0.133
        7.6     16.800      1.749      0.134
        7.6     16.950      1.725      0.133
        7.6     17.100      2.251      0.143
        7.6     17.250      1.997      0.137
        7.6     17.400      2.091      0.141
        7.6     17.550      2.299      0.147
        7.6     17.700      1.980      0.139
        7.6     17.850      2.032      0.142
        7.6     18.000      1.886      0.136
        7.6     18.150      2.157      0.143
        7.6     18.300      1.891      0.135
        7.6     18.450      1.946      0.135
        7.6     18.600      1.914      0.133
        7.6     18.750      2.208      0.144
        7.6     18.900      1.922      0.135
        7.6     19.050      2.114      0.139
        7.6     19.200      2.072      0.138
        7.6     19.350      1.918      0.133
        7.6     19.500      1.764      0.127
        7.6     19.650      1.711      0.130
        7.6     19.800      1.888      0.135
        7.6     19.950      1.895      0.133
        7.6     20.100      1.852      0.133
        7.6     20.250      1.730      0.130
        7.6     20.400      2.121      0.139
        7.6     20.550      1.617      0.128
        7.6     20.700      1.714      0.129
        7.6     20.850      1.912      0.136
        7.6     21.000      2.058      0.136
        7.6     21.150      2.029      0.135
        7.6     21.300      1.977      0.135
        7.6     21.450      1.961      0.135
        7.6     21.600      2.186      0.141
        7.6     21.750      1.944      0.135
        7.6     21.900      2.147      0.138
        7.6     22.050      2.370      0.143
        7.6     22.200      2.233      0.141
        7.6     22.350      2.045      0.139
        7.6     22.500      2.201      0.143
        7.6     22.650      2.116      0.140
        7.6     22.800      2.163      0.142
        7.6     22.950      2.276      0.146
        7.6     23.100      2.289      0.146
        7.6     23.250      2.345      0.146
        7.6     23.400      2.450      0.150
        7.6     23.550      2.331      0.148
        7.6     23.700      2.628      0.157
        7.6     23.850      2.492      0.154
        7.6     24.000      2.498      0.152
        7.6     24.150      2.577      0.154
        7.6     24.300      2.540      0.153
        7.6     24.450      2.678      0.158
        7.6     24.600      2.458      0.153
        7.6     24.750      2.815      0.163
        7.6     24.900      2.965      0.166
        7.6     25.050      2.979      0.166
        7.6     25.200      2.902      0.163
        7.6     25.350      3.066      0.168
        7.6     25.500      3.029      0.167
        7.6     25.650      2.897      0.165
        7.6     25.800      3.076      0.169
        7.6     25.950      3.007      0.167
        7.6     26.100      2.839      0.164
        7.6     26.250      2.988      0.167
        7.6     26.400      3.016      0.170
        7.6     26.550      2.914      0.167
        7.6     26.700      3.302      0.174
        7.6     26.850      3.021      0.170
        7.6     27.000      3.213      0.175
        7.6     27.150      3.047      0.167
        7.6     27.300      3.431      0.176
        7.6     27.450      3.136      0.170
        7.6     27.600      3.222      0.172
        7.6     27.750      2.986      0.168
        7.6     27.900      3.047      0.170
        7.6     28.050      3.154      0.173
        7.6     28.200      3.376      0.178
        7.6     28.350      3.347      0.181
        7.6     28.500      3.225      0.177
        7.6     28.650      3.265      0.176
        7.6     28.800      3.420      0.180
        7.6     28.950      2.971      0.172
        7.6     29.100      3.182      0.182
        7.6     29.250      3.850      0.193
        7.6     29.400      3.662      0.196
        7.6     29.550      3.512      0.197
        7.6     29.700      3.898      0.209
        7.6     29.850      3.764      0.216
        7.6     30.000      3.831      0.217
        7.6     30.150      3.950      0.220
        7.6     30.300      3.953      0.227
        7.6     30.450      3.832      0.214
        7.6     30.600      3.872      0.213
        7.6     30.750      4.111      0.216
        7.6     30.900      4.229      0.218
        7.6     31.050      4.948      0.224
        7.6     31.200      5.136      0.225
        7.6     31.350      5.305      0.227
        7.6     31.500      5.837      0.236
        7.6     31.650      6.329      0.242
        7.6     31.800      6.362      0.241
        7.6     31.950      6.368      0.238
        7.6     32.100      5.587      0.223
        7.6     32.250      4.418      0.200
        7.6     32.400      3.005      0.170
        7.6     32.550      2.495      0.153
        7.6     32.700      1.794      0.129
        7.6     32.850      1.423      0.118
        7.6     33.000      1.113      0.107
        7.6     33.150      0.603      0.085
        7.6     33.300      0.470      0.075
        7.6     33.450      0.434      0.072
        7.6     33.600      0.401      0.071
        7.6     33.750      0.334      0.068
        7.6     33.900      0.202      0.066
        7.6     34.050      0.189      0.064
        7.6     34.200      0.186      0.060
        7.6     34.350      0.216      0.059
        7.6     34.500      0.321      0.062
        7.6     34.650      0.299      0.061
        7.6     34.800      0.383      0.068
        7.6     34.950      0.530      0.078
        7.6     35.100      0.550      0.082
        7.6     35.250      0.477      0.075
        7.6     35.400      0.382      0.066
        7.6     35.550      0.422      0.068
        7.6     35.700      0.247      0.060
        7.6     35.850      0.206      0.063
        7.6     36.000      0.367      0.068
        7.6     36.150      0.301      0.062
        7.6     36.300      0.266      0.063
        7.6     36.450      0.280      0.060
        7.6     36.600      0.212      0.058
        9.6      9.300      0.002      0.016
        9.6      9.450      0.713      0.062
        9.6      9.600      1.672      0.093
        9.6      9.750      1.674      0.099
        9.6      9.900      1.457      0.104
        9.6     10.050      1.365      0.113
        9.6     10.200      1.512      0.115
        9.6     10.350      1.410      0.108
        9.6     10.500      1.571      0.107
        9.6     10.650      1.440      0.105
        9.6     10.800      1.420      0.105
        9.6     10.950      1.532      0.105
        9.6     11.100      1.500      0.101
        9.6     11.250      1.530      0.106
        9.6     11.400      1.748      0.107
        9.6     11.550      1.710      0.108
        9.6     11.700      1.618      0.107
        9.6     11.850      1.624      0.107
        9.6     12.000      1.672      0.108
        9.6     12.150      1.682      0.107
        9.6     12.300      1.740      0.108
        9.6     12.450      1.647      0.109
        9.6     12.600      1.679      0.109
        9.6     12.750      1.700      0.105
        9.6     12.900      1.819      0.112
        9.6     13.050      1.546      0.107
        9.6     13.200      1.579      0.106
        9.6     13.350      1.645      0.108
        9.6     13.500      1.595      0.106
        9.6     13.650      1.859      0.110
        9.6     13.800      1.766      0.107
        9.6     13.950      1.740      0.106
        9.6     14.100      1.866      0.110
        9.6     14.250      1.885      0.109
        9.6     14.400      1.829      0.109
        9.6     14.550      1.830      0.110
        9.6     14.700      1.717      0.108
        9.6     14.850      1.934      0.113
        9.6     15.000      1.825      0.107
        9.6     15.150      1.883      0.109
        9.6     15.300      1.895      0.110
        9.6     15.450      1.966      0.109
        9.6     15.600      1.970      0.111
        9.6     15.750      1.924      0.110
        9.6     15.900      1.921      0.109
        9.6     16.050      1.888      0.109
        9.6     16.200      1.842      0.108
        9.6     16.350      1.803      0.107
        9.6     16.500      1.888      0.109
        9.6     16.650      1.993      0.109
        9.6     16.800      2.142      0.113
        9.6     16.950      2.146      0.115
        9.6     17.100      2.111      0.115
        9.6     17.250      2.046      0.113
        9.6     17.400      2.086      0.113
        9.6     17.550      2.041      0.111
        9.6     17.700      2.022      0.110
        9.6     17.850      2.025      0.114
        9.6     18.000      2.229      0.114
        9.6     18.150      2.142      0.113
        9.6     18.300      2.114      0.113
        9.6     18.450      2.006      0.111
        9.6     18.600      1.861      0.108
        9.6     18.750      1.871      0.108
        9.6     18.900      1.776      0.107
        9.6     19.050      2.078      0.111
        9.6     19.200      1.916      0.108
        9.6     19.350      1.712      0.104
        9.6     19.500      1.706      0.107
        9.6     19.650      2.030      0.111
        9.6     19.800      1.850      0.105
        9.6     19.950      2.008      0.109
        9.6     20.100      1.856      0.107
        9.6     20.250      1.823      0.106
        9.6     20.400      1.852      0.105
        9.6     20.550      1.801      0.104
        9.6     20.700      1.868      0.104
        9.6     20.850      1.724      0.104
        9.6     21.000      1.733      0.105
        9.6     21.150      1.724      0.104
        9.6     21.300      1.735      0.103
        9.6     21.450      1.850      0.107
        9.6     21.600      1.936      0.110
        9.6     21.750      1.802      0.107
        9.6     21.900      1.777      0.105
        9.6     22.050      1.780      0.106
        9.6     22.200      1.808      0.108
        9.6     22.350      1.727      0.106
        9.6     22.500      1.925      0.110
        9.6     22.650      1.917      0.110
        9.6     22.800      1.868      0.110
        9.6     22.950      1.930      0.112
        9.6     23.100      1.957      0.113
        9.6     23.250      1.970      0.114
        9.6     23.400      1.936      0.112
        9.6     23.550      1.988      0.113
        9.6     23.700      2.074      0.115
        9.6     23.850      2.072      0.114
        9.6     24.000      2.121      0.117
        9.6     24.150      2.046      0.116
        9.6     24.300      1.951      0.115
        9.6     24.450      1.971      0.116
        9.6     24.600      1.895      0.114
        9.6     24.750      1.877      0.116
        9.6     24.900      1.940      0.118
        9.6     25.050      2.071      0.120
        9.6     25.200      2.144      0.120
        9.6     25.350      2.194      0.119
        9.6     25.500      2.128      0.121
        9.6     25.650      2.015      0.122
        9.6     25.800      2.072      0.122
        9.6     25.950      2.166      0.121
        9.6     26.100      2.113      0.118
        9.6     26.250      2.031      0.116
        9.6     26.400      1.970      0.118
        9.6     26.550      1.981      0.121
        9.6     26.700      2.214      0.124
        9.6     26.850      2.180      0.120
        9.6     27.000      2.022      0.115
        9.6     27.150      2.049      0.119
        9.6     27.300      1.940      0.118
        9.6     27.450      2.013      0.116
        9.6     27.600      2.053      0.117
        9.6     27.750      2.103      0.119
        9.6     27.900      1.976      0.115
        9.6     28.050      1.850      0.117
        9.6     28.200      1.877      0.119
        9.6     28.350      2.098      0.121
        9.6     28.500      2.093      0.124
        9.6     28.650      1.928      0.118
        9.6     28.800      1.915      0.120
        9.6     28.950      1.921      0.125
        9.6     29.100      1.855      0.127
        9.6     29.250      2.124      0.133
        9.6     29.400      1.652      0.142
        9.6     29.550      1.530      0.154
        9.6     29.700      2.022      0.159
        9.6     29.850      2.170      0.171
        9.6     30.000      2.103      0.172
        9.6     30.150      1.910      0.169
        9.6     30.300      2.203      0.161
        9.6     30.450      2.539      0.155
        9.6     30.600      2.580      0.152
        9.6     30.750      2.556      0.149
        9.6     30.900      2.735      0.147
        9.6     31.050      2.933      0.147
        9.6     31.200      3.290      0.150
        9.6     31.350      3.316      0.151
        9.6     31.500      2.994      0.148
        9.6     31.650      2.781      0.143
        9.6     31.800      2.053      0.124
        9.6     31.950      1.602      0.108
        9.6     32.100      0.909      0.086
        9.6     32.250      0.696      0.073
        9.6     32.400      0.346      0.058
        9.6     32.550      0.207      0.050
        9.6     32.700      0.233      0.045
        9.6     32.850      0.180      0.042
        9.6     33.000      0.094      0.038
        9.6     33.150      0.041      0.035
        9.6     33.300      0.037      0.035
        9.6     33.450      0.050      0.033
        9.6     33.600      0.089      0.033
        9.6     33.750      0.086      0.032
        9.6     33.900      0.100      0.034
        9.6     34.050      0.099      0.041
        9.6     34.200      0.123      0.040
        9.6     34.350      0.147      0.043
        9.6     34.500      0.215      0.047
        9.6     34.650      0.246      0.045
        9.6     34.800      0.279      0.044
        9.6     34.950      0.184      0.039
        9.6     35.100      0.122      0.037
        9.6     35.250      0.124      0.037
        9.6     35.400      0.038      0.031
        9.6     35.550      0.022      0.034
        9.6     35.700     -0.041      0.034
        9.6     35.850      0.037      0.039
        9.6     36.000      0.086      0.038
        9.6     36.150      0.087      0.038
        9.6     36.300      0.039      0.035
        9.6     36.450      0.049      0.034
        9.6     36.600      0.091      0.036
       11.6      9.450      0.650      0.080
       11.6      9.600      1.866      0.135
       11.6      9.750      1.981      0.141
       11.6      9.900      1.886      0.142
       11.6     10.050      1.765      0.165
       11.6     10.200      1.650      0.161
       11.6     10.350      1.333      0.152
       11.6     10.500      1.276      0.162
       11.6     10.650      1.185      0.157
       11.6     10.800      1.421      0.147
       11.6     10.950      1.593      0.142
       11.6     11.100      1.592      0.155
       11.6     11.250      1.709      0.154
       11.6     11.400      1.657      0.152
       11.6     11.550      1.576      0.151
       11.6     11.700      1.627      0.151
       11.6     11.850      1.594      0.148
       11.6     12.000      1.601      0.159
       11.6     12.150      1.630      0.158
       11.6     12.300      1.900      0.167
       11.6     12.450      1.678      0.156
       11.6     12.600      1.548      0.152
       11.6     12.750      1.500      0.155
       11.6     12.900      1.861      0.159
       11.6     13.050      1.546      0.151
       11.6     13.200      1.523      0.155
       11.6     13.350      1.598      0.143
       11.6     13.500      1.607      0.164
       11.6     13.650      1.591      0.157
       11.6     13.800      1.751      0.151
       11.6     13.950      1.920      0.152
       11.6     14.100      1.551      0.145
       11.6     14.250      1.935      0.151
       11.6     14.400      1.766      0.151
       11.6     14.550      1.865      0.156
       11.6     14.700      1.796      0.148
       11.6     14.850      1.842      0.155
       11.6     15.000      1.655      0.150
       11.6     15.150      1.573      0.145
       11.6     15.300      1.807      0.144
       11.6     15.450      1.868      0.154
       11.6     15.600      1.850      0.147
       11.6     15.750      1.658      0.144
       11.6     15.900      1.942      0.150
       11.6     16.050      1.951      0.150
       11.6     16.200      1.712      0.154
       11.6     16.350      1.829      0.151
       11.6     16.500      1.736      0.150
       11.6     16.650      1.850      0.150
       11.6     16.800      1.985      0.150
       11.6     16.950      1.850      0.153
       11.6     17.100      1.890      0.156
       11.6     17.250      1.895      0.150
       11.6     17.400      1.984      0.155
       11.6     17.550      1.852      0.153
       11.6     17.700      2.037      0.158
       11.6     17.850      1.866      0.154
       11.6     18.000      1.955      0.156
       11.6     18.150      1.987      0.157
       11.6     18.300      1.928      0.155
       11.6     18.450      1.794      0.148
       11.6     18.600      1.820      0.144
       11.6     18.750      1.790      0.153
       11.6     18.900      1.446      0.144
       11.6     19.050      1.775      0.143
       11.6     19.200      1.912      0.154
       11.6     19.350      1.947      0.151
       11.6     19.500      1.775      0.143
       11.6     19.650      1.724      0.148
       11.6     19.800      1.748      0.150
       11.6     19.950      1.543      0.141
       11.6     20.100      1.613      0.141
       11.6     20.250      1.629      0.141
       11.6     20.400      1.617      0.143
       11.6     20.550      1.527      0.142
       11.6     20.700      1.581      0.144
       11.6     20.850      1.490      0.144
       11.6     21.000      1.617      0.142
       11.6     21.150      1.590      0.142
       11.6     21.300      1.560      0.140
       11.6     21.450      1.498      0.137
       11.6     21.600      1.478      0.138
       11.6     21.750      1.336      0.140
       11.6     21.900      1.420      0.139
       11.6     22.050      1.563      0.143
       11.6     22.200      1.705      0.147
       11.6     22.350      1.615      0.143
       11.6     22.500      1.481      0.138
       11.6     22.650      1.619      0.138
       11.6     22.800      1.614      0.143
       11.6     22.950      1.280      0.138
       11.6     23.100      1.315      0.135
       11.6     23.250      1.184      0.139
       11.6     23.400      1.194      0.146
       11.6     23.550      1.543      0.149
       11.6     23.700      1.558      0.148
       11.6     23.850      1.449      0.140
       11.6     24.000      1.442      0.136
       11.6     24.150      1.322      0.143
       11.6     24.300      1.362      0.146
       11.6     24.450      1.456      0.141
       11.6     24.600      1.459      0.146
       11.6     24.750      1.412      0.147
       11.6     24.900      1.496      0.148
       11.6     25.050      1.341      0.146
       11.6     25.200      1.243      0.142
       11.6     25.350      1.252      0.146
       11.6     25.500      1.214      0.140
       11.6     25.650      1.194      0.142
       11.6     25.800      1.315      0.139
       11.6     25.950      1.085      0.141
       11.6     26.100      1.177      0.142
       11.6     26.250      1.308      0.144
       11.6     26.400      1.179      0.146
       11.6     26.550      1.071      0.145
       11.6     26.700      1.154      0.141
       11.6     26.850      1.221      0.142
       11.6     27.000      1.077      0.140
       11.6     27.150      1.010      0.132
       11.6     27.300      1.057      0.130
       11.6     27.450      0.863      0.128
       11.6     27.600      0.924      0.129
       11.6     27.750      0.968      0.134
       11.6     27.900      0.975      0.138
       11.6     28.050      0.842      0.129
       11.6     28.200      1.212      0.143
       11.6     28.350      0.951      0.148
       11.6     28.500      0.809      0.143
       11.6     28.650      0.714      0.139
       11.6     28.800      0.610      0.148
       11.6     28.950      0.665      0.171
       11.6     29.100      0.920      0.187
       11.6     29.250      1.042      0.203
       11.6     29.400      0.859      0.218
       11.6     29.550      0.491      0.225
       11.6     29.700      0.753      0.239
       11.6     29.850      1.029      0.242
       11.6     30.000      0.851      0.231
       11.6     30.150      0.595      0.213
       11.6     30.300      0.494      0.205
       11.6     30.450      0.786      0.205
       11.6     30.600      1.260      0.197
       11.6     30.750      1.170      0.197
       11.6     30.900      0.977      0.191
       11.6     31.050      1.201      0.163
       11.6     31.200      0.919      0.144
       11.6     31.350      0.306      0.135
       11.6     31.500      0.088      0.128
       11.6     31.650      0.161      0.111
       11.6     31.800     -0.065      0.105
       11.6     31.950     -0.044      0.090
       11.6     32.100     -0.058      0.071
       11.6     32.250     -0.096      0.060
       11.6     32.400      0.049      0.055
       11.6     32.550     -0.037      0.046
       11.6     32.700      0.032      0.049
       11.6     32.850     -0.034      0.047
       11.6     33.000      0.026      0.050
       11.6     33.150      0.028      0.050
       11.6     33.300      0.072      0.059
       11.6     33.450      0.097      0.052
       11.6     33.600      0.154      0.049
       11.6     33.750      0.122      0.051
       11.6     33.900      0.127      0.052
       11.6     34.050      0.132      0.055
       11.6     34.200      0.072      0.052
       11.6     34.350     -0.001      0.055
       11.6     34.500      0.099      0.050
       11.6     34.650      0.068      0.047
       11.6     34.800      0.076      0.045
       11.6     34.950      0.059      0.040
       11.6     35.100     -0.032      0.035
       11.6     35.250      0.019      0.032
       11.6     35.400      0.023      0.044
       11.6     35.550      0.065      0.045
       11.6     35.700      0.034      0.043
       11.6     35.850      0.100      0.055
       11.6     36.000      0.044      0.057
       11.6     36.150      0.075      0.050
       11.6     36.300      0.137      0.063
       11.6     36.450      0.202      0.075
       11.6     36.600      0.502      0.087
       11.6     36.750      0.651      0.092
       11.6     36.900      0.550      0.089
       11.6      37.05       0.42       0.08
       11.6       37.2      0.211      0.069
       11.6      37.35      0.082      0.064
       11.6       37.5      0.091      0.065
       11.6      37.65     -0.002      0.068
       11.6       37.8     -0.055      0.066
       11.6      37.95      0.026      0.064
       11.6       38.1      0.014      0.065
       11.6      38.25      0.008       0.07
       11.6       38.4      0.022      0.062
       13.6      9.150      0.000      0.023
       13.6      9.300      0.000      0.023
       13.6      9.450      0.599      0.089
       13.6      9.600      1.980      0.159
       13.6      9.750      2.002      0.166
       13.6      9.900      1.506      0.180
       13.6     10.050      1.395      0.186
       13.6     10.200      1.714      0.186
       13.6     10.350      1.386      0.185
       13.6     10.500      1.460      0.168
       13.6     10.650      1.692      0.175
       13.6     10.800      1.532      0.172
       13.6     10.950      1.394      0.161
       13.6     11.100      1.506      0.167
       13.6     11.250      1.475      0.158
       13.6     11.400      1.564      0.160
       13.6     11.550      1.685      0.173
       13.6     11.700      1.552      0.162
       13.6     11.850      1.742      0.172
       13.6     12.000      1.470      0.175
       13.6     12.150      1.828      0.176
       13.6     12.300      1.693      0.178
       13.6     12.450      1.572      0.173
       13.6     12.600      1.513      0.164
       13.6     12.750      1.415      0.163
       13.6     12.900      1.395      0.164
       13.6     13.050      1.718      0.167
       13.6     13.200      1.570      0.162
       13.6     13.350      1.725      0.170
       13.6     13.500      1.587      0.171
       13.6     13.650      1.732      0.175
       13.6     13.800      1.827      0.170
       13.6     13.950      1.645      0.164
       13.6     14.100      1.756      0.169
       13.6     14.250      1.780      0.170
       13.6     14.400      1.444      0.153
       13.6     14.550      1.793      0.168
       13.6     14.700      1.528      0.172
       13.6     14.850      1.643      0.170
       13.6     15.000      1.997      0.177
       13.6     15.150      1.934      0.170
       13.6     15.300      1.521      0.159
       13.6     15.450      1.743      0.167
       13.6     15.600      1.641      0.166
       13.6     15.750      1.912      0.166
       13.6     15.900      1.774      0.170
       13.6     16.050      1.432      0.156
       13.6     16.200      1.600      0.161
       13.6     16.350      1.710      0.171
       13.6     16.500      1.760      0.174
       13.6     16.650      1.621      0.168
       13.6     16.800      1.565      0.159
       13.6     16.950      1.770      0.168
       13.6     17.100      1.557      0.161
       13.6     17.250      1.836      0.168
       13.6     17.400      1.840      0.168
       13.6     17.550      1.649      0.163
       13.6     17.700      1.904      0.169
       13.6     17.850      1.929      0.170
       13.6     18.000      1.606      0.166
       13.6     18.150      1.738      0.161
       13.6     18.300      1.889      0.163
       13.6     18.450      1.757      0.165
       13.6     18.600      1.676      0.161
       13.6     18.750      1.682      0.167
       13.6     18.900      1.644      0.160
       13.6     19.050      1.627      0.157
       13.6     19.200      1.904      0.168
       13.6     19.350      1.831      0.168
       13.6     19.500      1.341      0.150
       13.6     19.650      1.798      0.162
       13.6     19.800      1.616      0.161
       13.6     19.950      1.413      0.160
       13.6     20.100      1.566      0.156
       13.6     20.250      1.561      0.151
       13.6     20.400      1.590      0.160
       13.6     20.550      1.432      0.148
       13.6     20.700      1.454      0.152
       13.6     20.850      1.420      0.146
       13.6     21.000      1.560      0.153
       13.6     21.150      1.488      0.153
       13.6     21.300      1.441      0.150
       13.6     21.450      1.456      0.157
       13.6     21.600      1.491      0.153
       13.6     21.750      1.405      0.149
       13.6     21.900      1.385      0.151
       13.6     22.050      1.416      0.152
       13.6     22.200      1.123      0.145
       13.6     22.350      1.077      0.148
       13.6     22.500      1.387      0.157
       13.6     22.650      1.541      0.159
       13.6     22.800      1.232      0.148
       13.6     22.950      1.146      0.148
       13.6     23.100      1.346      0.152
       13.6     23.250      1.267      0.153
       13.6     23.400      1.255      0.154
       13.6     23.550      1.293      0.154
       13.6     23.700      1.517      0.163
       13.6     23.850      1.328      0.155
       13.6     24.000      1.171      0.147
       13.6     24.150      1.185      0.152
       13.6     24.300      0.998      0.145
       13.6     24.450      0.865      0.142
       13.6     24.600      1.051      0.154
       13.6     24.750      1.173      0.157
       13.6     24.900      1.130      0.151
       13.6     25.050      1.128      0.150
       13.6     25.200      1.008      0.150
       13.6     25.350      0.881      0.145
       13.6     25.500      0.849      0.141
       13.6     25.650      0.862      0.137
       13.6     25.800      0.715      0.134
       13.6     25.950      0.624      0.133
       13.6     26.100      0.614      0.135
       13.6     26.250      0.530      0.140
       13.6     26.400      0.556      0.143
       13.6     26.550      0.575      0.142
       13.6     26.700      0.590      0.141
       13.6     26.850      0.608      0.138
       13.6     27.000      0.572      0.124
       13.6     27.150      0.509      0.123
       13.6     27.300      0.591      0.125
       13.6     27.450      0.436      0.122
       13.6     27.600      0.604      0.137
       13.6     27.750      0.412      0.129
       13.6     27.900      0.349      0.151
       13.6     28.050      0.407      0.135
       13.6     28.200      0.509      0.146
       13.6     28.350      0.533      0.152
       13.6     28.500      0.556      0.128
       13.6     28.650      0.220      0.160
       13.6     28.800      0.133      0.187
       13.6     28.950      0.415      0.225
       13.6     29.100      0.675      0.244
       13.6     29.250      0.641      0.258
       13.6     29.400     -0.214      0.249
       13.6     29.550      0.167      0.248
       13.6     29.700      0.895      0.251
       13.6     29.850      0.645      0.239
       13.6     30.000      0.069      0.227
       13.6     30.150      0.219      0.217
       13.6     30.300      0.501      0.219
       13.6     30.450      0.806      0.217
       13.6     30.600      0.910      0.220
       13.6     30.750      0.609      0.206
       13.6     30.900      0.114      0.159
       13.6     31.050     -0.091      0.122
       13.6     31.200     -0.090      0.115
       13.6     31.350      0.062      0.120
       13.6     31.500      0.074      0.120
       13.6     31.650      0.012      0.115
       13.6     31.800     -0.147      0.095
       13.6     31.950     -0.015      0.063
       13.6     32.100      0.125      0.056
       13.6     32.250      0.099      0.054
       13.6     32.400      0.004      0.045
       13.6     32.550      0.041      0.055
       13.6     32.700      0.109      0.060
       13.6     32.850      0.135      0.062
       13.6     33.000      0.154      0.056
       13.6     33.150      0.066      0.049
       13.6     33.300      0.095      0.043
       13.6     33.450     -0.012      0.062
       13.6     33.600      0.068      0.051
       13.6     33.750      0.027      0.051
       13.6     33.900      0.003      0.043
       13.6     34.050     -0.022      0.047
       13.6     34.200      0.004      0.050
       13.6     34.350      0.012      0.043
       13.6     34.500     -0.005      0.041
       13.6     34.650      0.015      0.049
       13.6     34.800      0.015      0.046
       13.6     34.950     -0.001      0.045
       13.6     35.100     -0.033      0.047
       13.6     35.250     -0.015      0.045
       16.6      9.450      0.462      0.070
       16.6      9.600      1.731      0.133
       16.6      9.750      1.771      0.136
       16.6      9.900      1.455      0.158
       16.6     10.050      1.571      0.158
       16.6     10.200      1.557      0.158
       16.6     10.350      1.088      0.140
       16.6     10.500      1.418      0.154
       16.6     10.650      1.411      0.155
       16.6     10.800      1.379      0.151
       16.6     10.950      1.468      0.152
       16.6     11.100      1.458      0.140
       16.6     11.250      1.530      0.148
       16.6     11.400      1.588      0.153
       16.6     11.550      1.565      0.152
       16.6     11.700      1.544      0.156
       16.6     11.850      1.494      0.152
       16.6     12.000      1.600      0.157
       16.6     12.150      1.445      0.144
       16.6     12.300      1.434      0.141
       16.6     12.450      1.361      0.149
       16.6     12.600      1.368      0.147
       16.6     12.750      1.522      0.149
       16.6     12.900      1.604      0.154
       16.6     13.050      1.315      0.146
       16.6     13.200      1.377      0.145
       16.6     13.350      1.387      0.149
       16.6     13.500      1.193      0.139
       16.6     13.650      1.593      0.150
       16.6     13.800      1.469      0.145
       16.6     13.950      1.365      0.139
       16.6     14.100      1.618      0.154
       16.6     14.250      1.551      0.144
       16.6     14.400      1.604      0.145
       16.6     14.550      1.604      0.148
       16.6     14.700      1.501      0.142
       16.6     14.850      1.576      0.147
       16.6     15.000      1.580      0.144
       16.6     15.150      1.614      0.149
       16.6     15.300      1.678      0.151
       16.6     15.450      1.620      0.150
       16.6     15.600      1.563      0.144
       16.6     15.750      1.719      0.150
       16.6     15.900      1.790      0.149
       16.6     16.050      1.595      0.139
       16.6     16.200      1.551      0.142
       16.6     16.350      1.734      0.149
       16.6     16.500      1.634      0.145
       16.6     16.650      1.392      0.139
       16.6     16.800      1.276      0.135
       16.6     16.950      1.655      0.142
       16.6     17.100      1.688      0.145
       16.6     17.250      1.545      0.140
       16.6     17.400      1.427      0.137
       16.6     17.550      1.505      0.140
       16.6     17.700      1.517      0.144
       16.6     17.850      1.236      0.136
       16.6     18.000      1.179      0.127
       16.6     18.150      1.418      0.131
       16.6     18.300      1.672      0.144
       16.6     18.450      1.638      0.143
       16.6     18.600      1.379      0.134
       16.6     18.750      1.451      0.140
       16.6     18.900      1.400      0.135
       16.6     19.050      1.530      0.140
       16.6     19.200      1.219      0.129
       16.6     19.350      1.456      0.135
       16.6     19.500      1.526      0.140
       16.6     19.650      1.366      0.137
       16.6     19.800      1.176      0.132
       16.6     19.950      1.347      0.130
       16.6     20.100      1.615      0.136
       16.6     20.250      1.515      0.142
       16.6     20.400      1.688      0.146
       16.6     20.550      1.482      0.141
       16.6     20.700      1.526      0.131
       16.6     20.850      1.340      0.130
       16.6     21.000      1.274      0.126
       16.6     21.150      1.370      0.126
       16.6     21.300      1.349      0.133
       16.6     21.450      1.473      0.138
       16.6     21.600      1.515      0.139
       16.6     21.750      1.605      0.140
       16.6     21.900      1.694      0.140
       16.6     22.050      1.422      0.131
       16.6     22.200      1.280      0.133
       16.6     22.350      1.275      0.131
       16.6     22.500      1.280      0.128
       16.6     22.650      1.316      0.127
       16.6     22.800      1.237      0.129
       16.6     22.950      1.067      0.125
       16.6     23.100      0.991      0.122
       16.6     23.250      1.017      0.127
       16.6     23.400      1.029      0.131
       16.6     23.550      1.176      0.136
       16.6     23.700      1.190      0.131
       16.6     23.850      0.996      0.123
       16.6     24.000      0.923      0.120
       16.6     24.150      0.840      0.119
       16.6     24.300      0.812      0.117
       16.6     24.450      0.852      0.118
       16.6     24.600      0.797      0.125
       16.6     24.750      0.798      0.125
       16.6     24.900      0.848      0.119
       16.6     25.050      0.667      0.110
       16.6     25.200      0.562      0.108
       16.6     25.350      0.654      0.111
       16.6     25.500      0.667      0.112
       16.6     25.650      0.699      0.113
       16.6     25.800      0.562      0.111
       16.6     25.950      0.489      0.109
       16.6     26.100      0.527      0.114
       16.6     26.250      0.518      0.116
       16.6     26.400      0.614      0.114
       16.6     26.550      0.666      0.113
       16.6     26.700      0.738      0.109
       16.6     26.850      0.526      0.105
       16.6     27.000      0.605      0.106
       16.6     27.150      0.609      0.110
       16.6     27.300      0.706      0.107
       16.6     27.450      0.780      0.112
       16.6     27.600      0.556      0.118
       16.6     27.750      0.690      0.133
       16.6     27.900      1.024      0.140
       16.6     28.050      0.884      0.132
       16.6     28.200      0.937      0.143
       16.6     28.350      1.002      0.145
       16.6     28.500      1.073      0.150
       16.6     28.650      0.753      0.171
       16.6     28.800      0.967      0.198
       16.6     28.950      1.350      0.221
       16.6     29.100      1.794      0.229
       16.6     29.250      1.216      0.238
       16.6     29.400      1.299      0.220
       16.6     29.550      1.313      0.201
       16.6     29.700      1.193      0.191
       16.6     29.850      0.390      0.178
       16.6     30.000     -0.195      0.166
       16.6     30.150     -0.110      0.174
       16.6     30.300      0.005      0.180
       16.6     30.450      0.212      0.173
       16.6     30.600      0.072      0.162
       16.6     30.750     -0.135      0.136
       16.6     30.900     -0.042      0.109
       16.6     31.050      0.040      0.099
       16.6     31.200      0.171      0.101
       16.6     31.350      0.349      0.107
       16.6     31.500      0.086      0.097
       16.6     31.650     -0.023      0.085
       16.6     31.800      0.043      0.068
       16.6     31.950      0.121      0.057
       16.6     32.100      0.183      0.054
       16.6     32.250      0.045      0.046
       16.6     32.400      0.040      0.037
       16.6     32.550      0.013      0.041
       16.6     32.700     -0.001      0.033
       16.6     32.850      0.021      0.033
       16.6     33.000      0.088      0.032
       16.6     33.150     -0.003      0.038
       16.6     33.300     -0.015      0.035
       16.6     33.450     -0.013      0.042
       16.6     33.600     -0.001      0.036
       16.6     33.750      0.008      0.037
       16.6     33.900      0.021      0.043
       16.6     34.050      0.056      0.038
       16.6     34.200      0.085      0.039
       16.6     34.350      0.161      0.059
       16.6     34.500      0.370      0.075
       16.6     34.650      0.438      0.075
       16.6     34.800      0.332      0.067
       16.6     34.950      0.374      0.068
       16.6     35.100      0.252      0.061
       16.6     35.250      0.055      0.046
       16.6     35.400      0.045      0.045
       16.6     35.550      0.052      0.040
       16.6     35.700      0.090      0.060
       16.6     35.850     -0.018      0.058
       16.6     36.000     -0.029      0.041
       16.6     36.150     -0.028      0.041
       16.6     36.300      0.025      0.038
       16.6     36.450      0.004      0.034
       16.6     36.600     -0.017      0.043
       16.6     36.750     -0.007      0.044
       16.6     36.900     -0.058      0.045
       16.6      37.05     -0.047      0.052
       16.6       37.2     -0.026       0.06
       16.6      37.35      -0.08      0.057
       16.6       37.5     -0.097      0.058
       16.6      37.65     -0.016      0.063
       16.6       37.8     -0.016       0.05
       16.6      37.95     -0.054      0.047
       16.6       38.1     -0.028      0.059
       16.6      38.25      0.005      0.054
       16.6       38.4      0.006      0.057
       21.6      9.150      0.000      0.014
       21.6      9.300      0.000      0.018
       21.6      9.450      0.197      0.046
       21.6      9.600      1.632      0.136
       21.6      9.750      1.950      0.143
       21.6      9.900      1.766      0.166
       21.6     10.050      1.424      0.175
       21.6     10.200      1.524      0.176
       21.6     10.350      1.268      0.170
       21.6     10.500      1.167      0.165
       21.6     10.650      1.101      0.154
       21.6     10.800      1.250      0.162
       21.6     10.950      1.443      0.146
       21.6     11.100      1.688      0.149
       21.6     11.250      1.389      0.145
       21.6     11.400      1.455      0.153
       21.6     11.550      1.204      0.158
       21.6     11.700      1.473      0.142
       21.6     11.850      1.384      0.153
       21.6     12.000      1.368      0.156
       21.6     12.150      1.229      0.154
       21.6     12.300      1.410      0.156
       21.6     12.450      1.107      0.168
       21.6     12.600      1.354      0.168
       21.6     12.750      1.399      0.157
       21.6     12.900      1.184      0.149
       21.6     13.050      1.481      0.150
       21.6     13.200      1.140      0.162
       21.6     13.350      1.033      0.163
       21.6     13.500      1.210      0.144
       21.6     13.650      1.106      0.144
       21.6     13.800      1.191      0.139
       21.6     13.950      1.380      0.144
       21.6     14.100      1.130      0.157
       21.6     14.250      1.274      0.144
       21.6     14.400      1.132      0.140
       21.6     14.550      1.317      0.139
       21.6     14.700      1.210      0.145
       21.6     14.850      1.207      0.135
       21.6     15.000      1.184      0.140
       21.6     15.150      1.225      0.152
       21.6     15.300      0.914      0.140
       21.6     15.450      1.038      0.136
       21.6     15.600      1.313      0.129
       21.6     15.750      1.328      0.130
       21.6     15.900      1.273      0.144
       21.6     16.050      1.013      0.137
       21.6     16.200      1.133      0.145
       21.6     16.350      1.333      0.138
       21.6     16.500      1.103      0.135
       21.6     16.650      1.112      0.125
       21.6     16.800      1.081      0.129
       21.6     16.950      1.057      0.140
       21.6     17.100      1.123      0.135
       21.6     17.250      1.347      0.133
       21.6     17.400      0.984      0.134
       21.6     17.550      1.310      0.136
       21.6     17.700      1.222      0.133
       21.6     17.850      1.248      0.125
       21.6     18.000      1.402      0.130
       21.6     18.150      1.315      0.145
       21.6     18.300      1.350      0.141
       21.6     18.450      1.322      0.136
       21.6     18.600      1.255      0.133
       21.6     18.750      1.273      0.133
       21.6     18.900      1.088      0.131
       21.6     19.050      1.394      0.139
       21.6     19.200      1.343      0.144
       21.6     19.350      1.349      0.137
       21.6     19.500      1.179      0.135
       21.6     19.650      1.336      0.138
       21.6     19.800      1.222      0.145
       21.6     19.950      1.118      0.129
       21.6     20.100      1.274      0.129
       21.6     20.250      1.207      0.128
       21.6     20.400      1.447      0.132
       21.6     20.550      1.460      0.125
       21.6     20.700      1.381      0.125
       21.6     20.850      1.220      0.124
       21.6     21.000      1.256      0.143
       21.6     21.150      1.369      0.129
       21.6     21.300      1.231      0.125
       21.6     21.450      1.216      0.131
       21.6     21.600      1.386      0.135
       21.6     21.750      1.349      0.119
       21.6     21.900      1.456      0.124
       21.6     22.050      1.321      0.139
       21.6     22.200      1.054      0.135
       21.6     22.350      0.905      0.133
       21.6     22.500      0.993      0.122
       21.6     22.650      1.239      0.119
       21.6     22.800      1.173      0.127
       21.6     22.950      1.129      0.126
       21.6     23.100      1.297      0.126
       21.6     23.250      1.259      0.127
       21.6     23.400      1.148      0.130
       21.6     23.550      1.181      0.132
       21.6     23.700      1.138      0.124
       21.6     23.850      1.083      0.117
       21.6     24.000      1.098      0.123
       21.6     24.150      1.094      0.118
       21.6     24.300      1.046      0.114
       21.6     24.450      1.058      0.125
       21.6     24.600      1.064      0.132
       21.6     24.750      0.882      0.128
       21.6     24.900      1.059      0.117
       21.6     25.050      1.055      0.121
       21.6     25.200      1.080      0.116
       21.6     25.350      1.067      0.124
       21.6     25.500      0.979      0.124
       21.6     25.650      1.102      0.126
       21.6     25.800      1.241      0.135
       21.6     25.950      1.200      0.127
       21.6     26.100      1.070      0.131
       21.6     26.250      1.427      0.135
       21.6     26.400      1.535      0.132
       21.6     26.550      1.386      0.133
       21.6     26.700      1.615      0.138
       21.6     26.850      1.767      0.137
       21.6     27.000      1.702      0.146
       21.6     27.150      2.144      0.160
       21.6     27.300      1.863      0.153
       21.6     27.450      2.047      0.145
       21.6     27.600      1.976      0.156
       21.6     27.750      1.395      0.152
       21.6     27.900      1.051      0.121
       21.6     28.050      0.958      0.121
       21.6     28.200      0.552      0.104
       21.6     28.350      0.063      0.086
       21.6     28.500      0.126      0.084
       21.6     28.650     -0.015      0.101
       21.6     28.800      0.030      0.091
       21.6     28.950      0.009      0.102
       21.6     29.100     -0.059      0.112
       21.6     29.250     -0.040      0.118
       21.6     29.400      0.095      0.108
       21.6     29.550      0.159      0.102
       21.6     29.700      0.094      0.098
       21.6     29.850     -0.060      0.107
       21.6     30.000     -0.048      0.122
       21.6     30.150      0.054      0.128
       21.6     30.300      0.266      0.118
       21.6     30.450      0.148      0.124
       21.6     30.600     -0.054      0.109
       21.6     30.750      0.004      0.077
       21.6     30.900     -0.001      0.066
       21.6     31.050      0.054      0.066
       21.6     31.200      0.106      0.067
       26.6      9.150      0.000      0.009
       26.6      9.300      0.000      0.016
       26.6      9.450      0.000      0.014
       26.6      9.600      1.389      0.112
       26.6      9.750      1.874      0.128
       26.6      9.900      1.595      0.133
       26.6     10.050      1.429      0.157
       26.6     10.200      1.408      0.160
       26.6     10.350      1.051      0.161
       26.6     10.500      1.287      0.141
       26.6     10.650      1.280      0.148
       26.6     10.800      1.204      0.131
       26.6     10.950      1.126      0.134
       26.6     11.100      1.424      0.127
       26.6     11.250      1.273      0.133
       26.6     11.400      1.353      0.139
       26.6     11.550      1.240      0.127
       26.6     11.700      1.175      0.134
       26.6     11.850      1.220      0.141
       26.6     12.000      1.176      0.146
       26.6     12.150      1.030      0.140
       26.6     12.300      1.188      0.137
       26.6     12.450      1.169      0.139
       26.6     12.600      0.959      0.134
       26.6     12.750      1.239      0.128
       26.6     12.900      0.982      0.128
       26.6     13.050      0.945      0.140
       26.6     13.200      0.819      0.131
       26.6     13.350      1.148      0.122
       26.6     13.500      1.278      0.121
       26.6     13.650      1.091      0.120
       26.6     13.800      0.802      0.110
       26.6     13.950      0.950      0.111
       26.6     14.100      0.905      0.122
       26.6     14.250      0.957      0.114
       26.6     14.400      0.933      0.115
       26.6     14.550      1.053      0.133
       26.6     14.700      1.052      0.118
       26.6     14.850      1.026      0.118
       26.6     15.000      0.954      0.113
       26.6     15.150      0.904      0.104
       26.6     15.300      0.905      0.118
       26.6     15.450      0.937      0.108
       26.6     15.600      0.996      0.112
       26.6     15.750      0.896      0.109
       26.6     15.900      0.710      0.110
       26.6     16.050      0.871      0.113
       26.6     16.200      1.102      0.117
       26.6     16.350      0.754      0.098
       26.6     16.500      0.819      0.108
       26.6     16.650      0.989      0.110
       26.6     16.800      1.063      0.108
       26.6     16.950      0.855      0.121
       26.6     17.100      0.897      0.111
       26.6     17.250      0.872      0.108
       26.6     17.400      0.973      0.107
       26.6     17.550      0.911      0.113
       26.6     17.700      0.896      0.105
       26.6     17.850      0.943      0.106
       26.6     18.000      1.026      0.103
       26.6     18.150      1.082      0.108
       26.6     18.300      0.969      0.108
       26.6     18.450      1.052      0.112
       26.6     18.600      0.957      0.105
       26.6     18.750      0.765      0.111
       26.6     18.900      0.829      0.112
       26.6     19.050      0.976      0.110
       26.6     19.200      1.051      0.110
       26.6     19.350      0.818      0.113
       26.6     19.500      0.907      0.106
       26.6     19.650      0.917      0.102
       26.6     19.800      0.953      0.111
       26.6     19.950      0.983      0.112
       26.6     20.100      0.946      0.100
       26.6     20.250      0.927      0.113
       26.6     20.400      0.940      0.119
       26.6     20.550      0.842      0.104
       26.6     20.700      0.861      0.106
       26.6     20.850      1.065      0.102
       26.6     21.000      0.867      0.096
       26.6     21.150      0.905      0.105
       26.6     21.300      0.920      0.094
       26.6     21.450      0.912      0.105
       26.6     21.600      1.031      0.107
       26.6     21.750      0.863      0.097
       26.6     21.900      0.886      0.101
       26.6     22.050      0.960      0.101
       26.6     22.200      0.918      0.097
       26.6     22.350      0.850      0.110
       26.6     22.500      0.999      0.116
       26.6     22.650      0.908      0.101
       26.6     22.800      0.899      0.115
       26.6     22.950      0.948      0.107
       26.6     23.100      0.859      0.120
       26.6     23.250      0.998      0.103
       26.6     23.400      1.081      0.110
       26.6     23.550      1.023      0.104
       26.6     23.700      1.043      0.110
       26.6     23.850      1.002      0.110
       26.6     24.000      1.142      0.117
       26.6     24.150      1.288      0.118
       26.6     24.300      1.173      0.122
       26.6     24.450      1.335      0.112
       26.6     24.600      1.389      0.116
       26.6     24.750      1.636      0.124
       26.6     24.900      1.598      0.125
       26.6     25.050      1.437      0.127
       26.6     25.200      1.351      0.119
       26.6     25.350      1.270      0.118
       26.6     25.500      0.961      0.130
       26.6     25.650      0.740      0.099
       26.6     25.800      0.441      0.091
       26.6     25.950      0.273      0.075
       26.6     26.100      0.111      0.079
       26.6     26.250     -0.022      0.077
       26.6     26.400      0.149      0.062
       26.6     26.550      0.036      0.065
       26.6     26.700     -0.058      0.058
       26.6     26.850     -0.005      0.051
       26.6     27.000     -0.039      0.060
       26.6     27.150     -0.082      0.076
       26.6     27.300     -0.009      0.056
       26.6     27.450      0.000      0.067
       26.6     27.600      0.000      0.067
       26.6     27.750     -0.075      0.080
       26.6     27.900      0.107      0.075
       26.6     28.050     -0.012      0.086
       26.6     28.200     -0.064      0.088
       26.6     28.350     -0.195      0.114
       26.6     28.500      0.085      0.125
       26.6     28.650      0.259      0.143
       26.6     28.800      0.422      0.144
       26.6     28.950      0.276      0.154
       26.6     29.100      0.335      0.144
       26.6     29.250      0.593      0.124
       26.6     29.400      0.441      0.131
       26.6     29.550      0.278      0.120
       26.6     29.700      0.088      0.108
       26.6     29.850      0.014      0.104
       26.6     30.000      0.140      0.095
       26.6     30.150      0.160      0.093
       26.6     30.300      0.063      0.092
       26.6     30.450      0.014      0.080
       26.6     30.600     -0.004      0.061
       26.6     30.750      0.050      0.054
       26.6     30.900     -0.015      0.055
       26.6     31.050      0.006      0.059
       26.6     31.200      0.101      0.040
       26.6     31.350      0.091      0.043
       26.6     31.500      0.051      0.032
       26.6     31.650     -0.013      0.034
       26.6     31.800     -0.028      0.032
       26.6     31.950     -0.005      0.035
       26.6     32.100      0.016      0.024
       26.6     32.250     -0.001      0.035
       26.6     32.400      0.008      0.036
       26.6     32.550      0.034      0.031
       26.6     32.700      0.005      0.026
       26.6     32.850     -0.053      0.042
       26.6     33.000     -0.014      0.031
       26.6     33.150      0.021      0.026
       26.6     33.300      0.029      0.026
       26.6     33.450      0.033      0.027
       26.6     33.600      0.037      0.027
       26.6     33.750     -0.006      0.034
       26.6     33.900     -0.028      0.033
       26.6     34.050     -0.002      0.025
       26.6     34.200     -0.015      0.035
       26.6     34.350     -0.030      0.043
       26.6     34.500      0.005      0.036
       26.6     34.650     -0.015      0.031
       26.6     34.800      0.001      0.025
       26.6     34.950      0.004      0.025
       26.6     35.100      0.034      0.031
       26.6     35.250     -0.072      0.050
       26.6     35.400      0.006      0.036
       26.6     35.550      0.063      0.031
       26.6     35.700     -0.015      0.041
       26.6     35.850     -0.008      0.036
       26.6     36.000      0.007      0.028
       26.6     36.150     -0.028      0.037
       26.6     36.300      0.016      0.031
       26.6     36.450      0.023      0.027
       26.6     36.600      0.002      0.032
       26.6      36.75     -0.004      0.039
       26.6       36.9     -0.023      0.048
       26.6      37.05     -0.066      0.059
       26.6       37.2     -0.052      0.056
       26.6      37.35      0.038      0.039
       26.6       37.5      0.008      0.044
       26.6      37.65     -0.097      0.057
       26.6       37.8     -0.096      0.064
       26.6      37.95     -0.046      0.058
       26.6       38.1     -0.071      0.057
       26.6      38.25     -0.069      0.067
       26.6       38.4      0.084      0.038
       36.6      9.300      0.000      0.014
       36.6      9.450      0.000      0.013
       36.6      9.600      0.770      0.082
       36.6      9.750      1.778      0.126
       36.6      9.900      1.651      0.121
       36.6     10.050      1.481      0.161
       36.6     10.200      1.174      0.160
       36.6     10.350      1.047      0.165
       36.6     10.500      1.142      0.150
       36.6     10.650      0.921      0.155
       36.6     10.800      1.013      0.129
       36.6     10.950      1.022      0.117
       36.6     11.100      1.059      0.128
       36.6     11.250      1.156      0.120
       36.6     11.400      1.168      0.124
       36.6     11.550      1.217      0.124
       36.6     11.700      1.331      0.114
       36.6     11.850      1.135      0.140
       36.6     12.000      0.961      0.141
       36.6     12.150      1.218      0.130
       36.6     12.300      1.315      0.127
       36.6     12.450      0.879      0.146
       36.6     12.600      0.963      0.118
       36.6     12.750      1.013      0.109
       36.6     12.900      1.017      0.118
       36.6     13.050      0.841      0.137
       36.6     13.200      0.746      0.146
       36.6     13.350      0.731      0.138
       36.6     13.500      0.697      0.122
       36.6     13.650      0.704      0.100
       36.6     13.800      0.791      0.112
       36.6     13.950      0.798      0.116
       36.6     14.100      0.808      0.124
       36.6     14.250      0.637      0.124
       36.6     14.400      0.689      0.104
       36.6     14.550      0.831      0.097
       36.6     14.700      0.839      0.100
       36.6     14.850      0.749      0.109
       36.6     15.000      0.728      0.111
       36.6     15.150      0.610      0.114
       36.6     15.300      0.665      0.108
       36.6     15.450      0.709      0.105
       36.6     15.600      0.711      0.095
       36.6     15.750      0.611      0.102
       36.6     15.900      0.532      0.110
       36.6     16.050      0.535      0.104
       36.6     16.200      0.714      0.101
       36.6     16.350      0.610      0.101
       36.6     16.500      0.542      0.093
       36.6     16.650      0.507      0.104
       36.6     16.800      0.544      0.099
       36.6     16.950      0.535      0.102
       36.6     17.100      0.572      0.112
       36.6     17.250      0.694      0.099
       36.6     17.400      0.693      0.079
       36.6     17.550      0.603      0.090
       36.6     17.700      0.451      0.102
       36.6     17.850      0.573      0.080
       36.6     18.000      0.809      0.086
       36.6     18.150      0.625      0.089
       36.6     18.300      0.371      0.102
       36.6     18.450      0.457      0.097
       36.6     18.600      0.637      0.087
       36.6     18.750      0.477      0.096
       36.6     18.900      0.521      0.088
       36.6     19.050      0.645      0.095
       36.6     19.200      0.531      0.103
       36.6     19.350      0.529      0.090
       36.6     19.500      0.642      0.075
       36.6     19.650      0.659      0.085
       36.6     19.800      0.610      0.091
       36.6     19.950      0.485      0.091
       36.6     20.100      0.439      0.110
       36.6     20.250      0.573      0.087
       36.6     20.400      0.614      0.089
       36.6     20.550      0.609      0.094
       36.6     20.700      0.559      0.089
       36.6     20.850      0.489      0.099
       36.6     21.000      0.551      0.091
       36.6     21.150      0.486      0.092
       36.6     21.300      0.562      0.107
       36.6     21.450      0.474      0.102
       36.6     21.600      0.707      0.087
       36.6     21.750      0.787      0.091
       36.6     21.900      0.731      0.101
       36.6     22.050      0.667      0.096
       36.6     22.200      0.824      0.091
       36.6     22.350      0.831      0.108
       36.6     22.500      1.012      0.099
       36.6     22.650      0.956      0.104
       36.6     22.800      0.979      0.101
       36.6     22.950      0.731      0.097
       36.6     23.100      0.654      0.082
       36.6     23.250      0.543      0.070
       36.6     23.400      0.316      0.087
       36.6     23.550      0.139      0.066
       36.6     23.700      0.067      0.062
       36.6     23.850      0.074      0.040
       36.6     24.000     -0.014      0.074
       36.6     24.150      0.102      0.043
       36.6     24.300     -0.019      0.073
       36.6     24.450      0.094      0.053
       36.6     24.600      0.087      0.041
       36.6     24.750     -0.010      0.066
       36.6     24.900     -0.068      0.085
       36.6     25.050      0.057      0.051
       36.6     25.200      0.154      0.057
       36.6     25.350      0.174      0.081
       36.6     25.500      0.329      0.067
       36.6     25.650      0.306      0.073
       36.6     25.800      0.380      0.060
       36.6     25.950      0.238      0.083
       36.6     26.100      0.208      0.083
       36.6     26.250      0.258      0.056
       36.6     26.400      0.227      0.060
       36.6     26.550      0.141      0.056
       36.6     26.700     -0.025      0.077
       36.6     26.850     -0.025      0.067
       36.6     27.000      0.079      0.055
       36.6     27.150      0.018      0.057
       36.6     27.300      0.018      0.050
       36.6     27.450     -0.151      0.090
       36.6     27.600     -0.096      0.077
       36.6     27.750      0.062      0.064
       36.6     27.900     -0.002      0.085
       36.6     28.050     -0.243      0.108
       36.6     28.200     -0.239      0.113
       36.6     28.350     -0.090      0.122
       36.6     28.500      0.011      0.133
       36.6     28.650      0.129      0.138
       36.6     28.800      0.046      0.141
       36.6     28.950     -0.013      0.119
       36.6     29.100      0.077      0.098
       36.6     29.250      0.140      0.095
       36.6     29.400      0.039      0.099
       36.6     29.550     -0.138      0.104
       36.6     29.700     -0.125      0.102
       36.6     29.850      0.089      0.096
       36.6     30.000      0.201      0.086
       36.6     30.150      0.041      0.094
       36.6     30.300     -0.067      0.091
       36.6     30.450      0.006      0.066
       36.6     30.600     -0.051      0.061
       36.6     30.750     -0.003      0.058
       36.6     30.900      0.001      0.064
       36.6     31.050      0.033      0.056
       36.6     31.200      0.033      0.037
       36.6     31.350     -0.018      0.045
       36.6     31.500     -0.038      0.043
       36.6     31.650      0.044      0.034
       36.6     31.800      0.006      0.033
       36.6     31.950     -0.051      0.042
       36.6     32.100     -0.011      0.034
       36.6     32.250      0.007      0.033
       36.6     32.400      0.019      0.032
       36.6     32.550     -0.006      0.031
       36.6     32.700      0.009      0.031
       36.6     32.850      0.039      0.033
       36.6     33.000      0.045      0.034
       36.6     33.150      0.026      0.034
       36.6     33.300     -0.004      0.040
       36.6     33.450      0.000      0.039
       36.6     33.600      0.005      0.031
       36.6     33.750     -0.030      0.036
       36.6     33.900     -0.010      0.040
       36.6     34.050      0.018      0.031
       36.6     34.200      0.042      0.034
       36.6     34.350      0.062      0.036
       36.6     34.500      0.021      0.032
       36.6     34.650     -0.020      0.030
       36.6     34.800      0.017      0.032
       36.6     34.950     -0.026      0.044
       36.6     35.100      0.015      0.031
       36.6     35.250     -0.052      0.051
       36.6     35.400     -0.019      0.055
       36.6     35.550      0.012      0.038
       36.6     35.700     -0.016      0.042
       36.6     35.850     -0.021      0.044
       36.6     36.000      0.022      0.039
       36.6     36.150     -0.032      0.053
       36.6     36.300     -0.043      0.046
       36.6     36.450     -0.013      0.039
       36.6     36.600     -0.020      0.044
       36.6     36.750     -0.016      0.039
       36.6       36.9     -0.007      0.037
       36.6      37.05      0.038      0.044
       36.6       37.2      0.039      0.033
       36.6      37.35       0.03      0.038
       36.6       37.5     -0.031      0.053
       36.6      37.65     -0.009      0.046
       36.6       37.8     -0.079       0.06
       36.6      37.95       0.02      0.034
       36.6       38.1      0.021      0.046
       36.6      38.25      0.029      0.037
       36.6       38.4      0.042      0.034
ENDDATA           1471
ENDSUBENT         1484
NOSUBENT      D5067003   20200502   20200806   20200806       D127
NOSUBENT      D5067004   20200502   20200806   20200806       D127
NOSUBENT      D5067005   20200502   20200806   20200806       D127
NOSUBENT      D5067006   20200502   20200806   20200806       D127
NOSUBENT      D5067007   20200502   20200806   20200806       D127
NOSUBENT      D5067008   20200502   20200806   20200806       D127
NOSUBENT      D5067009   20200502   20200806   20200806       D127
SUBENT        D5067010   20200502   20200806   20200806       D127
BIB                  3          5
REACTION   (1-H-3(D,N)2-HE-4,,DA)
STATUS     (CURVE) Correspond to Fig.2 (p.55) in Yad.Fiz. ta
           Energ.,9,53,2008 and Fig.1 (p.454) in Bull.Rus.Acad. of
           Sc.-Phys.,74,453,2010. Digitized by GSYS2.4.7.
HISTORY    (20200502A) OG. DATA corrected. STATUS updated.
ENDBIB               5
NOCOMMON             0          0
DATA                 3         13
ANG-CM     DATA-CM    ERR-S
ADEG       MB/SR      MB/SR
    90.0189     0.2835     0.0366
   108.9523     0.5018     0.0331
   120.5078     0.7625     0.0436
   131.9712     0.7320     0.0453
   142.9867     0.3317     0.0279
   145.2862     0.2774     0.0349
   147.4809     0.2406     0.0297
   149.7882     0.2108     0.0244
   152.1043     0.2088     0.0227
   154.3271     0.2610     0.0209
   156.5643     0.3585     0.0349
   158.8986     0.4141     0.0314
   163.2356     0.5237     0.0297
ENDDATA             15
ENDSUBENT           25
ENDENTRY            10
