ENTRY            14105   20060612   20061116   20061002       1340
SUBENT        14105001   20060612   20061116   20061002       1340
BIB                 11         25
INSTITUTE  (1USARPI,1USALAS,1USABNL,2FR BRC)
REFERENCE  (J,NIM/A,562,771,2006)
AUTHOR     (C.Romano,Y.Danon,R.C.Haight,S.A.Wender,D.J.Vieira,
            E.M.Bond,R.S.Rundberg,J.B.Wilhelmy,J.M.O'Donnell,
            A.F.Michaudon,T.A.Bredeweg,D.Rochman,T.Granier,
            T.Ethvignot)
TITLE      Measurements of (n,alpha) cross-section of small
            samples using a lead-slowing-down-spectrometer
FACILITY   (LINAC,1USALAS) Los Alamos Neutron Science Center
            (LANSCE)
INC-SOURCE (SPALL) A lead-slowing-down-spectrometer (LSDS),
            and pulses of 800 MeV protons from the Proton
            Storage Ring.
DETECTOR   (IOCH) a compensated ionization chamber (CIC)
SAMPLE     -LiF sample 91 +/-29 mg/cm2 with an area of
            0.7 cm2 (1.1+/-0.4 mg 6Li) deposited on a 20
            mil thick titanium backing was used as the
            cathode in the CIC with the sample facing the
            top plate.
           -62+/-7 mg/cm2 with an area of 0.7 cm2 of LiF
            (0.76+/-0.09 mg 6Li) and the proton beam current
            was increased to 300 nA
METHOD     (TOF) Time-of-flight
ERR-ANALYS (ERR-S) Statistical uncertainty
HISTORY    (20060612C) DR
ENDBIB              25
NOCOMMON             0          0
ENDSUBENT           28
SUBENT        14105002   20060612   20061116   20061002       1340
BIB                  2          2
REACTION   (3-LI-6(N,T)2-HE-4,,SIG)
STATUS     Data received from author (Fig.3 top)
ENDBIB               2
NOCOMMON             0          0
DATA                 3        130
EN         DATA       ERR-S
EV         B          B
1056.        3.681    0.122
 990.388     3.463    0.122
 927.523     4.587    0.136
 870.458     4.172    0.142
 818.503     4.538    0.144
 768.402     4.186    0.143
 720.35      4.945    0.152
 676.668     5.755    0.178
 636.842     5.209    0.165
 598.602     5.582    0.176
 562.042     4.739    0.16
 528.731     5.569    0.187
 498.297     6.095    0.192
 467.884     6.713    0.199
 440.173     6.647    0.213
 414.852     6.046    0.2
 390.691     7.107    0.224
 367.701     6.487    0.211
 346.682     7.778    0.248
 326.678     7.103    0.226
 307.683     7.187    0.243
 290.298     8.656    0.264
 273.78      8.35     0.267
 258.116     9.003    0.276
 243.285     8.999    0.284
 229.263     8.83     0.28
 216.419     9.368    0.307
 204.261     9.411    0.297
 192.433     9.815    0.313
 181.603     9.096    0.31
 171.382    11.309    0.346
 161.744    11.452    0.358
 152.661    10.256    0.339
 144.106    11.481    0.37
 136.053    12.508    0.387
 128.475    11.799    0.387
 121.346    12.254    0.396
 114.489    13.264    0.414
 108.057    14.588    0.447
 102.023    13.877    0.439
  96.245    15.876    0.473
  90.837    13.79     0.454
  85.773    15.345    0.483
  81.03     15.813    0.504
  76.502    15.67     0.497
  72.191    18.067    0.55
  68.164    18.766    0.566
  64.4      17.102    0.556
  60.821    19.432    0.59
  57.424    19.814    0.613
  54.204    20.029    0.614
  51.156    20.437    0.639
  48.317    20.503    0.649
  45.63     20.115    0.652
  43.091    22.336    0.697
  40.661    22.583    0.702
  38.372    21.963    0.713
  36.243    24.401    0.763
  34.212    23.523    0.752
  32.278    25.143    0.791
  30.462    27.837    0.847
  28.756    24.511    0.809
  27.137    27.415    0.861
  25.602    28.235    0.89
  24.165    30.625    0.945
  22.804    28.497    0.919
  21.505    30.493    0.96
  20.28     31.284    0.993
  19.126    33.084    1.032
  18.038    34.49     1.076
  17.015    34.785    1.094
  16.044    37.707    1.154
  15.124    37.626    1.168
  14.255    40.175    1.225
  13.434    40.699    1.251
  12.659    40.905    1.274
  11.924    41.32     1.292
  11.227    43.249    1.344
  10.573    45.812    1.408
   9.955    45.267    1.415
   9.371    48.897    1.498
   8.821    46.153    1.474
   8.297    50.625    1.556
   7.802    51.343    1.6
   7.335    54.144    1.659
   6.893    54.153    1.687
   6.478    57.205    1.763
   6.086    58.106    1.799
   5.715    59.887    1.852
   5.362    60.249    1.876
   5.029    63.103    1.951
   4.716    64.431    2.005
   4.419    67.451    2.071
   4.139    61.705    2.018
   3.875    66.511    2.12
   3.625    70.267    2.201
   3.389    65.739    2.169
   3.166    72.418    2.305
   2.955    76.536    2.396
   2.757    78.774    2.47
   2.569    79.71     2.521
   2.392    80.445    2.559
   2.225    92.004    2.779
   2.068    86.144    2.728
   1.919    90.756    2.833
   1.779    95.073    2.941
   1.647   100.491    3.061
   1.522   108.769    3.231
   1.405   114.883    3.366
   1.294   112.796    3.378
   1.19    124.508    3.594
   1.092   129.868    3.724
   1.      145.063    3.99
   0.914   147.87     4.082
   0.833   162.224    4.336
   0.757   164.383    4.425
   0.686   173.766    4.616
   0.619   188.113    4.867
   0.557   203.51     5.143
   0.499   201.364    5.189
   0.444   214.785    5.445
   0.394   237.408    5.818
   0.347   249.448    6.064
   0.304   270.993    6.438
   0.264   272.866    6.587
   0.228   294.232    6.98
   0.194   328.88     7.555
   0.164   330.777    7.771
   0.136   364.537    8.396
   0.112   413.273    9.243
ENDDATA            132
ENDSUBENT          139
ENDENTRY             2
