ENTRY            E2135   20140325   20140604   20140325       E089
SUBENT        E2135001   20140325   20140604   20140325       E089
BIB                 11         35
TITLE      Gamow-Teller unit cross sections of the (p,n) reaction
           at 198 and 297 MeV on medium-heavy nuclei
AUTHOR     (M.Sasano, H.Sakai, K.Yako, T.Wakasa, S.Asaji,
            K.Fujita, Y.Fujita, M.B.Greenfield, Y.Hagihara,
            K.Hatanaka, T.Kawabata, H.Kuboki, Y.Maeda, H.Okamura,
            T.Saito, Y.Sakemi, K.Sekiguchi, Y.Shimizu,
            Y.Takahashi, Y.Tameshige, A.Tamii)
INSTITUTE  (2JPNTOK) Department of Physics
           (2JPNKYU) Department of Physics
           (2JPNOSA) Department of Physics
           (2JPNOSA) Research Center for Nuclear Physics
           (2JPNIPC)
           (2JPNTOK) Center for Nuclear Study
           (2JPNICU) Department of Physics
           (2JPNTOH) Cyclotron and Radioisotope Center
           (2JPNMZK) Department of Applied Physics
REFERENCE  (J,PR/C,79,(2),024602,200902)
           Main reference. See also TITLE and AUTHOR.
           (C,2007TOKYO,2,498,2007)
           M.Sasano+, DAE for 58Ni(p,n) at 300 MeV
           (J,JP/CS,20,181,2005)
           M.Sasano+, DAE for 58Ni(p,n) at 300 MeV
PART-DET   (N)
INC-SOURCE Beam intensity is 100 nA.
SAMPLE     - Chemical-form of target is element.
           - Physical-form of target is solid.
METHOD     (TOF)
FACILITY   (CYCLO,2JPNOSA) To accelerate 297 MeV proton beam at
                           RCNP
DETECTOR   (SCIN)
HISTORY    (20090421C) TA
           (20091202A) Nf. REFERENCE: PRC79,024602 added,
                       002-009: STATUS corrected
           (20130215A) Nf. subentries 002, 003, 004 008: Target
                       enrichment corrected
ENDBIB              35
NOCOMMON             0          0
ENDSUBENT           38
SUBENT        E2135002   20140325   20140604   20140325       E089
BIB                  7         19
REACTION   (28-NI-58(P,N)29-CU-58,ICL,DA/DE,N/RSD)
EN-SEC     ANG-CM is polar angle (c.m.) between beam and neutron
           (E-EXC,29-CU-58)
SAMPLE     - Target enrichment: Higher than 99.5 %
           - Target-thickness is 99+-2 mg/cm2.
DETECTOR   - Solid angle of detector is 0.04 msr.
           - Efficiency: Neutron-detection efficiency is (1.90 +-
             0.09)*10**(-2).
ERR-ANALYS (ERR-1) Uncertainty in the target thickness
           (ERR-2) Uncertainty in the neutron-detection
                   efficiency
           (ERR-3) Uncertainty in the integrated current
STATUS     (TABLE) Data (Fig.5, 024602-5 of reference) sent by
                   e-mail from M. Sasano(2009.04.02)
HISTORY    (20100104A) Nf. STATUS corrected
           (20100204A) Nf. REACTION: SF3 and SF4 corrected
           (20131125A) MA: REACTION corrected: (P,X)0-NN-1,,DA/DE
                       -> (P,N)29-CU-58,INC,DA/DE,N/RSD
           (20140325A) MA: SF5(REACTION) corrected: INC -> ICL
ENDBIB              19
COMMON               6          3
EN         EN-RSL     ANG-CM     ERR-1      ERR-2      ERR-3
MEV        MEV        ADEG       PER-CENT   PER-CENT   PER-CENT
 198.       0.3        0.         3.         3.         2.
ENDCOMMON            3
DATA                 2        104
E-EXC      DATA-CM
MEV        MB/SR/MEV
   -3.02210    0.00077
   -2.97210    0.00077
   -2.92210    0.01881
   -2.87210   -0.01726
   -2.82210   -0.03530
   -2.77210   -0.01726
   -2.72210    0.03684
   -2.67210    0.00077
   -2.62210    0.01881
   -2.57210   -0.03530
   -2.52210   -0.01726
   -2.47210    0.01881
   -2.42210    0.01881
   -2.37210    0.00077
   -2.32210    0.00077
   -2.27210   -0.01726
   -2.22210    0.00077
   -2.17210    0.00077
   -2.12210   -0.01726
   -2.07210    0.00077
   -2.02210    0.00077
   -1.97210    0.01881
   -1.92210    0.01881
   -1.87210    0.00077
   -1.82210    0.00077
   -1.77210    0.03684
   -1.72210    0.00077
   -1.67210   -0.03530
   -1.62210    0.01881
   -1.57210    0.01881
   -1.52210   -0.03530
   -1.47210    0.05488
   -1.42210    0.00077
   -1.37210   -0.01726
   -1.32210    0.00077
   -1.27210    0.03684
   -1.22210    0.05488
   -1.17210    0.00077
   -1.12210    0.01881
   -1.07210   -0.01726
   -1.02210    0.03684
   -0.97210    0.01881
   -0.92210    0.01881
   -0.87210   -0.01726
   -0.82210    0.00077
   -0.77210   -0.01726
   -0.72210    0.01881
   -0.67210   -0.03530
   -0.62210   -0.03530
   -0.57210    0.03684
   -0.52210    0.05488
   -0.47210    0.07291
   -0.42210    0.14506
   -0.37210    0.28934
   -0.32210    0.41559
   -0.27210    0.54184
   -0.22210    0.93862
   -0.17210    1.02880
   -0.12210    1.37147
   -0.07210    1.84040
   -0.02210    2.16504
    0.02790    2.36343
    0.07790    2.39950
    0.12790    2.56182
    0.17790    2.56182
    0.22790    2.23718
    0.27790    1.67808
    0.32790    1.56987
    0.37790    1.06487
    0.42790    1.33540
    0.47790    0.79434
    0.52790    0.63202
    0.57790    0.66809
    0.62790    0.39755
    0.67790    0.88451
    0.72790    0.79434
    0.77790    1.24523
    0.82790    2.09290
    0.87790    2.59789
    0.92790    3.10289
    0.97790    3.95056
    1.02790    4.00467
    1.07790    3.57181
    1.12790    3.69806
    1.17790    3.49967
    1.22790    2.83236
    1.27790    2.05683
    1.32790    1.67808
    1.37790    1.26326
    1.42790    0.83041
    1.47790    0.74023
    1.52790    0.54184
    1.57790    0.43363
    1.62790    0.36148
    1.67790    0.18113
    1.72790    0.25327
    1.77790    0.09095
    1.82790    0.05488
    1.87790    0.03684
    1.92790    0.12702
    1.97790   -0.01726
    2.02790   -0.03530
    2.07790    0.03684
    2.12790    0.01881
ENDDATA            106
ENDSUBENT          134
SUBENT        E2135003   20140325   20140604   20140325       E089
BIB                  7         19
REACTION   (50-SN-120(P,N)51-SB-120,ICL,DA/DE,N/RSD)
EN-SEC     ANG-CM is polar angle (c.m.) between beam and neutron
           (E-EXC,51-SB-120)
SAMPLE     - Target enrichment: Higher than 99.5 %
           - Target-thickness is 160+-3 mg/cm2.
DETECTOR   - Solid angle of detector is 0.04 msr.
           - Efficiency: Neutron-detection efficiency is (1.90 +-
             0.09)*10**(-2).
ERR-ANALYS (ERR-1) Uncertainty in the target thickness
           (ERR-2) Uncertainty in the neutron-detection
                   efficiency
           (ERR-3) Uncertainty in the integrated current
STATUS     (TABLE) Data (Fig.5, 024602-5 of reference) sent by
                   e-mail from M. Sasano(2009.04.02)
HISTORY    (20100104A) Nf. STATUS corrected
           (20100204A) Nf. REACTION: SF3 and SF4 corrected
           (20131125A) MA: REACTION corrected: (P,X)0-NN-1,,DA/DE
                       -> (P,N)51-SB-120,INC,DA/DE,N/RSD
           (20140325A) MA: SF5(REACTION) corrected: INC -> ICL
ENDBIB              19
COMMON               6          3
EN         EN-RSL     ANG-CM     ERR-1      ERR-2      ERR-3
MEV        MEV        ADEG       PER-CENT   PER-CENT   PER-CENT
 198.       0.3        0.         3.         3.         2.
ENDCOMMON            3
DATA                 2        447
E-EXC      DATA-CM
MEV        MB/SR/MEV
    -1.50860.31284E-01
    -1.45860.31284E-01
    -1.4086     0.0000
    -1.35860.31284E-01
    -1.3086    0.15642
    -1.25860.62568E-01
    -1.2086    0.18770
    -1.15860.62568E-01
    -1.1086    0.12514
    -1.05860.93852E-01
    -1.00860.62568E-01
   -0.958600.93852E-01
   -0.908600.62568E-01
   -0.858600.62568E-01
   -0.808600.93852E-01
   -0.758600.62568E-01
   -0.70860     0.0000
   -0.658600.62568E-01
   -0.60860    0.15642
   -0.558600.93852E-01
   -0.50860    0.15642
   -0.458600.93852E-01
   -0.40860    0.25027
   -0.35860    0.31284
   -0.30860    0.65697
   -0.25860    0.93852
   -0.20860     1.6581
   -0.15860     2.6279
   -0.10860     2.7843
 -5.860E-02     2.5653
 -8.599E-03     3.0971
  4.140E-02     2.9720
  9.140E-02     2.3463
    0.14140     1.9083
    0.19140     1.5642
    0.24140     1.1888
    0.29140    0.90724
    0.34140    0.53183
    0.39140    0.71954
    0.44140    0.56311
    0.49140    0.31284
    0.54140    0.46926
    0.59140    0.46926
    0.64140    0.31284
    0.69140    0.53183
    0.74140    0.25027
    0.79140    0.84467
    0.84140    0.90724
    0.89140    0.78210
    0.94140     1.3765
    0.99140     1.0324
     1.0414     1.8145
     1.0914     1.6268
     1.1414     2.0648
     1.1914     2.1586
     1.2414     2.1899
     1.2914     2.7217
     1.3414     2.7530
     1.3914     2.3463
     1.4414     1.5955
     1.4914     2.3150
     1.5414     2.1586
     1.5914     1.3452
     1.6414     1.9083
     1.6914     1.3452
     1.7414    0.96981
     1.7914     1.3765
     1.8414     1.3765
     1.8914    0.78210
     1.9414     1.0324
     1.9914     1.0637
     2.0414     1.3139
     2.0914     1.2201
     2.1414     1.2826
     2.1914     1.3765
     2.2414     1.5016
     2.2914     1.2826
     2.3414     1.5642
     2.3914     1.4391
     2.4414     1.6581
     2.4914     1.8770
     2.5414     2.4714
     2.5914     1.7206
     2.6414     2.1899
     2.6914     2.2212
     2.7414     2.3150
     2.7914     2.5340
     2.8414     2.0960
     2.8914     2.0335
     2.9414     1.8458
     2.9914     1.9396
     3.0414     2.2837
     3.0914     2.1899
     3.1414     1.5329
     3.1914     2.0335
     3.2414     2.7843
     3.2914     2.5340
     3.3414     2.2525
     3.3914     2.5340
     3.4414     2.7217
     3.4914     2.5966
     3.5414     2.1273
     3.5914     2.3463
     3.6414     2.3776
     3.6914     2.7217
     3.7414     2.0335
     3.7914     2.2525
     3.8414     2.9407
     3.8914     2.7843
     3.9414     2.7843
     3.9914     2.4089
     4.0414     2.4402
     4.0914     2.5340
     4.1414     2.5966
     4.1914     2.4089
     4.2414     2.4402
     4.2914     2.0960
     4.3414     2.4089
     4.3914     2.9720
     4.4414     2.9094
     4.4914     3.4100
     4.5414     3.0971
     4.5914     3.4413
     4.6414     3.4413
     4.6914     3.6602
     4.7414     3.7854
     4.7914     3.3787
     4.8414     3.6602
     4.8914     3.7541
     4.9414     3.5977
     4.9914     4.2234
     5.0414     4.5362
     5.0914     4.3172
     5.1414     4.7239
     5.1914     4.8178
     5.2414     5.6937
     5.2914     6.3507
     5.3414     5.0055
     5.3914     5.5686
     5.4414     5.3183
     5.4914     6.5071
     5.5414     5.6937
     5.5914     5.2245
     5.6414     5.2557
     5.6914     6.3507
     5.7414     5.5373
     5.7914     6.3820
     5.8414     6.2881
     5.8914     6.7887
     5.9414     6.2568
     5.9914     6.1630
     6.0414     6.6635
     6.0914     5.6311
     6.1414     6.1943
     6.1914     6.2255
     6.2414     6.5384
     6.2914     5.9127
     6.3414     5.1932
     6.3914     5.5373
     6.4414     6.5071
     6.4914     5.4747
     6.5414     5.8501
     6.5914     5.8501
     6.6414     5.0055
     6.6914     5.8814
     6.7414     6.1004
     6.7914     5.1306
     6.8414     5.1932
     6.8914     5.3183
     6.9414     6.1943
     6.9914     5.5686
     7.0414     5.2557
     7.0914     6.0066
     7.1414     5.5373
     7.1914     5.3183
     7.2414     6.0378
     7.2914     4.9742
     7.3414     4.9116
     7.3914     6.2255
     7.4414     5.3496
     7.4914     4.7239
     7.5414     5.1619
     7.5914     5.5373
     7.6414     6.1317
     7.6914     5.0367
     7.7414     5.4434
     7.7914     5.8814
     7.8414     4.7239
     7.8914     5.6624
     7.9414     5.4747
     7.9914     5.7250
     8.0414     6.0378
     8.0914     6.5384
     8.1414     6.3194
     8.1914     6.1943
     8.2414     6.1630
     8.2914     6.4445
     8.3414     6.9451
     8.3914     6.5071
     8.4414     6.5071
     8.4914     6.2568
     8.5414     6.1943
     8.5914     6.2881
     8.6414     6.7574
     8.6914     7.1641
     8.7414     6.5697
     8.7914     7.4143
     8.8414     7.1015
     8.8914     7.2266
     8.9414     8.3841
     8.9914     7.8210
     9.0414     7.8836
     9.0914     7.4143
     9.1414     7.0076
     9.1914     8.2903
     9.2414     8.4780
     9.2914     8.6031
     9.3414     7.6333
     9.3914     7.6959
     9.4414     8.4154
     9.4914     9.1350
     9.5414     9.4165
     9.5914     9.1975
     9.6414     9.8545
     9.6914     9.3852
     9.7414     10.449
     9.7914     9.3852
     9.8414     11.106
     9.8914     12.013
     9.9414     15.767
     9.9914     16.455
     10.041     18.051
     10.091     19.146
     10.141     19.396
     10.191     19.584
     10.241     18.583
     10.291     16.862
     10.341     16.330
     10.391     14.704
     10.441     14.234
     10.491     12.326
     10.541     13.077
     10.591     13.609
     10.641     12.670
     10.691     13.515
     10.741     12.482
     10.791     12.826
     10.841     12.889
     10.891     12.013
     10.941     13.139
     10.991     12.545
     11.041     11.888
     11.091     14.453
     11.141     14.485
     11.191     13.233
     11.241     13.452
     11.291     13.358
     11.341     13.640
     11.391     14.923
     11.441     13.421
     11.491     13.671
     11.541     13.828
     11.591     15.767
     11.641     12.858
     11.691     13.327
     11.741     13.984
     11.791     13.734
     11.841     13.890
     11.891     13.546
     11.941     13.921
     11.991     13.358
     12.041     13.609
     12.091     12.514
     12.141     13.045
     12.191     13.296
     12.241     13.640
     12.291     12.701
     12.341     13.765
     12.391     13.702
     12.441     12.545
     12.491     11.700
     12.541     12.545
     12.591     12.639
     12.641     12.451
     12.691     11.231
     12.741     12.076
     12.791     12.764
     12.841     12.764
     12.891     12.013
     12.941     11.669
     12.991     13.045
     13.041     11.356
     13.091     11.638
     13.141     11.450
     13.191     10.105
     13.241     11.481
     13.291     10.230
     13.341     10.199
     13.391     11.137
     13.441     11.513
     13.491     10.949
     13.541     11.231
     13.591     9.8858
     13.641     9.7294
     13.691     10.386
     13.741     9.8545
     13.791     9.7294
     13.841     9.5104
     13.891     10.292
     13.941     9.6668
     13.991     8.8534
     14.041     8.1026
     14.091     8.7596
     14.141     7.6646
     14.191     10.199
     14.241     9.2288
     14.291     8.6031
     14.341     8.7908
     14.391     8.3841
     14.441     8.6970
     14.491     7.4456
     14.541     7.9462
     14.591     8.4780
     14.641     8.1964
     14.691     7.9462
     14.741     7.6020
     14.791     8.5093
     14.841     7.2892
     14.891     7.4143
     14.941     7.5082
     14.991     7.4769
     15.041     6.8825
     15.091     7.4456
     15.141     7.4769
     15.191     6.8512
     15.241     7.1641
     15.291     6.0066
     15.341     5.5060
     15.391     7.1641
     15.441     6.5384
     15.491     6.1317
     15.541     7.0702
     15.591     5.8501
     15.641     5.7876
     15.691     6.6322
     15.741     6.9764
     15.791     6.1317
     15.841     5.2245
     15.891     5.6624
     15.941     4.6613
     15.991     6.2568
     16.041     5.0993
     16.091     5.0680
     16.141     5.3809
     16.191     5.9753
     16.241     5.0367
     16.291     5.1932
     16.341     5.5060
     16.391     5.6937
     16.441     4.9742
     16.491     5.2870
     16.541     5.0367
     16.591     5.4434
     16.641     5.0367
     16.691     4.7239
     16.741     5.0055
     16.791     5.6624
     16.841     5.0680
     16.891     4.9742
     16.941     4.7865
     16.991     4.8490
     17.041     4.6301
     17.091     5.2245
     17.141     4.9116
     17.191     5.6937
     17.241     5.0055
     17.291     4.8178
     17.341     4.9742
     17.391     4.3485
     17.441     4.4736
     17.491     4.7552
     17.541     4.5675
     17.591     5.2557
     17.641     4.6613
     17.691     4.7552
     17.741     4.7552
     17.791     4.5049
     17.841     4.9116
     17.891     4.6301
     17.941     4.8803
     17.991     4.5362
     18.041     4.5988
     18.091     4.1921
     18.141     4.4736
     18.191     4.8490
     18.241     5.5060
     18.291     4.5675
     18.341     5.3809
     18.391     3.5038
     18.441     4.7865
     18.491     5.1619
     18.541     4.3798
     18.591     4.1295
     18.641     3.6290
     18.691     4.8803
     18.741     3.9731
     18.791     4.2859
     18.841     4.7865
     18.891     4.1921
     18.941     4.2859
     18.991     3.3474
     19.041     4.1295
     19.091     4.0669
     19.141     4.4111
     19.191     4.3485
     19.241     4.1295
     19.291     4.0044
     19.341     3.7854
     19.391     4.3172
     19.441     4.1921
     19.491     3.5351
     19.541     4.8178
     19.591     3.6915
     19.641     3.8479
     19.691     3.3161
     19.741     4.8803
     19.791     4.0357
     19.841     3.6915
     19.891     4.2546
     19.941     4.4736
     19.991     3.6915
     20.041     3.9731
     20.091     3.8792
     20.141     4.4423
     20.191     3.4725
     20.241     4.3172
     20.291     4.2546
     20.341     3.9105
     20.391     3.8167
     20.441     3.6602
     20.491     4.0982
     20.541     4.1921
     20.591     3.8479
     20.641     4.2234
     20.691     3.4413
     20.741     4.3485
     20.791     3.9418
ENDDATA            449
ENDSUBENT          477
SUBENT        E2135004   20140325   20140604   20140325       E089
BIB                  7         19
REACTION   (28-NI-58(P,N)29-CU-58,ICL,DA/DE,N/RSD)
EN-SEC     ANG-CM is polar angle (c.m.) between beam and neutron
           (E-EXC,29-CU-58)
SAMPLE     - Target enrichment: Higher than 99.5 %
           - Target-thickness is 99+-2 mg/cm2.
DETECTOR   - Solid angle of detector is 0.1 msr.
           - Efficiency: Neutron-detection efficiency is (1.45 +-
             0.07)*10**(-2).
ERR-ANALYS (ERR-1) Uncertainty in the target thickness
           (ERR-2) Uncertainty in the neutron-detection
                   efficiency
           (ERR-3) Uncertainty in the integrated current
STATUS     (TABLE) Data (Fig.6, 024602-5 of reference) sent by
                   e-mail from M. Sasano(2009.04.02)
HISTORY    (20100104A) Nf. STATUS corrected
           (20100204A) Nf. REACTION: SF3 and SF4 corrected
           (20131125A) MA: REACTION corrected: (P,X)0-NN-1,,DA/DE
                       -> (P,N)29-CU-58,INC,DA/DE,N/RSD
           (20140325A) MA: SF5(REACTION) corrected: INC -> ICL
ENDBIB              19
COMMON               6          3
EN         EN-RSL     ANG-CM     ERR-1      ERR-2      ERR-3
MEV        MEV        ADEG       PER-CENT   PER-CENT   PER-CENT
 297.       0.5        0.         3.         3.         2.
ENDCOMMON            3
DATA                 2         82
E-EXC      DATA-CM
MEV        MB/SR/MEV
   -2.02500    0.00220
   -1.97500    0.00390
   -1.92500    0.00262
   -1.87500   -0.00122
   -1.82500   -0.00079
   -1.77500   -0.00591
   -1.72500    0.00732
   -1.67500    0.00177
   -1.62500    0.00390
   -1.57500    0.00092
   -1.52500   -0.00250
   -1.47500    0.00433
   -1.42500    0.00817
   -1.37500    0.00433
   -1.32500    0.00262
   -1.27500    0.00561
   -1.22500    0.00476
   -1.17500    0.00561
   -1.12500    0.01287
   -1.07500    0.01074
   -1.02500    0.00817
   -0.97500    0.01159
   -0.92500    0.02141
   -0.87500    0.00732
   -0.82500    0.01629
   -0.77500    0.02482
   -0.72500    0.02141
   -0.67500    0.03166
   -0.62500    0.05941
   -0.57500    0.08246
   -0.52500    0.13070
   -0.47500    0.22079
   -0.42500    0.30147
   -0.37500    0.39412
   -0.32500    0.57258
   -0.27500    0.74676
   -0.22500    0.87057
   -0.17500    1.05757
   -0.12500    1.26207
   -0.07500    1.36496
   -0.02500    1.52249
    0.02500    1.62282
    0.07500    1.60916
    0.12500    1.58995
    0.17500    1.46529
    0.22500    1.40466
    0.27500    1.32653
    0.32500    1.15064
    0.37500    1.02512
    0.42500    0.93845
    0.47500    0.80226
    0.52500    0.82062
    0.57500    0.84197
    0.62500    0.95468
    0.67500    1.10240
    0.72500    1.40125
    0.77500    1.65869
    0.82500    1.92680
    0.87500    2.27987
    0.92500    2.47796
    0.97500    2.65685
    1.02500    2.72131
    1.07500    2.69997
    1.12500    2.62654
    1.17500    2.49888
    1.22500    2.20814
    1.27500    1.95626
    1.32500    1.63478
    1.37500    1.44180
    1.42500    1.18095
    1.47500    0.89363
    1.52500    0.73438
    1.57500    0.57215
    1.62500    0.44364
    1.67500    0.35868
    1.72500    0.28226
    1.77500    0.21267
    1.82500    0.19090
    1.87500    0.16699
    1.92500    0.13412
    1.97500    0.12814
    2.02500    0.11149
ENDDATA             84
ENDSUBENT          112
SUBENT        E2135005   20140325   20140604   20140325       E089
BIB                  7         19
REACTION   (30-ZN-70(P,N)31-GA-70,ICL,DA/DE,N/RSD)
EN-SEC     ANG-CM is polar angle (c.m.) between beam and neutron
           (E-EXC,31-GA-70)
SAMPLE     Target-thickness is 9.3+-0.3 mg/cm2.
           (30-ZN-70,ENR=0.85)
DETECTOR   - Solid angle of detector is 0.1 msr.
           - Efficiency: Neutron-detection efficiency is (1.45 +-
             0.07)*10**(-2).
ERR-ANALYS (ERR-1) Uncertainty in the target thickness
           (ERR-2) Uncertainty in the neutron-detection
                   efficiency
           (ERR-3) Uncertainty in the integrated current
STATUS     (TABLE) Data (Fig.6, 024602-5 of reference) sent by
                   e-mail from M. Sasano(2009.04.02)
HISTORY    (20100104A) Nf. STATUS corrected
           (20100204A) Nf. REACTION: SF3 and SF4 corrected
           (20131125A) MA: REACTION corrected: (P,X)0-NN-1,,DA/DE
                       -> (P,N)31-GA-70,INC,DA/DE,N/RSD
           (20140325A) MA: SF5(REACTION) corrected: INC -> ICL
ENDBIB              19
COMMON               6          3
EN         EN-RSL     ANG-CM     ERR-1      ERR-2      ERR-3
MEV        MEV        ADEG       PER-CENT   PER-CENT   PER-CENT
 297.       0.5        0.         3.         3.         2.
ENDCOMMON            3
DATA                 2        362
E-EXC      DATA-CM
MEV        MB/SR/MEV
   -2.01480    0.02549
   -1.96480   -0.00630
   -1.91480    0.02549
   -1.86480   -0.03809
   -1.81480   -0.05398
   -1.76480    0.00960
   -1.71480    0.04138
   -1.66480    0.04138
   -1.61480    0.04138
   -1.56480    0.04138
   -1.51480   -0.00630
   -1.46480    0.02549
   -1.41480   -0.02219
   -1.36480    0.04138
   -1.31480   -0.00630
   -1.26480    0.00960
   -1.21480   -0.00630
   -1.16480    0.02549
   -1.11480    0.10496
   -1.06480   -0.02219
   -1.01480    0.05728
   -0.96480    0.05728
   -0.91480    0.04138
   -0.86480    0.00960
   -0.81480    0.05728
   -0.76480    0.00960
   -0.71480    0.00960
   -0.66480    0.12086
   -0.61480    0.08907
   -0.56480    0.15265
   -0.51480    0.16854
   -0.46480    0.34338
   -0.41480    0.39107
   -0.36480    0.56591
   -0.31480    0.88380
   -0.26480    0.70896
   -0.21480    1.26527
   -0.16480    1.29706
   -0.11480    1.37654
   -0.06480    1.90106
   -0.01480    1.50369
    0.03520    1.71032
    0.08520    1.45601
    0.13520    1.40832
    0.18520    1.40832
    0.23520    1.10633
    0.28520    1.01096
    0.33520    1.01096
    0.38520    0.99506
    0.43520    0.88380
    0.48520    0.67717
    0.53520    0.82022
    0.58520    0.93149
    0.63520    0.78843
    0.68520    1.02685
    0.73520    0.77254
    0.78520    0.55001
    0.83520    0.55001
    0.88520    0.61359
    0.93520    0.51822
    0.98520    0.61359
    1.03520    0.80433
    1.08520    0.86791
    1.13520    0.66128
    1.18520    1.05864
    1.23520    1.23348
    1.28520    1.12222
    1.33520    1.44011
    1.38520    1.53548
    1.43520    1.77390
    1.48520    1.50369
    1.53520    1.67853
    1.58520    1.64674
    1.63520    1.44011
    1.68520    1.47190
    1.73520    1.39243
    1.78520    1.55138
    1.83520    1.48780
    1.88520    1.61496
    1.93520    1.29706
    1.98520    1.69443
    2.03520    1.64674
    2.08520    1.74211
    2.13520    1.47190
    2.18520    2.04411
    2.23520    1.80569
    2.28520    2.13948
    2.33520    1.93285
    2.38520    2.15537
    2.43520    2.04411
    2.48520    2.01232
    2.53520    2.02822
    2.58520    2.07590
    2.63520    1.77390
    2.68520    1.91695
    2.73520    1.75801
    2.78520    1.67853
    2.83520    1.50369
    2.88520    1.80569
    2.93520    1.51959
    2.98520    1.40832
    3.03520    1.94874
    3.08520    1.90106
    3.13520    2.01232
    3.18520    1.80569
    3.23520    2.07590
    3.28520    2.15537
    3.33520    2.17127
    3.38520    2.39379
    3.43520    1.99643
    3.48520    2.18716
    3.53520    2.28253
    3.58520    1.90106
    3.63520    2.36200
    3.68520    1.85338
    3.73520    1.98053
    3.78520    2.23485
    3.83520    2.01232
    3.88520    2.53684
    3.93520    2.31432
    3.98520    2.39379
    4.03520    2.50506
    4.08520    2.64811
    4.13520    2.48916
    4.18520    3.37926
    4.23520    2.88653
    4.28520    3.15674
    4.33520    2.96600
    4.38520    3.80842
    4.43520    3.99915
    4.48520    3.49052
    4.53520    3.84021
    4.58520    4.65083
    4.63520    3.85610
    4.68520    4.07863
    4.73520    3.80842
    4.78520    4.44420
    4.83520    4.55547
    4.88520    4.49189
    4.93520    4.58725
    4.98520    4.39652
    5.03520    4.20578
    5.08520    4.36473
    5.13520    4.57136
    5.18520    4.49189
    5.23520    4.76210
    5.28520    4.65083
    5.33520    4.49189
    5.38520    4.57136
    5.43520    4.52368
    5.48520    4.12631
    5.53520    4.76210
    5.58520    4.18989
    5.63520    4.68262
    5.68520    5.01641
    5.73520    4.76210
    5.78520    4.41241
    5.83520    3.93557
    5.88520    4.26936
    5.93520    4.58725
    5.98520    4.09452
    6.03520    4.09452
    6.08520    4.55547
    6.13520    4.66673
    6.18520    4.22168
    6.23520    4.28526
    6.28520    4.55547
    6.33520    4.34884
    6.38520    4.95283
    6.43520    4.36473
    6.48520    4.41241
    6.53520    4.47599
    6.58520    4.66673
    6.63520    4.76210
    6.68520    4.98462
    6.73520    4.60315
    6.78520    4.44420
    6.83520    4.71441
    6.88520    4.09452
    6.93520    4.69852
    6.98520    5.01641
    7.03520    4.76210
    7.08520    5.39788
    7.13520    4.39652
    7.18520    4.66673
    7.23520    4.96873
    7.28520    4.76210
    7.33520    4.82567
    7.38520    4.65083
    7.43520    5.03231
    7.48520    4.58725
    7.53520    5.36609
    7.58520    5.46146
    7.63520    5.27072
    7.68520    6.24030
    7.73520    6.60588
    7.78520    6.55819
    7.83520    7.14629
    7.88520    7.44829
    7.93520    7.76618
    7.98520    8.41787
    8.03520    7.81387
    8.08520    8.68807
    8.13520    7.78208
    8.18520    7.84566
    8.23520    7.68671
    8.28520    7.55955
    8.33520    7.82976
    8.38520    7.40061
    8.43520    7.05093
    8.48520    6.92377
    8.53520    6.76482
    8.58520    6.63766
    8.63520    6.86019
    8.68520    6.86019
    8.73520    7.41650
    8.78520    7.36882
    8.83520    7.35292
    8.88520    7.24166
    8.93520    7.06682
    8.98520    6.93966
    9.03520    7.22577
    9.08520    7.25756
    9.13520    6.84430
    9.18520    7.20987
    9.23520    7.33703
    9.28520    7.14629
    9.33520    7.49598
    9.38520    7.82976
    9.43520    7.90924
    9.48520    7.92513
    9.53520    8.24302
    9.58520    7.30524
    9.63520    8.51323
    9.68520    8.13176
    9.73520    8.60860
    9.78520    8.08408
    9.83520    8.95828
    9.88520    8.75165
    9.93520    8.49734
    9.98520    9.19670
   10.03520    9.02186
   10.08520    8.51323
   10.13520    8.19534
   10.18520    9.10134
   10.23520    8.60860
   10.28520    9.08544
   10.33520    8.83113
   10.38520    8.56092
   10.43520    8.52913
   10.48520    9.37154
   10.53520    9.56228
   10.58520    8.78344
   10.63520    8.51323
   10.68520    8.99007
   10.73520    9.38744
   10.78520    9.16491
   10.83520    8.52913
   10.88520    9.14902
   10.93520    8.57681
   10.98520    8.84702
   11.03520    8.71986
   11.08520    8.41787
   11.13520    9.32386
   11.18520    8.67218
   11.23520    8.71986
   11.28520    8.73576
   11.33520    9.08544
   11.38520    8.41787
   11.43520    8.41787
   11.48520    8.94239
   11.53520    8.86292
   11.58520    8.46555
   11.63520    7.87745
   11.68520    8.17945
   11.73520    7.86155
   11.78520    8.52913
   11.83520    7.81387
   11.88520    7.62313
   11.93520    7.95692
   11.98520    7.76618
   12.03520    8.27481
   12.08520    7.89334
   12.13520    7.59134
   12.18520    7.81387
   12.23520    7.35292
   12.28520    7.59134
   12.33520    7.67082
   12.38520    7.14629
   12.43520    6.65356
   12.48520    7.32113
   12.53520    7.13040
   12.58520    7.36882
   12.63520    6.87608
   12.68520    6.60588
   12.73520    6.87608
   12.78520    6.51051
   12.83520    5.87472
   12.88520    7.13040
   12.93520    6.44693
   12.98520    6.22440
   13.03520    6.84430
   13.08520    5.87472
   13.13520    6.12904
   13.18520    6.74893
   13.23520    6.33567
   13.28520    6.63766
   13.33520    6.17672
   13.38520    6.19261
   13.43520    5.28662
   13.48520    6.09725
   13.53520    6.04956
   13.58520    5.77935
   13.63520    5.87472
   13.68520    5.42967
   13.73520    5.36609
   13.78520    5.54093
   13.83520    5.74756
   13.88520    5.30251
   13.93520    5.14357
   13.98520    5.55683
   14.03520    5.19125
   14.08520    4.69852
   14.13520    5.00052
   14.18520    4.84157
   14.23520    4.84157
   14.28520    5.01641
   14.33520    4.95283
   14.38520    4.92104
   14.43520    4.52368
   14.48520    5.03231
   14.53520    4.71441
   14.58520    4.84157
   14.63520    5.00052
   14.68520    4.33294
   14.73520    4.46010
   14.78520    4.38062
   14.83520    4.14220
   14.88520    4.61904
   14.93520    4.57136
   14.98520    4.25347
   15.03520    4.41241
   15.08520    3.79252
   15.13520    4.74620
   15.18520    4.65083
   15.23520    4.20578
   15.28520    4.22168
   15.33520    3.64947
   15.38520    4.15810
   15.43520    4.17399
   15.48520    3.95147
   15.53520    4.42831
   15.58520    4.31705
   15.63520    3.52231
   15.68520    3.98326
   15.73520    4.06273
   15.78520    3.88789
   15.83520    3.87200
   15.88520    4.11042
   15.93520    3.57000
   15.98520    4.14220
   16.03520    4.03094
ENDDATA            364
ENDSUBENT          392
SUBENT        E2135006   20140325   20140604   20140325       E089
BIB                  7         19
REACTION   (48-CD-114(P,N)49-IN-114,ICL,DA/DE,N/RSD)
EN-SEC     ANG-CM is polar angle (c.m.) between beam and neutron
           (E-EXC,49-IN-114)
SAMPLE     Target-thickness is 11.8+-0.4 mg/cm2.
           (48-CD-114,ENR=0.992)
DETECTOR   - Solid angle of detector is 0.1 msr.
           - Efficiency: Neutron-detection efficiency is (1.45 +-
             0.07)*10**(-2).
ERR-ANALYS (ERR-1) Uncertainty in the target thickness
           (ERR-2) Uncertainty in the neutron-detection
                   efficiency
           (ERR-3) Uncertainty in the integrated current
STATUS     (TABLE) Data (Fig.6, 024602-5 of reference) sent by
                   e-mail from M. Sasano(2009.04.02)
HISTORY    (20100104A) Nf. STATUS corrected
           (20100204A) Nf. REACTION: SF3 and SF4 corrected
           (20131125A) MA: REACTION corrected: (P,X)0-NN-1,,DA/DE
                       -> (P,N)49-IN-114,INC,DA/DE,N/RSD
           (20140325A) MA: SF5(REACTION) corrected: INC -> ICL
ENDBIB              19
COMMON               6          3
EN         EN-RSL     ANG-CM     ERR-1      ERR-2      ERR-3
MEV        MEV        ADEG       PER-CENT   PER-CENT   PER-CENT
 297.       0.5        0.         3.         3.         2.
ENDCOMMON            3
DATA                 2        362
E-EXC      DATA-CM
MEV        MB/SR/MEV
   -2.03500    0.09389
   -1.98500   -0.00007
   -1.93500   -0.02095
   -1.88500    0.05213
   -1.83500    0.01037
   -1.78500    0.01037
   -1.73500    0.01037
   -1.68500   -0.00007
   -1.63500    0.02081
   -1.58500    0.01037
   -1.53500    0.01037
   -1.48500   -0.02095
   -1.43500   -0.01051
   -1.38500    0.04169
   -1.33500   -0.01051
   -1.28500    0.04169
   -1.23500   -0.01051
   -1.18500    0.05213
   -1.13500    0.08345
   -1.08500   -0.01051
   -1.03500   -0.01051
   -0.98500    0.03125
   -0.93500    0.02081
   -0.88500   -0.00007
   -0.83500    0.05213
   -0.78500    0.02081
   -0.73500   -0.01051
   -0.68500    0.04169
   -0.63500    0.05213
   -0.58500    0.07301
   -0.53500    0.07301
   -0.48500    0.16697
   -0.43500    0.25049
   -0.38500    0.32357
   -0.33500    0.50105
   -0.28500    0.62633
   -0.23500    0.94997
   -0.18500    0.98129
   -0.13500    1.11701
   -0.08500    1.25273
   -0.03500    1.22141
    0.01500    1.35713
    0.06500    1.46153
    0.11500    1.08569
    0.16500    0.96041
    0.21500    0.78293
    0.26500    0.72029
    0.31500    0.70985
    0.36500    0.42797
    0.41500    0.34445
    0.46500    0.20873
    0.51500    0.18785
    0.56500    0.16697
    0.61500    0.22961
    0.66500    0.30269
    0.71500    0.27137
    0.76500    0.26093
    0.81500    0.35489
    0.86500    0.49061
    0.91500    0.63677
    0.96500    0.73073
    1.01500    0.64721
    1.06500    0.62633
    1.11500    0.75161
    1.16500    0.79337
    1.21500    0.85601
    1.26500    0.55325
    1.31500    0.60545
    1.36500    0.74117
    1.41500    0.79337
    1.46500    0.69941
    1.51500    0.91865
    1.56500    0.81425
    1.61500    0.99173
    1.66500    0.92909
    1.71500    0.99173
    1.76500    0.93953
    1.81500    1.33625
    1.86500    1.20053
    1.91500    1.01261
    1.96500    1.19009
    2.01500    1.06481
    2.06500    1.14833
    2.11500    0.92909
    2.16500    1.17965
    2.21500    1.22141
    2.26500    1.02305
    2.31500    0.93953
    2.36500    1.00217
    2.41500    0.94997
    2.46500    0.94997
    2.51500    0.98129
    2.56500    0.90821
    2.61500    1.02305
    2.66500    0.91865
    2.71500    0.92909
    2.76500    0.80381
    2.81500    1.14833
    2.86500    0.93953
    2.91500    0.98129
    2.96500    0.96041
    3.01500    1.00217
    3.06500    1.07525
    3.11500    1.23185
    3.16500    1.34669
    3.21500    1.15877
    3.26500    1.21097
    3.31500    1.03349
    3.36500    1.21097
    3.41500    1.07525
    3.46500    1.21097
    3.51500    1.27361
    3.56500    1.46153
    3.61500    1.31537
    3.66500    1.27361
    3.71500    1.38845
    3.76500    1.40933
    3.81500    1.33625
    3.86500    1.49285
    3.91500    1.50329
    3.96500    1.59725
    4.01500    1.61813
    4.06500    1.51373
    4.11500    1.39889
    4.16500    1.33625
    4.21500    1.39889
    4.26500    1.28405
    4.31500    1.75385
    4.36500    1.48241
    4.41500    1.58681
    4.46500    1.56593
    4.51500    1.59725
    4.56500    1.75385
    4.61500    1.59725
    4.66500    1.81649
    4.71500    1.69121
    4.76500    1.76429
    4.81500    1.28405
    4.86500    1.60769
    4.91500    1.53461
    4.96500    1.80605
    5.01500    1.71209
    5.06500    1.53461
    5.11500    1.78517
    5.16500    1.94177
    5.21500    2.07749
    5.26500    1.88957
    5.31500    2.20277
    5.36500    2.14013
    5.41500    2.22365
    5.46500    2.08793
    5.51500    2.45333
    5.56500    2.68301
    5.61500    2.10881
    5.66500    2.33849
    5.71500    2.49509
    5.76500    2.66213
    5.81500    2.89181
    5.86500    2.85005
    5.91500    2.70389
    5.96500    2.95445
    6.01500    2.72477
    6.06500    2.89181
    6.11500    3.13193
    6.16500    2.88137
    6.21500    3.23633
    6.26500    3.20501
    6.31500    3.34073
    6.36500    3.42425
    6.41500    3.78965
    6.46500    3.82097
    6.51500    4.18637
    6.56500    4.01933
    6.61500    3.94625
    6.66500    4.09241
    6.71500    4.19681
    6.76500    4.14461
    6.81500    4.09241
    6.86500    4.39517
    6.91500    3.95669
    6.96500    4.34297
    7.01500    4.15505
    7.06500    4.36385
    7.11500    4.12373
    7.16500    4.61441
    7.21500    4.65617
    7.26500    4.58309
    7.31500    4.53089
    7.36500    4.21769
    7.41500    4.22813
    7.46500    4.75013
    7.51500    4.58309
    7.56500    4.46825
    7.61500    4.34297
    7.66500    4.48913
    7.71500    4.56221
    7.76500    4.61441
    7.81500    4.43693
    7.86500    4.11329
    7.91500    4.52045
    7.96500    4.48913
    8.01500    4.71881
    8.06500    4.78145
    8.11500    4.45781
    8.16500    4.62485
    8.21500    4.64573
    8.26500    4.60397
    8.31500    4.33253
    8.36500    4.22813
    8.41500    4.29077
    8.46500    4.44737
    8.51500    4.56221
    8.56500    4.21769
    8.61500    4.11329
    8.66500    4.49957
    8.71500    4.32209
    8.76500    4.69793
    8.81500    4.60397
    8.86500    4.46825
    8.91500    4.42649
    8.96500    4.49957
    9.01500    4.86497
    9.06500    5.09465
    9.11500    4.34297
    9.16500    4.79189
    9.21500    4.79189
    9.26500    4.41605
    9.31500    4.86497
    9.36500    5.05289
    9.41500    4.95893
    9.46500    4.69793
    9.51500    5.27213
    9.56500    4.76057
    9.61500    4.95893
    9.66500    5.19905
    9.71500    5.17817
    9.76500    5.71061
    9.81500    5.04245
    9.86500    5.53313
    9.91500    6.11777
    9.96500    5.55401
   10.01500    6.08645
   10.06500    6.05513
   10.11500    5.86721
   10.16500    6.20129
   10.21500    6.21173
   10.26500    6.65021
   10.31500    6.45185
   10.36500    6.92165
   10.41500    6.87989
   10.46500    7.24529
   10.51500    7.22441
   10.56500    7.52717
   10.61500    8.28929
   10.66500    9.16625
   10.71500    9.74045
   10.76500   10.10585
   10.81500   10.17893
   10.86500   10.88885
   10.91500   10.63829
   10.96500   10.90973
   11.01500   10.69049
   11.06500   10.35641
   11.11500   10.01189
   11.16500    9.76133
   11.21500    9.56297
   11.26500    9.18713
   11.31500    9.55253
   11.36500    9.51077
   11.41500    8.72777
   11.46500    9.35417
   11.51500    9.09317
   11.56500    9.43769
   11.61500    9.41681
   11.66500    9.37505
   11.71500    9.35417
   11.76500    9.55253
   11.81500    9.31241
   11.86500    9.48989
   11.91500    9.62561
   11.96500   10.09541
   12.01500   10.11629
   12.06500   10.75313
   12.11500   10.18937
   12.16500    9.61517
   12.21500   10.22069
   12.26500   10.18937
   12.31500    9.90749
   12.36500   10.68005
   12.41500   10.49213
   12.46500    9.77177
   12.51500   11.11853
   12.56500   10.74269
   12.61500   10.60697
   12.66500   10.69049
   12.71500   10.79489
   12.76500   10.69049
   12.81500   10.81577
   12.86500   10.62785
   12.91500   10.94105
   12.96500   10.89929
   13.01500   10.66961
   13.06500   10.57565
   13.11500   10.35641
   13.16500    9.89705
   13.21500   10.57565
   13.26500   10.40861
   13.31500   10.35641
   13.36500   10.15805
   13.41500   10.15805
   13.46500   10.42949
   13.51500   10.43993
   13.56500   10.17893
   13.61500   10.28333
   13.66500   10.38773
   13.71500   10.11629
   13.76500    9.38549
   13.81500    9.76133
   13.86500   10.42949
   13.91500    9.43769
   13.96500    9.76133
   14.01500    9.09317
   14.06500    9.30197
   14.11500    8.80085
   14.16500    9.16625
   14.21500    8.76953
   14.26500    8.95745
   14.31500    9.70913
   14.36500    8.47721
   14.41500    8.74865
   14.46500    9.16625
   14.51500    8.38325
   14.56500    8.50853
   14.61500    8.65469
   14.66500    8.36237
   14.71500    7.97609
   14.76500    8.38325
   14.81500    8.24753
   14.86500    7.89257
   14.91500    7.68377
   14.96500    7.29749
   15.01500    7.78817
   15.06500    7.33925
   15.11500    7.41233
   15.16500    7.07825
   15.21500    7.16177
   15.26500    6.93209
   15.31500    6.63977
   15.36500    6.39965
   15.41500    6.84857
   15.46500    6.41009
   15.51500    6.58757
   15.56500    6.89033
   15.61500    6.76505
   15.66500    6.32657
   15.71500    6.65021
   15.76500    6.46229
   15.81500    6.51449
   15.86500    6.06557
   15.91500    6.04469
   15.96500    6.27437
   16.01500    5.90897
ENDDATA            364
ENDSUBENT          392
SUBENT        E2135007   20140325   20140604   20140325       E089
BIB                  7         21
REACTION   (50-SN-118(P,N)51-SB-118,ICL,DA/DE,N/RSD)
EN-SEC     ANG-CM is polar angle (c.m.) between beam and neutron
           (E-EXC,51-SB-118)
SAMPLE     Target-thickness is 100+-0.2 mg/cm2.
           (50-SN-118,ENR=0.95)
DETECTOR   - Solid angle of detector is 0.1 msr.
           - Efficiency: Neutron-detection efficiency is (1.45 +-
             0.07)*10**(-2).
ERR-ANALYS (ERR-1) Uncertainty in the target thickness
           (ERR-2) Uncertainty in the neutron-detection
                   efficiency
           (ERR-3) Uncertainty in the integrated current
           (ERR-4) Uncertainty in the 120Sn contaminant in the
                   118Sn target
STATUS     (TABLE) Data (Fig.6, 024602-5 of reference) sent by
                   e-mail from M. Sasano(2009.04.02)
HISTORY    (20100104A) Nf. STATUS corrected
           (20100204A) Nf. REACTION: SF3 and SF4 corrected
           (20131125A) MA: REACTION corrected: (P,X)0-NN-1,,DA/DE
                       -> (P,N)51-SB-118,INC,DA/DE,N/RSD
           (20140325A) MA: SF5(REACTION) corrected: INC -> ICL
ENDBIB              21
COMMON               7          6
EN         EN-RSL     ANG-CM     ERR-1      ERR-2      ERR-3
ERR-4
MEV        MEV        ADEG       PER-CENT   PER-CENT   PER-CENT
PER-CENT
 297.       0.5        0.         3.         3.         2.
 3.
ENDCOMMON            6
DATA                 2        362
E-EXC      DATA-CM
MEV        MB/SR/MEV
   -2.02500   -0.00540
   -1.97500    0.02384
   -1.92500    0.00765
   -1.87500   -0.00218
   -1.82500    0.01954
   -1.77500    0.00700
   -1.72500    0.01305
   -1.67500    0.01143
   -1.62500    0.00532
   -1.57500   -0.00028
   -1.52500    0.00569
   -1.47500    0.00779
   -1.42500    0.02520
   -1.37500   -0.02308
   -1.32500   -0.01966
   -1.27500   -0.02642
   -1.22500    0.00756
   -1.17500   -0.02191
   -1.12500   -0.02429
   -1.07500    0.01560
   -1.02500   -0.01720
   -0.97500    0.00317
   -0.92500   -0.01612
   -0.87500   -0.01281
   -0.82500   -0.00336
   -0.77500    0.01801
   -0.72500    0.02169
   -0.67500    0.07770
   -0.62500    0.13768
   -0.57500    0.15578
   -0.52500    0.21936
   -0.47500    0.34312
   -0.42500    0.41700
   -0.37500    0.59566
   -0.32500    0.84841
   -0.27500    1.00308
   -0.22500    1.19423
   -0.17500    1.39930
   -0.12500    1.54693
   -0.07500    1.74435
   -0.02500    1.77218
    0.02500    1.82015
    0.07500    1.76272
    0.12500    1.64510
    0.17500    1.49665
    0.22500    1.21541
    0.27500    1.00200
    0.32500    0.88039
    0.37500    0.69212
    0.42500    0.48106
    0.47500    0.54526
    0.52500    0.48063
    0.57500    0.52191
    0.62500    0.54334
    0.67500    0.65506
    0.72500    0.73900
    0.77500    0.81062
    0.82500    0.96280
    0.87500    1.08935
    0.92500    1.11114
    0.97500    1.15368
    1.02500    1.27888
    1.07500    1.32146
    1.12500    1.47309
    1.17500    1.51753
    1.22500    1.46053
    1.27500    1.57890
    1.32500    1.57373
    1.37500    1.53078
    1.42500    1.49704
    1.47500    1.52233
    1.52500    1.55178
    1.57500    1.34484
    1.62500    1.41401
    1.67500    1.45009
    1.72500    1.35768
    1.77500    1.34458
    1.82500    1.21029
    1.87500    1.30696
    1.92500    1.11084
    1.97500    1.36471
    2.02500    1.33161
    2.07500    1.32786
    2.12500    1.38121
    2.17500    1.30636
    2.22500    1.37645
    2.27500    1.47670
    2.32500    1.63494
    2.37500    1.63233
    2.42500    1.56711
    2.47500    1.58785
    2.52500    1.73989
    2.57500    1.80098
    2.62500    1.86696
    2.67500    1.77053
    2.72500    1.74771
    2.77500    1.73683
    2.82500    1.85639
    2.87500    1.82198
    2.92500    1.91844
    2.97500    1.87946
    3.02500    1.90738
    3.07500    1.84076
    3.12500    1.89518
    3.17500    1.90356
    3.22500    1.95984
    3.27500    1.89294
    3.32500    1.79849
    3.37500    1.90594
    3.42500    1.88250
    3.47500    1.91040
    3.52500    1.76777
    3.57500    1.74910
    3.62500    1.76509
    3.67500    1.81990
    3.72500    1.85148
    3.77500    1.89477
    3.82500    1.86288
    3.87500    1.79790
    3.92500    1.98387
    3.97500    1.90352
    4.02500    1.91910
    4.07500    2.02399
    4.12500    2.08316
    4.17500    2.09662
    4.22500    2.03909
    4.27500    2.37557
    4.32500    2.36666
    4.37500    2.43109
    4.42500    2.65110
    4.47500    2.73220
    4.52500    3.01595
    4.57500    3.32232
    4.62500    3.24510
    4.67500    3.54119
    4.72500    3.69494
    4.77500    3.83636
    4.82500    4.04518
    4.87500    4.14364
    4.92500    4.40386
    4.97500    4.37873
    5.02500    4.81121
    5.07500    4.80938
    5.12500    4.96428
    5.17500    4.77009
    5.22500    4.99193
    5.27500    5.04265
    5.32500    5.12718
    5.37500    5.01706
    5.42500    5.03533
    5.47500    5.20257
    5.52500    5.15551
    5.57500    5.11461
    5.62500    4.91676
    5.67500    5.06892
    5.72500    5.15276
    5.77500    4.88067
    5.82500    4.88501
    5.87500    4.86513
    5.92500    4.93755
    5.97500    4.60971
    6.02500    4.75204
    6.07500    4.64169
    6.12500    4.73673
    6.17500    4.50347
    6.22500    4.43699
    6.27500    4.56082
    6.32500    4.36411
    6.37500    4.30768
    6.42500    4.16946
    6.47500    4.14204
    6.52500    4.25536
    6.57500    4.16580
    6.62500    4.28004
    6.67500    4.04632
    6.72500    4.12651
    6.77500    4.09955
    6.82500    3.99491
    6.87500    3.91975
    6.92500    4.13565
    6.97500    4.19253
    7.02500    3.94191
    7.07500    3.87680
    7.12500    4.06619
    7.17500    4.08516
    7.22500    3.96361
    7.27500    3.91061
    7.32500    3.85053
    7.37500    4.11646
    7.42500    4.24211
    7.47500    4.00679
    7.52500    3.82585
    7.57500    4.15095
    7.62500    4.28049
    7.67500    4.32436
    7.72500    4.23274
    7.77500    4.41437
    7.82500    4.57430
    7.87500    4.40523
    7.92500    4.68716
    7.97500    4.55214
    8.02500    4.72211
    8.07500    4.88866
    8.12500    4.86467
    8.17500    4.93093
    8.22500    4.93024
    8.27500    5.12672
    8.32500    5.29167
    8.37500    5.34490
    8.42500    5.55303
    8.47500    5.73123
    8.52500    5.75614
    8.57500    6.07804
    8.62500    5.89641
    8.67500    6.08466
    8.72500    6.37961
    8.77500    6.59391
    8.82500    6.95145
    8.87500    7.62610
    8.92500    7.96286
    8.97500    8.79127
    9.02500    9.28475
    9.07500    9.73733
    9.12500    9.86504
    9.17500   10.70944
    9.22500   10.58835
    9.27500   10.54815
    9.32500   10.50108
    9.37500   10.01057
    9.42500    9.86184
    9.47500    9.30165
    9.52500    8.93405
    9.57500    8.66767
    9.62500    9.05765
    9.67500    8.74649
    9.72500    8.42458
    9.77500    8.52236
    9.82500    8.39465
    9.87500    8.67018
    9.92500    9.03618
    9.97500    8.69371
   10.02500    8.99665
   10.07500    8.97198
   10.12500    9.08347
   10.17500    9.37019
   10.22500    9.24111
   10.27500    9.45861
   10.32500    9.71951
   10.37500    9.84311
   10.42500    9.67062
   10.47500    9.84654
   10.52500    9.88355
   10.57500    9.87098
   10.62500    9.87418
   10.67500   10.21322
   10.72500   10.13691
   10.77500   10.16159
   10.82500   10.23012
   10.87500   10.06677
   10.92500   10.48349
   10.97500   10.14537
   11.02500   10.45790
   11.07500   10.07683
   11.12500   10.35487
   11.17500   10.31237
   11.22500   10.44214
   11.27500   10.16273
   11.32500   10.50177
   11.37500   10.14125
   11.42500   10.30049
   11.47500    9.84791
   11.52500   10.04301
   11.57500   10.00303
   11.62500    9.81295
   11.67500   10.38639
   11.72500    9.91530
   11.77500    9.63612
   11.82500    9.75492
   11.87500    9.67793
   11.92500    9.62059
   11.97500    9.32815
   12.02500    9.25322
   12.07500    9.24773
   12.12500    9.34849
   12.17500    9.19062
   12.22500    8.85843
   12.27500    8.98866
   12.32500    9.12277
   12.37500    8.77048
   12.42500    8.62335
   12.47500    8.57217
   12.52500    8.18081
   12.57500    8.25392
   12.62500    8.41590
   12.67500    8.17442
   12.72500    7.86393
   12.77500    8.01289
   12.82500    8.00627
   12.87500    7.89660
   12.92500    7.63821
   12.97500    7.68939
   13.02500    7.53609
   13.07500    7.30466
   13.12500    7.24343
   13.17500    7.45247
   13.22500    7.31471
   13.27500    7.38576
   13.32500    6.99715
   13.37500    6.93546
   13.42500    6.91513
   13.47500    6.83859
   13.52500    6.64783
   13.57500    6.68415
   13.62500    6.62247
   13.67500    6.50092
   13.72500    6.28571
   13.77500    6.28823
   13.82500    6.27726
   13.87500    5.99579
   13.92500    6.21306
   13.97500    6.01476
   14.02500    6.10408
   14.07500    5.53087
   14.12500    5.82696
   14.17500    5.71158
   14.22500    5.49317
   14.27500    5.48289
   14.32500    5.43149
   14.37500    5.20074
   14.42500    5.58250
   14.47500    5.04996
   14.52500    5.28779
   14.57500    5.12306
   14.62500    4.99216
   14.67500    5.10205
   14.72500    5.10456
   14.77500    5.00426
   14.82500    4.96702
   14.87500    4.80116
   14.92500    4.92453
   14.97500    4.65563
   15.02500    4.63895
   15.07500    4.63804
   15.12500    4.56105
   15.17500    4.61359
   15.22500    4.81053
   15.27500    4.58481
   15.32500    4.50827
   15.37500    4.48520
   15.42500    4.51992
   15.47500    4.29077
   15.52500    4.52198
   15.57500    4.20533
   15.62500    4.39107
   15.67500    4.20693
   15.72500    4.18934
   15.77500    4.22703
   15.82500    4.31134
   15.87500    4.06254
   15.92500    4.18088
   15.97500    4.19596
   16.02500    4.17997
ENDDATA            364
ENDSUBENT          397
SUBENT        E2135008   20140325   20140604   20140325       E089
BIB                  7         19
REACTION   (50-SN-120(P,N)51-SB-120,ICL,DA/DE,N/RSD)
EN-SEC     ANG-CM is polar angle (c.m.) between beam and neutron
           (E-EXC,51-SB-120)
SAMPLE     - Target enrichment: Higher than 99.5 %
           - Target-thickness is 160+-3 mg/cm2.
DETECTOR   - Solid angle of detector is 0.1 msr.
           - Efficiency: Neutron-detection efficiency is (1.45 +-
             0.07)*10**(-2).
ERR-ANALYS (ERR-1) Uncertainty in the target thickness
           (ERR-2) Uncertainty in the neutron-detection
                   efficiency
           (ERR-3) Uncertainty in the integrated current
STATUS     (TABLE) Data (Fig.6, 024602-5 of reference) sent by
                   e-mail from M. Sasano(2009.04.02)
HISTORY    (20100104A) Nf. STATUS corrected
           (20100204A) Nf. REACTION: SF3 and SF4 corrected
           (20131125A) MA: REACTION corrected: (P,X)0-NN-1,,DA/DE
                       -> (P,N)51-SB-120,INC,DA/DE,N/RSD
           (20140325A) MA: SF5(REACTION) corrected: INC -> ICL
ENDBIB              19
COMMON               6          3
EN         EN-RSL     ANG-CM     ERR-1      ERR-2      ERR-3
MEV        MEV        ADEG       PER-CENT   PER-CENT   PER-CENT
 297.       0.5        0.         3.         3.         2.
ENDCOMMON            3
DATA                 2        363
E-EXC      DATA-CM
MEV        MB/SR/MEV
   -2.07500   -0.00738
   -2.02500   -0.01325
   -1.97500   -0.00234
   -1.92500   -0.00402
   -1.87500   -0.00654
   -1.82500    0.00101
   -1.77500   -0.00318
   -1.72500    0.01025
   -1.67500    0.01360
   -1.62500   -0.01073
   -1.57500    0.01780
   -1.52500   -0.01073
   -1.47500    0.00101
   -1.42500    0.00437
   -1.37500    0.00269
   -1.32500   -0.00318
   -1.27500    0.00689
   -1.22500   -0.00486
   -1.17500    0.00437
   -1.12500    0.00605
   -1.07500    0.03207
   -1.02500    0.00521
   -0.97500    0.01528
   -0.92500    0.01948
   -0.87500    0.03458
   -0.82500    0.00941
   -0.77500    0.03374
   -0.72500    0.05137
   -0.67500    0.08661
   -0.62500    0.12018
   -0.57500    0.19236
   -0.52500    0.21166
   -0.47500    0.36523
   -0.42500    0.48356
   -0.37500    0.63966
   -0.32500    0.81422
   -0.27500    1.01143
   -0.22500    1.11717
   -0.17500    1.26152
   -0.12500    1.46293
   -0.07500    1.48978
   -0.02500    1.60728
    0.02500    1.61147
    0.07500    1.58378
    0.12500    1.51160
    0.17500    1.40502
    0.22500    1.23802
    0.27500    1.10794
    0.32500    1.03241
    0.37500    0.87044
    0.42500    0.77477
    0.47500    0.63378
    0.52500    0.62539
    0.57500    0.60861
    0.62500    0.64805
    0.67500    0.61700
    0.72500    0.68162
    0.77500    0.74792
    0.82500    0.85953
    0.87500    0.92835
    0.92500    1.10710
    0.97500    1.24725
    1.02500    1.39663
    1.07500    1.45370
    1.12500    1.52755
    1.17500    1.62574
    1.22500    1.73064
    1.27500    1.70127
    1.32500    1.76253
    1.37500    1.78267
    1.42500    1.70211
    1.47500    1.69707
    1.52500    1.66182
    1.57500    1.50909
    1.62500    1.44027
    1.67500    1.44531
    1.72500    1.30851
    1.77500    1.19186
    1.82500    1.21116
    1.87500    1.19186
    1.92500    1.21452
    1.97500    1.18347
    2.02500    1.19354
    2.07500    1.26152
    2.12500    1.24306
    2.17500    1.32026
    2.22500    1.31775
    2.27500    1.42684
    2.32500    1.38992
    2.37500    1.52923
    2.42500    1.61735
    2.47500    1.61399
    2.52500    1.66938
    2.57500    1.64840
    2.62500    1.73400
    2.67500    1.79442
    2.72500    1.76673
    2.77500    1.75330
    2.82500    1.74239
    2.87500    1.87666
    2.92500    1.81876
    2.97500    1.86240
    3.02500    1.83722
    3.07500    1.91862
    3.12500    1.95135
    3.17500    1.88925
    3.22500    2.00506
    3.27500    2.11080
    3.32500    2.04786
    3.37500    2.05458
    3.42500    2.08227
    3.47500    2.17794
    3.52500    2.10073
    3.57500    2.11332
    3.62500    2.21906
    3.67500    2.13011
    3.72500    2.12927
    3.77500    2.11752
    3.82500    2.20060
    3.87500    2.10409
    3.92500    2.14270
    3.97500    2.04619
    4.02500    2.18466
    4.07500    2.14270
    4.12500    2.15193
    4.17500    2.11836
    4.22500    2.23669
    4.27500    2.30047
    4.32500    2.31725
    4.37500    2.41544
    4.42500    2.52790
    4.47500    2.61685
    4.52500    2.63867
    4.57500    2.69658
    4.62500    2.79644
    4.67500    2.89631
    4.72500    3.10444
    4.77500    3.05744
    4.82500    3.15479
    4.87500    3.37634
    4.92500    3.50558
    4.97500    3.66336
    5.02500    3.97135
    5.07500    3.97554
    5.12500    4.12996
    5.17500    4.13583
    5.22500    4.39347
    5.27500    4.53111
    5.32500    4.47236
    5.37500    4.66118
    5.42500    4.69643
    5.47500    4.77364
    5.52500    4.76441
    5.57500    4.90791
    5.62500    4.94568
    5.67500    5.01533
    5.72500    5.00358
    5.77500    4.90791
    5.82500    4.98932
    5.87500    5.07995
    5.92500    5.08667
    5.97500    4.98680
    6.02500    4.97253
    6.07500    4.96330
    6.12500    5.02456
    6.17500    5.02289
    6.22500    4.96666
    6.27500    5.00946
    6.32500    5.00946
    6.37500    5.06485
    6.42500    5.01533
    6.47500    4.85588
    6.52500    4.88861
    6.57500    4.83406
    6.62500    4.86092
    6.67500    4.88442
    6.72500    4.85001
    6.77500    4.80469
    6.82500    4.86008
    6.87500    4.79462
    6.92500    4.85924
    6.97500    4.83406
    7.02500    4.76693
    7.07500    4.78119
    7.12500    4.85504
    7.17500    4.65783
    7.22500    4.66202
    7.27500    4.75266
    7.32500    4.75685
    7.37500    4.79546
    7.42500    4.61671
    7.47500    4.67042
    7.52500    4.68720
    7.57500    4.59908
    7.62500    4.79714
    7.67500    4.76189
    7.72500    4.75853
    7.77500    4.84749
    7.82500    4.83742
    7.87500    4.93477
    7.92500    5.00526
    7.97500    5.06065
    8.02500    5.09925
    8.07500    5.07156
    8.12500    5.22514
    8.17500    5.31158
    8.22500    5.31913
    8.27500    5.52809
    8.32500    5.34515
    8.37500    5.52306
    8.42500    5.62628
    8.47500    5.72195
    8.52500    5.98211
    8.57500    5.86882
    8.62500    5.98211
    8.67500    6.07442
    8.72500    6.27668
    8.77500    6.30269
    8.82500    6.35388
    8.87500    6.45123
    8.92500    6.47977
    8.97500    6.53432
    9.02500    6.76342
    9.07500    6.72062
    9.12500    7.04456
    9.17500    7.04456
    9.22500    7.15869
    9.27500    7.30975
    9.32500    7.54809
    9.37500    7.48431
    9.42500    7.87622
    9.47500    8.02476
    9.52500    8.17918
    9.57500    8.18338
    9.62500    8.55851
    9.67500    9.18540
    9.72500    9.68138
    9.77500   10.03637
    9.82500   10.55920
    9.87500   11.04426
    9.92500   11.42359
    9.97500   11.88936
   10.02500   12.28631
   10.07500   12.48520
   10.12500   12.33834
   10.17500   12.50786
   10.22500   12.35848
   10.27500   12.19147
   10.32500   11.97160
   10.37500   11.70809
   10.42500   11.51423
   10.47500   11.42359
   10.52500   11.16763
   10.57500   11.19700
   10.62500   11.31281
   10.67500   11.07532
   10.72500   11.21546
   10.77500   11.17770
   10.82500   11.42191
   10.87500   11.34219
   10.92500   11.33379
   10.97500   11.37911
   11.02500   11.59479
   11.07500   11.63675
   11.12500   11.54612
   11.17500   11.71899
   11.22500   11.99678
   11.27500   11.73746
   11.32500   12.07398
   11.37500   12.02111
   11.42500   12.19651
   11.47500   11.99678
   11.52500   12.23343
   11.57500   12.30645
   11.62500   12.33918
   11.67500   12.16881
   11.72500   12.08993
   11.77500   12.20154
   11.82500   12.29973
   11.87500   12.07231
   11.92500   12.25274
   11.97500   12.10252
   12.02500   11.91621
   12.07500   12.10587
   12.12500   11.92125
   12.17500   11.95230
   12.22500   11.61241
   12.27500   11.72823
   12.32500   11.65438
   12.37500   11.74585
   12.42500   11.26162
   12.47500   11.41772
   12.52500   11.14749
   12.57500   11.37240
   12.62500   11.23309
   12.67500   11.08119
   12.72500   10.79418
   12.77500   10.80341
   12.82500   10.70690
   12.87500   10.68844
   12.92500   10.49710
   12.97500   10.59528
   13.02500   10.53654
   13.07500   10.30575
   13.12500   10.15134
   13.17500   10.10938
   13.22500   10.12532
   13.27500   10.02797
   13.32500    9.79551
   13.37500    9.60249
   13.42500    9.57228
   13.47500    9.24582
   13.52500    9.36247
   13.57500    9.20890
   13.62500    9.21645
   13.67500    8.90258
   13.72500    8.94622
   13.77500    8.73726
   13.82500    8.73054
   13.87500    8.48214
   13.92500    8.54004
   13.97500    8.36800
   14.02500    8.42507
   14.07500    8.13974
   14.12500    8.07847
   14.17500    7.95763
   14.22500    7.97021
   14.27500    7.81580
   14.32500    7.72265
   14.37500    7.62362
   14.42500    7.46668
   14.47500    7.54305
   14.52500    7.47004
   14.57500    7.32402
   14.62500    7.27283
   14.67500    7.08652
   14.72500    7.04372
   14.77500    6.94134
   14.82500    6.82888
   14.87500    6.79112
   14.92500    6.73657
   14.97500    6.57712
   15.02500    6.52005
   15.07500    6.46550
   15.12500    6.48564
   15.17500    6.35976
   15.22500    6.14492
   15.27500    6.07023
   15.32500    6.09121
   15.37500    6.04170
   15.42500    5.94015
   15.47500    5.89148
   15.52500    5.88644
   15.57500    5.79664
   15.62500    5.75804
   15.67500    5.55747
   15.72500    5.70013
   15.77500    5.54572
   15.82500    5.51215
   15.87500    5.49201
   15.92500    5.53817
   15.97500    5.37368
   16.02500    5.23940
ENDDATA            365
ENDSUBENT          393
SUBENT        E2135009   20120614   20120702   20120614       E069
BIB                  7         19
REACTION   (50-SN-118(P,N)51-SB-118,PAR,DA)
EN-SEC     ANG-CM is polar angle (c.m.) between beam and neutron
           (E-LVL,51-SB-118)
SAMPLE     Target-thickness is 100+-0.2 mg/cm**2.
           (50-SN-118,ENR=0.95)
DETECTOR   - Solid angle of detector is 0.1 msr.
           - Efficiency: Neutron-detection efficiency is (1.45 +-
             0.07)*10**(-2).
ERR-ANALYS (ERR-1) Uncertainty in the target thickness
           (ERR-2) Uncertainty in the neutron-detection
                   efficiency
           (ERR-3) Uncertainty in the integrated current
           (ERR-4) Uncertainty in the 120Sn contaminant in the
                   118Sn target
           (DATA-ERR) No information on source of uncertainties
STATUS     (TABLE) Data (Fig.7, 024602-6 of reference) sent by
                   e-mail from M. Sasano(2009.04.02)
HISTORY    (20100104A) Nf. STATUS corrected
           (20120406A) Nf. PAR added in SF5, E-LVL added
ENDBIB              19
COMMON               7          6
EN         EN-RSL     E-LVL      ERR-1      ERR-2      ERR-3
ERR-4
MEV        MEV        MEV        PER-CENT   PER-CENT   PER-CENT
PER-CENT
 297.       0.5        0.         3.         3.         2.
 3.
ENDCOMMON            6
DATA                 3          7
ANG-CM     DATA-CM    DATA-ERR
ADEG       MB/SR      MB/SR
    0.00000    1.21900    0.01900
    2.00000    0.98200    0.01400
    4.10000    0.74700    0.01500
    6.10000    0.59200    0.01200
    8.10000    0.42300    0.01300
   10.10000    0.34600    0.01100
   12.10000    0.26100    0.00900
ENDDATA              9
ENDSUBENT           40
SUBENT        E2135010   20090701   20090724   20090724       E058
BIB                  7         18
REACTION   (50-SN-118(P,N)51-SB-118,PAR,DA)
EN-SEC     ANG-CM is polar angle between beam and neutron in
           center of mass system
           (E-LVL,51-SB-118)
LEVEL-PROP (51-SB-118,E-LVL=0.,SPIN=1.,PARITY=+1.)
SAMPLE     - Target enrichment is 95%.
           - Target-thickness is 100+-0.2 mg/cm**2.
DETECTOR   - Solid angle of detector is 0.1 msr.
           - Efficiency: Neutron-detection efficiency is (1.45 +-
             0.07)*10**(-2).
ERR-ANALYS (ERR-1) Uncertainty in the target thickness
           (ERR-2) Uncertainty in the neutron-detection
                   efficiency
           (ERR-3) Uncertainty in the integrated current
           (ERR-4) Uncertainty in the 120Sn contaminant in the
                   118Sn target
           (DATA-ERR) No information on source of uncertainties
STATUS     (TABLE) Data sent by e-mail from M. Sasano(2009.04.02)
ENDBIB              18
COMMON               7          6
EN         EN-RSL     E-LVL      ERR-1      ERR-2      ERR-3
ERR-4
MEV        MEV        KEV        PER-CENT   PER-CENT   PER-CENT
PER-CENT
 297.       0.5        0.         3.         3.         2.
 3.
ENDCOMMON            6
DATA                 3          1
ANG-CM     DATA-CM    DATA-ERR
ADEG       MB/SR      MB/SR
 0.         1.19       0.08
ENDDATA              3
ENDSUBENT           33
SUBENT        E2135011   20090701   20090724   20090724       E058
BIB                  7         16
REACTION   (50-SN-120(P,N)51-SB-120,PAR,DA)
EN-SEC     ANG-CM is polar angle between beam and neutron in
           center of mass system
           (E-LVL,51-SB-120)
LEVEL-PROP (51-SB-120,E-LVL=0.,SPIN=1.,PARITY=+1.)
SAMPLE     - Target enrichment is larger than 99.5%.
           - Target-thickness is 160+-3 mg/cm**2.
DETECTOR   - Solid angle of detector is 0.1 msr.
           - Efficiency: Neutron-detection efficiency is (1.45 +-
             0.07)*10**(-2).
ERR-ANALYS (ERR-1) Uncertainty in the target thickness
           (ERR-2) Uncertainty in the neutron-detection
                   efficiency
           (ERR-3) Uncertainty in the integrated current
           (DATA-ERR) No information on source of uncertainties
STATUS     (TABLE) Data sent by e-mail from M. Sasano(2009.04.02)
ENDBIB              16
COMMON               6          3
EN         EN-RSL     E-LVL      ERR-1      ERR-2      ERR-3
MEV        MEV        KEV        PER-CENT   PER-CENT   PER-CENT
 297.       0.5        0.         3.         3.         2.
ENDCOMMON            3
DATA                 3          1
ANG-CM     DATA-CM    DATA-ERR
ADEG       MB/SR      MB/SR
 0.         1.10       0.07
ENDDATA              3
ENDSUBENT           28
SUBENT        E2135012   20090701   20090724   20090724       E058
BIB                  7         16
REACTION   (50-SN-120(P,N)51-SB-120,PAR,DA)
EN-SEC     ANG-CM is polar angle between beam and neutron in
           center of mass system
           (E-LVL,51-SB-120)
LEVEL-PROP (51-SB-120,E-LVL=0.,SPIN=1.,PARITY=+1.)
SAMPLE     - Target enrichment is larger than 99.5%.
           - Target-thickness is 160+-3 mg/cm**2.
DETECTOR   - Solid angle of detector is 0.04 msr.
           - Efficiency: Neutron-detection efficiency is (1.90 +-
             0.09)*10**(-2).
ERR-ANALYS (ERR-1) Uncertainty in the target thickness
           (ERR-2) Uncertainty in the neutron-detection
                   efficiency
           (ERR-3) Uncertainty in the integrated current
           (DATA-ERR) No information on source of uncertainties
STATUS     (TABLE) Data sent by e-mail from M. Sasano(2009.04.02)
ENDBIB              16
COMMON               6          3
EN         EN-RSL     E-LVL      ERR-1      ERR-2      ERR-3
MEV        MEV        KEV        PER-CENT   PER-CENT   PER-CENT
 198.       0.3        0.         3.         3.         2.
ENDCOMMON            3
DATA                 3          1
ANG-CM     DATA-CM    DATA-ERR
ADEG       MB/SR      MB/SR
 0.         1.13       0.12
ENDDATA              3
ENDSUBENT           28
ENDENTRY            12
