ENTRY            F1010   20090414   20090901   20090828       F036
SUBENT        F1010001   20090414   20090901   20090828       F036
BIB                  8         13
TITLE      Experimental study of threshold anomalies in the
           elastic scattering of protons by nuclei with A~30.
AUTHOR     (M.Chenzha,M.Duma,K.Hategan,M.Tanase,A.S.Deineko,
           I.Ya.Malahov,V.E.Storizhko,N.A.Shlyakhov)
INSTITUTE  (4UKRKFT,3RUMCIP)
REFERENCE  (J,IZV,47,2143,1983)
           (J,NP/A,307,65,1978) Similar experiments were
           carried out.
FACILITY   (VDGT,3RUMCIP)
SAMPLE     29Si target.
ERR-ANALYS (EN-ERR-DIG) Energy digitizing error
           (ERR-DIG)    Data digitizing error
HISTORY    (20090414C)
ENDBIB              13
COMMON               2          3
EN-ERR-DIG ERR-DIG
MEV        ARB-UNITS
 0.015      0.245
ENDCOMMON            3
ENDSUBENT           20
SUBENT        F1010002   20090414   20090901   20090828       F036
BIB                  2          2
REACTION   (14-SI-29(P,EL)14-SI-29,,DA,,REL)
STATUS     (CURVE) Fig.2
ENDBIB               2
NOCOMMON             0          0
DATA                 3        509
ANG        EN         DATA
ADEG       MEV        ARB-UNITS
       140.     4.4973     13.258
       140.      4.508     12.626
       140.     4.5186     12.058
       140.     4.5241     11.552
       140.      4.545     10.985
       140.     4.5703     11.241
       140.     4.5904      11.56
       140.     4.6105     11.942
       140.     4.6361     11.755
       140.     4.6718     11.759
       140.     4.6973     11.826
       140.     4.7174     12.208
       140.     4.7426     12.527
       140.     4.7633     12.213
       140.     4.7738     11.772
       140.     4.7894     11.394
       140.      4.805     11.016
       140.     4.8256     10.639
       140.     4.8464     10.198
       140.     4.8768     10.392
       140.     4.8972     10.457
       140.      4.928     10.208
       140.     4.9581     10.781
       140.     4.9781     11.226
       140.     5.0034     11.546
       140.     5.0182      12.18
       140.     5.0229     12.751
       140.     5.0235     13.194
       140.     5.0272       13.7
       140.     5.0372     14.018
       140.     5.0577     13.894
       140.     5.0935     13.645
       140.     5.1084     14.216
       140.     5.1132      14.66
       140.     5.1229     15.231
       140.     5.1276     15.737
       140.     5.1374     16.245
       140.      5.158     16.058
       140.     5.1838     15.618
       140.      5.209     15.937
       140.     5.2393     16.384
       140.     5.2651     16.007
       140.     5.2909     15.567
       140.     5.3162     15.823
       140.     5.3465     16.143
       140.     5.3672     15.766
       140.     5.3827     15.578
       140.     5.3982     15.263
       140.     5.4183     15.645
       140.     5.4435     15.965
       140.     5.4693     15.652
       140.       5.49     15.274
       140.     5.4956     14.516
       140.     5.4963      13.63
       140.      5.502     12.871
       140.     5.5077     12.112
       140.     5.5082     11.416
       140.     5.5137      10.91
       140.     5.5194     10.152
       140.     5.5249      9.646
       140.     5.5303      9.267
       140.     5.5407     9.0151
       140.     5.5613     8.7644
       140.     5.5814     9.0832
       140.     5.5859     9.8432
       140.     5.5905     10.477
       140.     5.6002     11.111
       140.     5.6039     11.617
       140.     5.6097     12.124
       140.     5.6246     12.569
       140.     5.6447     12.951
       140.     5.6494     13.458
       140.     5.6643     13.966
       140.     5.6893     14.602
       140.      5.705     14.161
       140.     5.7255      13.91
       140.     5.7509     14.103
       140.     5.7713     14.105
       140.     5.7812     14.486
       140.     5.7911     14.867
       140.     5.8117     14.616
       140.      5.817     14.364
       140.     5.8175     13.668
       140.     5.8331      13.29
       140.     5.8335      12.72
       140.      5.839     12.215
       140.     5.8598     11.774
       140.     5.8751     11.776
       140.     5.9003     12.096
       140.     5.9159     11.718
       140.     5.9162     11.338
       140.     5.9217     10.832
       140.     5.9321     10.581
       140.     5.9474      10.71
       140.     5.9571     11.153
       140.     5.9619     11.533
       140.     5.9666      12.04
       140.     5.9823     11.599
       140.     5.9878      11.03
       140.     5.9983     10.588
       140.     6.0089     10.147
       140.     6.0093     9.6404
       140.     6.0348     9.5169
       140.     6.0446     10.088
       140.     6.0487     10.405
       140.     6.0541     10.975
       140.     6.0577     11.608
       140.     6.0584     12.051
       140.      6.065     12.812
       140.     6.0677     13.191
       140.     6.0683     12.432
       140.      6.079     11.737
       140.     6.0846     11.168
       140.       6.09     10.663
       140.     6.0956      10.03
       140.     6.1011     9.5248
       140.     6.1016      8.892
       140.     6.1021     8.3225
       140.     6.1037     7.7542
       140.     6.1052     7.1214
       140.     6.1085     6.5512
       140.     6.1142     5.7925
       140.     6.1197     5.2868
       140.     6.1201     4.7173
       140.     6.1258     4.0219
       140.     6.1406     4.5932
       140.     6.1453     5.1633
       140.     6.1499     5.7335
       140.     6.1599     6.0511
       140.     6.1807     5.5473
       140.     6.2065     5.1706
       140.     6.2265      5.616
       140.     6.2362       6.25
       140.     6.2398     6.8834
       140.     6.2401     7.8326
       140.     6.2448     8.2762
       140.     6.2545     8.9102
       140.     6.2696     9.2917
       140.     6.2901     9.1043
       140.     6.3108      8.727
       140.     6.3315     8.2865
       140.     6.3517      8.542
       140.     6.3668      8.797
       140.     6.3927     8.2938
       140.      6.393     7.8508
       140.     6.4088     7.2831
       140.     6.4091     6.8402
       140.     6.4146     6.3345
       140.     6.4401     6.2743
       140.     6.4552     6.5925
       140.     6.4702     6.9107
       140.     6.4749     7.4176
       140.     6.4776     7.9244
       140.     6.4792     8.4939
       140.     6.4838     9.1273
       140.     6.4994     8.6862
       140.     6.5151     8.2451
       140.     6.5256     7.8666
       140.      6.526     7.2971
       140.     6.5416     6.9192
       140.     6.5471     6.4136
       140.     6.5679     5.9098
       140.     6.5835     5.4686
       140.     6.5941     4.9003
       140.     6.6144     5.0293
       140.       6.65     5.1601
       140.     6.6655     4.9721
       140.     6.6963     4.6593
       140.     6.7008     5.4826
       140.     6.7105     6.0533
       140.     6.7153     6.4969
       140.      6.725     7.1309
       140.     6.7275     7.7004
       140.     6.7345      8.018
       140.     6.7452     7.3865
       140.     6.7558     6.8181
       140.     6.7613     6.3125
       140.     6.7667     5.8702
       140.     6.7722     5.3645
       140.     6.7827     4.9861
       140.      6.783     4.6697
       140.     6.7833     4.2267
       140.     6.7887     3.8476
       140.     6.7985     4.3551
       140.     6.8186     4.7372
       140.     6.8285     5.1181
       140.     6.8433     5.7527
       140.     6.8538     5.3742
       140.     6.8744     5.0603
       140.     6.8848     4.8084
       140.     6.9049     5.1905
       140.      6.925     5.5726
       140.     6.9402     5.7642
       140.     6.9606     5.7034
       140.     6.9811     5.5793
       140.     6.9858     6.0861
       140.     7.0006      6.784
       140.     7.0053     7.2908
       140.     7.0099      7.861
       140.      7.025     8.1792
       140.     7.0453     8.3082
       140.     7.0706     8.5643
       140.     7.0854     9.1357
       140.     7.0902      9.516
       140.     7.1021     10.087
       140.     7.1047      10.53
       140.     7.1196     11.102
       140.     7.1502     11.042
       140.     7.1758     10.918
       140.     7.1914     10.604
       140.     7.2069     10.226
       140.     7.2174     9.8475
       140.     7.2228     9.4685
       140.     7.2334     9.0267
       140.     7.2337     8.5838
       140.     7.2342      8.142
       140.     7.2396     7.5719
       140.     7.2554     6.9409
       140.     7.2557     6.4979
       140.     7.2765     5.9941
       140.     7.3022      5.744
       140.     7.3228     5.4301
       140.     7.3384     5.1155
       140.     7.3482     5.5597
       140.     7.3633     5.8146
       140.     7.3784     6.0696
       140.      7.394     5.6284
       140.     7.4018     5.0607
       140.     7.4051     4.5539
       140.     7.4206     4.2393
       140.     7.4311     3.8608
       140.     7.4414     3.6722
       140.     7.4616      3.991
       140.     7.4816     4.4997
       160.     4.4884     18.362
       160.     4.5093     17.354
       160.     4.5303      15.84
       160.     4.5563     14.833
       160.     4.5875     13.701
       160.     4.6288     12.824
       160.     4.6851     12.837
       160.     4.7102     14.109
       160.      4.725     15.505
       160.       4.74     16.521
       160.      4.766     15.641
       160.     4.7919      14.76
       160.     4.8119     16.031
       160.     4.8371     17.176
       160.     4.8468     18.571
       160.     4.8618     19.587
       160.     4.8716     20.602
       160.     4.8864     22.125
       160.     4.9124     21.118
       160.     4.9281     20.235
       160.     4.9437     19.606
       160.      4.964     20.244
       160.     4.9841     21.135
       160.     5.0199     21.269
       160.     5.0507      21.15
       160.     5.0865     21.285
       160.     5.1015     22.174
       160.     5.1113     23.316
       160.     5.1264     24.079
       160.     5.1415     24.842
       160.     5.1672     24.468
       160.      5.193     24.094
       160.     5.2136     23.593
       160.     5.2343     23.218
       160.     5.2596     23.856
       160.     5.3004     24.499
       160.     5.3203     25.896
       160.     5.3302     26.911
       160.     5.3451      28.18
       160.     5.3608     27.171
       160.     5.3713     26.541
       160.     5.3921     25.533
       160.     5.4019     26.801
       160.     5.4116     28.196
       160.     5.4163     29.463
       160.     5.4191     30.478
       160.     5.4258     31.364
       160.     5.4307     31.998
       160.     5.4312     33.264
       160.     5.4402     33.899
       160.      5.445     34.786
       160.     5.4499     35.421
       160.     5.4599     36.056
       160.     5.4803     36.314
       160.     5.4907     35.683
       160.     5.4926      34.04
       160.     5.4971      32.52
       160.     5.5077     31.509
       160.     5.5135     29.612
       160.     5.5139     28.472
       160.     5.5195     27.461
       160.     5.5199     26.195
       160.     5.5205     24.549
       160.     5.5263     22.905
       160.      5.537     21.768
       160.     5.5476     20.758
       160.     5.5583     19.368
       160.      5.584     19.374
       160.     5.5869     20.262
       160.     5.5883       21.4
       160.     5.5933      22.29
       160.     5.5977     23.554
       160.     5.6026     24.315
       160.     5.6073     25.329
       160.     5.6121     26.216
       160.     5.6325     26.348
       160.     5.6476     27.111
       160.     5.6574     28.252
       160.     5.6679     27.622
       160.     5.6834     27.246
       160.     5.6939     26.488
       160.     5.6943     25.476
       160.     5.6947     24.463
       160.     5.7106     23.074
       160.     5.7111     21.808
       160.     5.7165     20.923
       160.     5.7371     20.801
       160.      5.752     21.818
       160.     5.7671     22.707
       160.     5.7771     23.343
       160.     5.7921     24.106
       160.     5.8028     23.095
       160.     5.8083     22.084
       160.     5.8138     20.946
       160.     5.8193     20.061
       160.     5.8249     18.796
       160.     5.8253     17.657
       160.      5.831      16.52
       160.     5.8412     15.506
       160.     5.8565     16.271
       160.     5.8665     16.907
       160.     5.8869     17.291
       160.     5.9075     17.043
       160.      5.913     15.905
       160.     5.9186     14.767
       160.     5.9189     13.754
       160.     5.9297     12.364
       160.     5.9344     13.504
       160.     5.9391     14.518
       160.     5.9418     15.659
       160.     5.9435     16.671
       160.     5.9461     17.684
       160.      5.949     18.572
       160.     5.9525     19.838
       160.     5.9623      20.98
       160.      5.967      22.12
       160.     5.9718     22.881
       160.     5.9817     23.896
       160.     5.9821     22.757
       160.     5.9875     22.125
       160.     5.9929     21.367
       160.     6.0036      20.23
       160.     6.0091     19.092
       160.     6.0146     18.207
       160.     6.0201     17.195
       160.     6.0308     15.932
       160.     6.0413     15.301
       160.     6.0511     16.443
       160.     6.0559      17.33
       160.     6.0659     17.965
       160.     6.0758     18.727
       160.     6.0763     17.461
       160.     6.0869     16.451
       160.     6.0924      15.44
       160.      6.098     14.301
       160.     6.0984     13.289
       160.     6.1029     12.277
       160.     6.1034     11.266
       160.     6.1046     10.252
       160.     6.1154     8.8618
       160.     6.1209     7.7237
       160.     6.1265     6.5856
       160.      6.132     5.7007
       160.     6.1521     6.5915
       160.     6.1672     7.3546
       160.     6.1708     8.6216
       160.     6.1714     9.7609
       160.     6.1812     10.903
       160.     6.2171     10.784
       160.     6.2217     12.051
       160.     6.2315     13.446
       160.     6.2363     14.207
       160.     6.2461     15.475
       160.     6.2566     14.591
       160.     6.2775      13.71
       160.     6.2829     12.951
       160.     6.2832     11.939
       160.     6.2887     11.054
       160.      6.294     10.549
       160.     6.3146     10.174
       160.     6.3192     11.567
       160.     6.3291     12.582
       160.     6.3338     13.723
       160.     6.3364     14.735
       160.     6.3432     15.877
       160.     6.3531     16.766
       160.     6.3558     17.525
       160.     6.3577     18.286
       160.     6.3625     19.173
       160.      6.372     21.074
       160.     6.3776     19.809
       160.     6.3831     18.798
       160.     6.3937     17.914
       160.     6.3942     16.522
       160.     6.3947     15.129
       160.     6.4002     14.118
       160.     6.4109     12.854
       160.     6.4115     11.335
       160.      6.422     10.705
       160.     6.4428     9.8233
       160.     6.4526     11.092
       160.     6.4572     12.359
       160.     6.4722     13.375
       160.      6.477     14.262
       160.      6.487     14.897
       160.     6.4917     16.038
       160.     6.5122     15.916
       160.     6.5432     15.163
       160.     6.5687     15.423
       160.     6.6045     15.557
       160.     6.6152     14.294
       160.      6.631     13.285
       160.     6.6466     12.529
       160.     6.6522     11.391
       160.     6.6576     10.506
       160.     6.6682     9.4954
       160.     6.6736     8.9903
       160.     6.6893     8.1077
       160.     6.6939     9.3747
       160.     6.7019     10.264
       160.     6.7085     11.277
       160.     6.7184     12.292
       160.     6.7228     13.306
       160.     6.7331     14.194
       160.     6.7379     14.955
       160.     6.7478     15.717
       160.     6.7636     14.708
       160.      6.764     13.695
       160.     6.7695     12.557
       160.     6.7749     11.925
       160.     6.7804     10.914
       160.     6.7807     10.154
       160.     6.7912     9.3971
       160.     6.7915      8.511
       160.     6.7968     8.0059
       160.     6.8019     8.8955
       160.     6.8115     9.9082
       160.     6.8215     10.543
       160.     6.8264     11.178
       160.     6.8313     11.685
       160.     6.8413      12.32
       160.     6.8619     11.945
       160.     6.8724     11.441
       160.     6.8932      10.56
       160.     6.9237     11.073
       160.      6.944     11.584
       160.     6.9695      11.97
       160.     6.9998      12.99
       160.     7.0067     14.005
       160.     7.0093     14.891
       160.     7.0142     15.525
       160.     7.0241      16.54
       160.     7.0389     17.936
       160.     7.0539     18.826
       160.     7.0689     19.842
       160.     7.0841     20.478
       160.     7.0992     20.988
       160.      7.109      22.13
       160.     7.1189     23.145
       160.     7.1289     23.907
       160.     7.1337     24.668
       160.     7.1539     25.432
       160.     7.1645     24.548
       160.     7.1851     24.173
       160.     7.2007     23.544
       160.     7.2213     23.169
       160.     7.2369     22.666
       160.     7.2372     21.653
       160.     7.2427     20.642
       160.     7.2484      19.25
       160.     7.2488     18.238
       160.     7.2544     16.846
       160.       7.26     15.708
       160.     7.2707     14.318
       160.     7.2763      13.18
       160.     7.2768     11.914
       160.     7.2926     10.652
       160.     7.2941      9.767
       160.     7.2964     8.6265
       160.     7.3089     8.1237
       160.     7.3346     7.8764
       160.     7.3495     9.0192
       160.     7.3595     9.7811
       160.     7.3694     10.796
       160.     7.3793     11.685
       160.     7.3842     12.319
       160.      7.399     13.588
       160.     7.4048     11.817
       160.     7.4104     10.552
       160.     7.4159     9.5409
       160.     7.4266     8.5306
       160.     7.4373     7.2671
       160.     7.4627     7.7793
       160.     7.4676     8.2868
       160.     7.4878     9.0511
ENDDATA            511
ENDSUBENT          518
ENDENTRY             2
