ENTRY            F1014   20090522   20090901   20090828       F036
SUBENT        F1014001   20090522   20090901   20090828       F036
BIB                  9         23
TITLE      Spin and parity assignments for 35Cl levels from the
           31P(a,p)34S reaction.
AUTHOR     (W.A.Schier,B.K.Barnes,G.P.Couchell,J.J.Egan,P.Harihar,
           S.C.Mathur,A.Mittler,E.Sheldon)
INSTITUTE  (1USALTI)
REFERENCE  (J,NP/A,254,80,1975)
FACILITY   (VDG) 5.5 MV
DETECTOR   (SIBAR) Four silicon surface-barrier detectors were
           employed in the experiment. Three of these were
           simultaneously used to measure excitation functions at
           25, 105 and 155 degr. or the proton yield at three
           angles of an angular distribution, while the fourth
           detector served to normalize the on-resonance
           distributions by monitoring the ground state proton
           yield at a fixed angle (near 160 degr.).
SAMPLE     Thin backed targets of 10 keV thickness were fabricated
           by evaporating red phosphorus (100% naturally abundant
           in 31P) onto carbon foils stabilized with a small
           amount of gold.
ERR-ANALYS (ERR-SYS)    Systematic error
           (ERR-S)      Statistical error
           (ERR-DIG)    Data digitizing error
HISTORY    (20090505C)
ENDBIB              23
COMMON               2          3
ERR-SYS    ERR-S
PER-CENT   PER-CENT
  20.        3.
ENDCOMMON            3
ENDSUBENT           30
SUBENT        F1014002   20090522   20090901   20090828       F036
BIB                  3          3
REACTION   (15-P-31(A,EL)15-P-31,,DA,,RTH)
ERR-ANALYS (ANG-ERR-D)  Angle digitizing error
STATUS     (CURVE) Fig.1
ENDBIB               3
COMMON               2          3
ANG-ERR-D  ERR-DIG
ADEG       NO-DIM
 0.098      0.002
ENDCOMMON            3
DATA                 3         65
EN         ANG-CM     DATA-CM
MEV        ADEG       NO-DIM
        4.0     49.971    0.96607
        4.0     61.348     1.0299
        4.0      71.44     1.0674
        4.0     82.082      1.026
        4.0     92.172    0.95071
        4.0     102.26    0.93936
        4.0     112.36    0.95808
        4.0     122.26     1.0069
        4.0     131.62    0.99929
        4.0     141.16     1.0105
        4.0     150.15     1.0029
        4.0     158.23    0.97653
        4.0       163.     1.0254
       4.75     50.52     1.0184
       4.75     61.345    0.98867
       4.75     71.437    0.99969
       4.75     82.446    0.99218
       4.75     92.353    0.95135
       4.75     102.08    0.89571
       4.75     112.35    0.92154
       4.75     122.08    0.95109
       4.75     131.62    0.95841
       4.75     140.43    0.94722
       4.75     149.79     1.0138
       4.75     158.23     0.9952
       4.75       163.    0.96553
        5.0     50.326    0.97023
        5.0     61.519    0.97752
        5.0     71.427     1.0033
        5.0     82.436     0.9662
        5.0     92.162     1.0142
        5.0     101.89    0.98822
        5.0     112.16     0.9659
        5.0     122.25    0.90653
        5.0     131.61    0.87681
        5.0     140.41     0.8619
        5.0     149.59    0.89514
        5.0     158.58     0.8469
        5.0     162.98    0.86908
        5.2      49.74    0.94958
        5.2     61.299    0.91355
        5.2     71.391    0.96387
        5.2     82.217    0.97461
        5.2     91.941     0.9242
        5.2     101.67     0.8702
        5.2     112.31     0.8126
        5.2     122.22    0.84492
        5.2     131.39    0.84488
        5.2      140.2    0.84844
        5.2     149.37    0.81602
        5.2     158.18    0.86634
        5.2     162.77    0.88071
        5.5     50.464    0.78564
        5.5     61.108    0.88916
        5.5     70.651     1.0034
        5.5     82.028     1.0819
        5.5     91.934    0.94614
        5.5     101.84    0.82466
        5.5     112.12    0.78889
        5.5     121.66    0.74598
        5.5      131.2    0.68522
        5.5       140.    0.66374
        5.5     148.81    0.56727
        5.5     159.08    0.56364
        5.5     162.39    0.56005
ENDDATA             67
ENDSUBENT           79
SUBENT        F1014003   20090522   20090901   20090828       F036
BIB                  3          3
REACTION   (15-P-31(A,P)16-S-34,PAR,DA)
ERR-ANALYS (EN-ERR-DIG)  Energy digitizing error
STATUS     (CURVE) Fig.2
ENDBIB               3
COMMON               3          3
E-LVL      EN-ERR-DIG ERR-DIG
MEV        MEV        MB/SR
 0.         0.001      0.001
ENDCOMMON            3
DATA                 3        887
ANG        EN         DATA
ADEG       MEV        MB/SR
       105.     3.2521 3.6142E-03
       105.     3.2574 6.0236E-03
       105.     3.2627 2.4088E-03
       105.     3.2679 2.6507E-02
       105.     3.2722 1.6869E-02
       105.     3.2827 6.0262E-03
       105.      3.287 2.3825E-04
       105.     3.2922 4.8195E-02
       105.     3.2975 6.8678E-02
       105.     3.3028 4.9401E-02
       105.      3.307 1.5666E-02
       105.     3.3123 1.2088E-03
       105.     3.3207 6.0196E-03
       105.     3.3271  7.224E-03
       105.     3.3324   1.21E-03
       105.     3.3376 3.0126E-02
       105.      3.344 2.8922E-02
       105.     3.3482 2.5307E-02
       105.     3.3524 1.9284E-02
       105.     3.3577 1.9284E-02
       105.      3.363 3.2537E-02
       105.     3.3683 3.4947E-02
       105.     3.3714 1.4465E-02
       105.     3.3778 6.0321E-03
       105.     3.3799 7.2371E-03
       105.     3.3841 6.0325E-03
       105.     3.3873 4.8279E-03
       105.     3.3925 1.4467E-02
       105.     3.3968 2.2901E-02
       105.      3.402 3.8564E-02
       105.     3.4073 8.5552E-02
       105.     3.4126     0.1663
       105.     3.4189     0.2205
       105.     3.4231     0.1892
       105.     3.4274     0.1386
       105.     3.4327 6.8686E-02
       105.     3.4369 2.2903E-02
       105.     3.4411 4.0976E-02
       105.     3.4474 7.2302E-02
       105.     3.4527  5.182E-02
       105.      3.458 3.7362E-02
       105.     3.4612 1.0857E-02
       105.     3.4633 1.3266E-02
       105.     3.4675 6.8688E-02
       105.     3.4781 5.4231E-02
       105.     3.4833 5.7846E-02
       105.     3.4886     0.1085
       105.     3.4939 8.6762E-02
       105.     3.4992 4.8208E-02
       105.     3.5045 2.1703E-02
       105.     3.5076  1.086E-02
       105.     3.5129 1.3269E-02
       105.     3.5171 1.9294E-02
       105.     3.5235 5.6644E-02
       105.     3.5308     0.2073
       105.     3.5351     0.2253
       105.     3.5393     0.1374
       105.     3.5446 6.3874E-02
       105.     3.5477 1.3272E-02
       105.     3.5541 6.0431E-03
       105.     3.5594 1.4477E-02
       105.     3.5646 3.6342E-03
       105.     3.5689 4.7993E-03
       105.     3.5731 2.1707E-02
       105.     3.5794 2.1707E-02
       105.     3.5836 2.1708E-02
       105.     3.5921 2.1708E-02
       105.     3.5984 2.4118E-02
       105.     3.6026  1.448E-02
       105.     3.6079 1.0866E-02
       105.     3.6132 1.3276E-02
       105.     3.6185 2.2915E-02
       105.     3.6238 5.5445E-02
       105.      3.629 4.8216E-02
       105.     3.6333 3.7373E-02
       105.     3.6396 3.0145E-02
       105.     3.6438 2.1711E-02
       105.     3.6512     0.1808
       105.     3.6565     0.2422
       105.     3.6607     0.1579
       105.     3.6639     1.E-01
       105.     3.6692   4.34E-02
       105.     3.6734 1.8099E-02
       105.     3.6787 4.8461E-03
       105.     3.6839 4.8464E-03
       105.     3.6892 1.2076E-02
       105.     3.6945 9.6664E-03
       105.     3.6987 3.2558E-02
       105.     3.7051 3.2559E-02
       105.     3.7082 1.4486E-02
       105.     3.7146 1.9306E-02
       105.     3.7198 3.6174E-02
       105.     3.7241 1.8102E-02
       105.     3.7283  6.054E-03
       105.     3.7346 4.8496E-03
       105.     3.7399  3.738E-02
       105.     3.7452 5.4248E-02
       105.     3.7494  4.461E-02
       105.     3.7557 9.0393E-02
       105.       3.76 4.9429E-02
       105.     3.7642 4.3406E-02
       105.     3.7695 5.4249E-02
       105.     3.7737 4.7021E-02
       105.      3.779 3.4973E-02
       105.     3.7843 1.8106E-02
       105.     3.7906     0.1446
       105.     3.7948     0.1591
       105.     3.8001     0.1181
       105.     3.8043 7.2324E-02
       105.     3.8096 2.5336E-02
       105.     3.8149 2.4132E-02
       105.     3.8202 2.2927E-02
       105.     3.8254 2.1723E-02
       105.     3.8307 1.9313E-02
       105.     3.8349 8.3169E-02
       105.     3.8402     1.E-01
       105.     3.8455 8.1965E-02
       105.     3.8497 4.5821E-02
       105.      3.855 3.4978E-02
       105.     3.8603 2.1725E-02
       105.     3.8666 1.3292E-02
       105.     3.8719 1.8111E-02
       105.     3.8751 5.5461E-02
       105.     3.8803 4.4618E-02
       105.     3.8867 4.3413E-02
       105.     3.8898 8.4737E-03
       105.     3.8962 6.0645E-03
       105.     3.9004 9.6792E-03
       105.     3.9067 1.5704E-02
       105.      3.912     0.1193
       105.     3.9173     0.2169
       105.     3.9215     0.1061
       105.     3.9268 7.5946E-02
       105.      3.931 4.4621E-02
       105.     3.9373     1.E-01
       105.     3.9426     0.1097
       105.     3.9469 7.5947E-02
       105.     3.9521 5.3056E-02
       105.     3.9574 4.4622E-02
       105.     3.9616  2.896E-02
       105.     3.9669 2.1732E-02
       105.     3.9733 1.6913E-02
       105.     3.9775 6.0695E-03
       105.     3.9828 1.2094E-02
       105.     3.9891     0.1157
       105.     3.9954     0.2109
       105.     4.0007     0.2229
       105.     4.0039     0.1446
       105.     4.0081 7.1132E-02
       105.     4.0113 4.3421E-02
       105.     4.0165  1.812E-02
       105.     4.0208 7.1808E-03
       105.     4.0282 1.2534E-03
       105.     4.0345 1.2538E-03
       105.     4.0377 5.9749E-03
       105.      4.044 7.2785E-03
       105.     4.0482 5.1857E-02
       105.     4.0545 6.3906E-02
       105.     4.0588 4.5834E-02
       105.      4.063 2.4147E-02
       105.     4.0672 1.5714E-02
       105.     4.0725   1.21E-02
       105.     4.0767 1.0895E-02
       105.     4.0841 1.0895E-02
       105.     4.0894 4.3426E-02
       105.     4.0947 6.2703E-02
       105.     4.0999 6.5113E-02
       105.     4.1052 8.1981E-02
       105.     4.1105 6.5114E-02
       105.     4.1168     0.1254
       105.     4.1221     0.2495
       105.     4.1274     0.2037
       105.     4.1327     0.1145
       105.     4.1348 4.7043E-02
       105.     4.1401 3.0176E-02
       105.     4.1443 2.6562E-02
       105.     4.1506 2.7767E-02
       105.     4.1549 6.9936E-02
       105.     4.1612     0.1398
       105.     4.1665 9.6443E-02
       105.     4.1717 8.6805E-02
       105.      4.177     0.1049
       105.     4.1812     0.1639
       105.     4.1865      0.176
       105.     4.1918     0.1205
       105.     4.1971 7.9577E-02
       105.     4.2003 5.1867E-02
       105.     4.2066 3.1385E-02
       105.     4.2119  3.259E-02
       105.     4.2161     0.1266
       105.     4.2224     0.3061
       105.     4.2287     0.4013
       105.      4.234     0.3133
       105.     4.2361     0.1748
       105.     4.2404  8.199E-02
       105.     4.2467     0.1001
       105.      4.253     0.2965
       105.     4.2604     0.4916
       105.     4.2636     0.4121
       105.     4.2678     0.2952
       105.      4.272     0.1904
       105.     4.2763     0.1278
       105.     4.2816 8.3197E-02
       105.     4.2868  8.694E-02
       105.     4.2911     0.1303
       105.     4.2963      0.199
       105.     4.3006     0.1845
       105.     4.3058     0.1701
       105.     4.3111     0.5496
       105.     4.3143     0.6761
       105.     4.3217     0.5243
       105.      4.327     0.3219
       105.     4.3312     0.2713
       105.     4.3375     0.5099
       105.     4.3407     0.8677
       105.      4.346      0.846
       105.     4.3512     0.6472
       105.     4.3565     0.3761
       105.     4.3618     0.2315
       105.      4.366     0.1339
       105.     4.3713     0.1629
       105.     4.3776     0.1484
       105.     4.3829      0.152
       105.     4.3882      0.199
       105.     4.3924     0.1809
       105.     4.3977     0.3111
       105.      4.403      0.499
       105.     4.4082     0.5496
       105.     4.4146     0.5605
       105.     4.4178     0.5894
       105.      4.422      0.499
       105.     4.4273     0.3653
       105.     4.4336     0.3617
       105.     4.4378     0.3111
       105.      4.442     0.2641
       105.     4.4473     0.1629
       105.     4.4526 8.6973E-02
       105.     4.4579 4.7214E-02
       105.     4.4642 4.3602E-02
       105.     4.4727      0.152
       105.     4.4769     0.1231
       105.     4.4832 9.0591E-02
       105.     4.4885 7.9749E-02
       105.     4.4927  4.722E-02
       105.      4.498 3.2763E-02
       105.     4.5033 4.7223E-02
       105.     4.5086     0.1267
       105.     4.5138     0.1665
       105.     4.5191     0.1521
       105.     4.5233  8.337E-02
       105.     4.5286 2.9155E-02
       105.     4.5339 6.9885E-03
       105.     4.5392 1.0602E-02
       105.     4.5434 2.4223E-04
       105.     4.5487 3.2772E-02
       105.      4.554     0.1665
       105.     4.5592     0.1376
       105.     4.5624 9.7836E-02
       105.     4.5698     0.1087
       105.      4.574     0.1268
       105.     4.5782     0.3256
       105.     4.5856     0.8063
       105.     4.5909     1.0593
       105.     4.5941      0.828
       105.     4.6004     0.5641
       105.     4.6046     0.3581
       105.     4.6099     0.3942
       105.     4.6152     0.3979
       105.     4.6184     0.2677
       105.     4.6236     0.1846
       105.     4.6289     0.1701
       105.     4.6353     0.3075
       105.     4.6395     0.3979
       105.     4.6448     0.3256
       105.       4.65     0.4557
       105.     4.6553     0.4665
       105.     4.6595     0.4882
       105.     4.6648     0.5352
       105.      4.669     0.2027
       105.     4.6754     0.2894
       105.     4.6796     0.3328
       105.     4.6849     0.2461
       105.     4.6902     0.3328
       105.     4.6944     0.3726
       105.     4.7007     0.5641
       105.      4.706     0.4665
       105.     4.7113     0.4919
       105.     4.7155     0.5967
       105.     4.7208     0.6943
       105.     4.7261     0.5352
       105.     4.7282     0.4882
       105.     4.7313      0.387
       105.     4.7377     0.4738
       105.     4.7461     0.4593
       105.     4.7493     0.3256
       105.     4.7556     0.3256
       105.      4.762     0.1449
       105.     4.7662     0.1412
       105.     4.7715     0.2027
       105.     4.7746     0.2172
       105.      4.782      0.228
       105.     4.7873     0.3148
       105.     4.7926     1.0485
       105.     4.7968     1.1316
       105.     4.8063     0.5172
       105.     4.8126     0.8244
       105.      4.819     1.2473
       105.     4.8242     1.3593
       105.     4.8285     0.9075
       105.     4.8327     0.5135
       105.     4.8369     0.2497
       105.     4.8411     0.2786
       105.     4.8485     0.2895
       105.     4.8517      0.275
       105.      4.857     0.3907
       105.     4.8623     0.5099
       105.     4.8675     0.7124
       105.     4.8739     1.2654
       105.     4.8802     1.2871
       105.     4.8834     1.0232
       105.     4.8887     0.6654
       105.     4.8939     0.7557
       105.     4.8982     0.6003
       105.     4.9024     0.3871
       105.     4.9077     0.3112
       105.     4.9119     0.3148
       105.     4.9182     0.5353
       105.     4.9235     0.9798
       105.     4.9288     0.8859
       105.      4.933     0.6581
       105.     4.9372     0.4052
       105.     4.9425      0.275
       105.     4.9457     0.2823
       105.      4.952      0.322
       105.     4.9573     0.2859
       105.     4.9626     0.2678
       105.     4.9668      0.228
       105.     4.9721     0.1991
       105.     4.9784     0.1847
       105.     4.9826     0.3184
       105.     4.9869     0.4594
       105.     4.9932     0.8027
       105.     4.9942      0.969
       105.     5.0006     1.5184
       105.     5.0058     1.3955
       105.      5.009     0.8497
       105.     5.0132     0.5931
       105.     5.0175     0.4847
       105.     5.0227     0.5425
       105.     5.0291     0.8353
       105.     5.0344     1.0666
       105.     5.0396     1.0341
       105.     5.0449     1.0738
       105.     5.0502     1.3666
       105.     5.0576     1.6991
       105.     5.0618     1.4425
       105.      5.065     0.9003
       105.     5.0692     0.7811
       105.     5.0724     0.4847
       105.     5.0787     0.4847
       105.      5.084     0.4449
       105.     5.0893     0.7702
       105.     5.0935     0.8461
       105.     5.0988      0.575
       105.     5.1019     0.3112
       105.     5.1083     0.1702
       105.     5.1136     0.1413
       105.     5.1188      0.257
       105.     5.1231     0.1883
       105.     5.1294     0.4016
       105.     5.1336     0.6582
       105.     5.1389      1.063
       105.     5.1452     1.2256
       105.     5.1494     1.2365
       105.     5.1547     1.0088
       105.     5.1589     0.7594
       105.     5.1642     0.7088
       105.     5.1685     0.4775
       105.     5.1727     0.4377
       105.      5.179     0.3654
       105.     5.1832     0.4811
       105.     5.1885     0.9437
       105.     5.1938      0.857
       105.      5.198      0.557
       105.     5.2043     0.8968
       105.     5.2096     1.1823
       105.      5.216     1.1859
       105.     5.2202     1.2871
       105.     5.2255     1.3377
       105.     5.2307     1.4245
       105.      5.235     1.3233
       105.     5.2402     1.0413
       105.     5.2445     1.0341
       105.     5.2487     0.6835
       105.      5.254     0.4992
       105.     5.2593     0.3329
       105.     5.2624     0.3546
       105.     5.2677     0.2895
       105.     5.2719       0.21
       105.     5.2772     0.2136
       105.     5.2835     0.4269
       105.     5.2878     0.9474
       105.     5.2951     1.1968
       105.     5.3004     1.4245
       105.     5.3057     1.5944
       105.     5.3099     1.2727
       105.      5.312     0.7124
       105.     5.3184      0.416
       105.     5.3226     0.2317
       105.     5.3268     0.2606
       105.     5.3332     0.2389
       105.     5.3374     0.2606
       105.     5.3427     0.2317
       105.      5.348     0.2173
       105.     5.3522     0.1486
       105.     5.3575     0.2209
       105.     5.3627     0.2787
       105.     5.3722     0.2606
       105.     5.3775     0.2534
       105.     5.3881     0.5028
       105.     5.3933     0.8787
       105.     5.3976      0.951
       105.     5.4092     1.2113
       105.     5.4145     1.3088
       105.     5.4176      0.951
       105.     5.4229     0.6257
       105.     5.4282     0.6077
       105.     5.4314     0.5968
       105.     5.4377     0.6004
       105.     5.4409     0.4956
       105.     5.4461     0.4125
       105.     5.4493     0.2281
       105.     5.4556     0.2245
       105.     5.4609     0.2787
       105.     5.4662     0.2354
       105.     5.4704     0.2679
       105.     5.4747     0.2064
       105.     5.4799     0.1775
       105.     5.4842     0.1486
       105.     5.4894     0.2137
       105.     5.4958     0.3583
       155.     3.2553 3.0076E-03
       155.     3.2606 1.5039E-03
       155.     3.2637 3.0075E-02
       155.     3.2658 6.7669E-02
       155.     3.2701 9.3233E-02
       155.     3.2764 6.3158E-02
       155.     3.2806 3.4587E-02
       155.      3.287 4.3609E-02
       155.     3.2891     0.1293
       155.     3.2933 1.5038E-02
       155.     3.2954     0.1759
       155.     3.3007     0.1579
       155.     3.3028 9.6241E-02
       155.     3.3102 5.1128E-02
       155.     3.3155 6.6166E-02
       155.     3.3197 7.2181E-02
       155.      3.325 4.8121E-02
       155.     3.3313 4.9625E-02
       155.     3.3345     0.1218
       155.     3.3387     0.1534
       155.     3.3461 9.3234E-02
       155.     3.3514 7.0678E-02
       155.     3.3556 4.2106E-02
       155.     3.3609 4.5114E-02
       155.     3.3661 5.4136E-02
       155.     3.3714 7.5189E-02
       155.     3.3778 7.6693E-02
       155.      3.382 7.8197E-02
       155.     3.3862 4.2107E-02
       155.     3.3915 7.3686E-02
       155.     3.3957 4.6618E-02
       155.     3.3999 3.3084E-02
       155.      3.401 6.7671E-02
       155.     3.4052     0.1895
       155.     3.4105     0.3113
       155.     3.4158     0.3699
       155.      3.421      0.379
       155.     3.4253     0.2496
       155.     3.4295      0.185
       155.     3.4358     0.1459
       155.     3.4401 6.9175E-02
       155.     3.4464     0.1308
       155.     3.4506 9.7746E-02
       155.      3.458 9.1731E-02
       155.     3.4601 4.9626E-02
       155.     3.4643     0.1263
       155.     3.4717 9.7747E-02
       155.     3.4833     0.1564
       155.     3.4876      0.206
       155.     3.4918     0.1955
       155.      3.496     0.1023
       155.     3.5013  6.316E-02
       155.     3.5066 3.1581E-02
       155.     3.5118 2.4063E-02
       155.     3.5171 9.3236E-02
       155.     3.5224 9.0228E-02
       155.     3.5266     0.3218
       155.     3.5319     0.4301
       155.     3.5372     0.2797
       155.     3.5414     0.1338
       155.     3.5467 5.7146E-02
       155.     3.5467 7.5191E-02
       155.      3.553 5.7146E-02
       155.     3.5604 9.0256E-03
       155.     3.5678 3.9101E-02
       155.     3.5731 3.7597E-02
       155.     3.5763     0.1248
       155.     3.5815     0.1384
       155.     3.5879 7.2184E-02
       155.     3.5921 7.5191E-02
       155.     3.5963 7.8199E-02
       155.     3.6027 3.3086E-02
       155.     3.6079 5.4139E-02
       155.     3.6122     0.1098
       155.     3.6174 8.8725E-02
       155.     3.6227      0.212
       155.      3.628     0.2135
       155.     3.6322     0.1218
       155.     3.6364     0.1053
       155.     3.6428     0.1068
       155.      3.647     0.5023
       155.     3.6544     0.7293
       155.     3.6565     0.4181
       155.     3.6576     0.4752
       155.     3.6607     0.3113
       155.     3.6649     0.1323
       155.     3.6713 8.5718E-02
       155.     3.6766 5.1132E-02
       155.     3.6818 6.0155E-02
       155.     3.6871 9.9252E-02
       155.     3.6903 7.2185E-02
       155.     3.6977 7.2185E-02
       155.     3.7019 5.7147E-02
       155.     3.7072 3.7598E-02
       155.     3.7114 6.3162E-02
       155.     3.7156 4.9629E-02
       155.      3.722 4.9629E-02
       155.     3.7272 3.6095E-02
       155.     3.7325 3.9102E-02
       155.     3.7367     0.1113
       155.      3.742     0.1579
       155.     3.7484     0.2451
       155.     3.7526     0.1925
       155.     3.7568     0.1293
       155.     3.7631     0.1699
       155.     3.7663     0.1805
       155.     3.7716     0.1293
       155.     3.7769     0.1173
       155.     3.7821     0.1549
       155.     3.7874     0.4015
       155.     3.7938     0.5038
       155.      3.798     0.4226
       155.     3.8011     0.2722
       155.     3.8064     0.1609
       155.     3.8117 8.8727E-02
       155.      3.817 8.7224E-02
       155.     3.8223 9.1735E-02
       155.     3.8233 7.5194E-02
       155.     3.8275 6.6171E-02
       155.     3.8328     0.1519
       155.     3.8381     0.1835
       155.     3.8434     0.1384
       155.     3.8465 9.3239E-02
       155.     3.8529 6.3164E-02
       155.     3.8582  4.963E-02
       155.     3.8613 6.0156E-02
       155.     3.8666 6.4668E-02
       155.     3.8719      0.215
       155.     3.8782     0.1744
       155.     3.8835     0.1158
       155.     3.8867 6.7675E-02
       155.      3.892 6.6172E-02
       155.     3.8972 6.9179E-02
       155.     3.9036 9.0232E-02
       155.     3.9099      0.388
       155.     3.9141     0.5805
       155.     3.9183     0.2767
       155.     3.9226      0.191
       155.     3.9279     0.1429
       155.     3.9352      0.215
       155.     3.9395     0.2572
       155.      3.949     0.1384
       155.     3.9532     0.1188
       155.     3.9606 8.8729E-02
       155.     3.9659 5.8654E-02
       155.      3.968 3.6097E-02
       155.     3.9743  3.309E-02
       155.     3.9806  5.715E-02
       155.     3.9859      0.185
       155.     3.9912     0.3143
       155.     3.9954     0.3504
       155.     4.0007     0.3489
       155.      4.006     0.2361
       155.     4.0113     0.1354
       155.     4.0176 7.6699E-02
       155.     4.0229 4.3617E-02
       155.     4.0271 2.5572E-02
       155.     4.0313 9.0302E-03
       155.     4.0366  1.806E-02
       155.     4.0419 2.4076E-02
       155.     4.0472 9.6256E-02
       155.     4.0524     0.1564
       155.     4.0598 9.6256E-02
       155.      4.063 7.5204E-02
       155.     4.0683 5.1144E-02
       155.     4.0746 3.0092E-02
       155.     4.0809 2.1068E-02
       155.     4.0852 2.1068E-02
       155.     4.0873  4.513E-02
       155.     4.0926  9.325E-02
       155.     4.0968     0.1594
       155.     4.1031     0.2346
       155.     4.1105     0.2196
       155.     4.1137     0.3549
       155.     4.1147     0.5293
       155.     4.1158 7.2198E-02
       155.     4.1168     0.7639
       155.     4.1242     0.5444
       155.     4.1295     0.3278
       155.     4.1348     0.1504
       155.      4.138     0.1354
       155.     4.1432     0.1293
       155.     4.1485     0.1384
       155.     4.1549     0.2166
       155.     4.1591     0.3639
       155.     4.1644     0.3399
       155.     4.1686     0.2887
       155.     4.1749     0.3218
       155.     4.1791     0.3579
       155.     4.1844     0.3188
       155.     4.1897     0.2196
       155.      4.195     0.1594
       155.     4.2003     0.1384
       155.     4.2045     0.1233
       155.     4.2098     0.1654
       155.      4.214      0.376
       155.     4.2193     0.6617
       155.     4.2224     0.8451
       155.     4.2288     0.6226
       155.     4.2298      0.373
       155.     4.2351      0.382
       155.     4.2372     0.3218
       155.     4.2393     0.2105
       155.     4.2457     0.3369
       155.     4.2552     0.6978
       155.     4.2583     0.5023
       155.     4.2647     0.4361
       155.     4.2699     0.3218
       155.     4.2731     0.2136
       155.     4.2784     0.2075
       155.     4.2847     0.2496
       155.     4.2879     0.2948
       155.     4.2921     0.4602
       155.     4.2995      0.803
       155.     4.3037     0.7339
       155.      4.309     0.6406
       155.     4.3122     0.9444
       155.     4.3185     1.0346
       155.     4.3248     0.7098
       155.     4.3301      0.394
       155.     4.3312     0.3272
       155.     4.3365     0.7959
       155.     4.3417     1.8657
       155.      4.346     2.0956
       155.     4.3512     1.6977
       155.     4.3544     1.0346
       155.     4.3607     0.5925
       155.      4.365     0.4864
       155.     4.3713     0.4864
       155.     4.3766     0.5041
       155.     4.3808     0.3803
       155.     4.3861      0.398
       155.     4.3914     0.4156
       155.     4.3966     0.3095
       155.     4.3988     0.4864
       155.     4.3998     0.7605
       155.     4.4051     1.3706
       155.     4.4093     1.5563
       155.     4.4146     1.6094
       155.     4.4199     1.4148
       155.     4.4304     0.8224
       155.     4.4357     0.7339
       155.     4.4399     0.7605
       155.     4.4463     0.6013
       155.     4.4505     0.4245
       155.     4.4568      0.283
       155.     4.4611     0.2211
       155.     4.4674     0.1062
       155.     4.4716     0.1769
       155.     4.4769     0.4775
       155.     4.4832     0.4333
       155.     4.4874       0.23
       155.      4.498 8.8494E-02
       155.     4.5033 7.0807E-02
       155.     4.5086 7.0807E-02
       155.     4.5117       0.23
       155.     4.5181     0.4068
       155.     4.5233     0.3184
       155.     4.5276     0.2123
       155.     4.5328     0.1062
       155.     4.5392  7.965E-02
       155.     4.5445 7.0813E-02
       155.     4.5476 9.7338E-02
       155.     4.5571     0.4157
       155.     4.5635     0.3538
       155.     4.5687     0.2477
       155.      4.574     0.2211
       155.     4.5782     0.1858
       155.     4.5835       0.23
       155.     4.5878     0.6898
       155.      4.592     1.0169
       155.     4.5983      0.955
       155.     4.6036     0.7516
       155.     4.6089     0.7428
       155.     4.6131     0.8047
       155.     4.6194     0.6898
       155.     4.6247     0.3803
       155.     4.6289     0.3184
       155.     4.6342     0.1769
       155.     4.6395     0.1858
       155.     4.6427     0.2565
       155.     4.6479     0.2653
       155.     4.6543     0.5218
       155.     4.6595     1.0258
       155.     4.6648     1.0523
       155.     4.6691     0.6898
       155.     4.6743     0.4333
       155.     4.6786     0.9638
       155.     4.6838     1.1495
       155.     4.6902     0.9638
       155.     4.6933     0.9285
       155.     4.6986     0.7428
       155.     4.7049     0.4952
       155.     4.7102      0.398
       155.     4.7145     0.7516
       155.     4.7197     0.9727
       155.      4.725     0.9462
       155.     4.7292     0.8578
       155.     4.7356     0.7516
       155.     4.7398      1.123
       155.      4.744     1.7243
       155.     4.7503     1.6801
       155.     4.7556     1.1319
       155.     4.7588     0.6544
       155.     4.7662     0.5129
       155.     4.7704     0.4068
       155.     4.7757     0.5041
       155.      4.781     0.5837
       155.     4.7852     0.7428
       155.     4.7915     0.8401
       155.     4.7958     1.6713
       155.        4.8     1.6889
       155.     4.8095     0.8931
       155.     4.8137     1.7596
       155.       4.82     2.1487
       155.     4.8253     2.0073
       155.     4.8295     1.2115
       155.     4.8338      0.734
       155.      4.839     0.4599
       155.     4.8443     0.6279
       155.     4.8496     0.6102
       155.     4.8549     0.5925
       155.     4.8602     0.6898
       155.     4.8644     0.8224
       155.     4.8707     0.9285
       155.     4.8749     1.4679
       155.     4.8802     1.9896
       155.     4.8855     2.1929
       155.     4.8929     2.1841
       155.     4.9003     1.3441
       155.     4.9056      0.734
       155.     4.9098     0.5129
       155.     4.9151     0.4334
       155.     4.9214     0.4245
       155.     4.9246     0.6279
       155.     4.9309      0.566
       155.     4.9351     0.5041
       155.     4.9415     0.4422
       155.     4.9467     0.5571
       155.     4.9489     0.8224
       155.     4.9562     0.7693
       155.     4.9605     0.7251
       155.     4.9657     0.6898
       155.      4.971     0.6102
       155.     4.9774     0.6102
       155.     4.9858     0.8667
       155.     4.9911     1.0258
       155.     4.9953     1.6271
       155.     5.0016     3.2717
       155.     5.0111     1.9012
       155.     5.0154     1.2292
       155.     5.0196     0.7605
       155.     5.0249     0.6544
       155.     5.0312     0.8843
       155.     5.0344      1.689
       155.     5.0407     2.0957
       155.     5.0449      1.857
       155.     5.0513     1.9807
       155.     5.0544     2.2283
       155.     5.0576     2.2725
       155.     5.0618     2.3256
       155.      5.065      1.689
       155.     5.0703     1.4768
       155.     5.0745     1.1496
       155.     5.0808     1.6801
       155.      5.084     1.7155
       155.     5.0903     2.2018
       155.     5.0956     2.2018
       155.     5.0998     1.5121
       155.     5.1104     0.5572
       155.     5.1146     0.4511
       155.     5.1199     0.5483
       155.     5.1241      0.398
       155.     5.1283     0.4334
       155.     5.1357     0.5572
       155.      5.141     0.9639
       155.     5.1452     1.1849
       155.     5.1505     0.9816
       155.     5.1537     0.6898
       155.      5.159     0.5306
       155.     5.1632     0.5041
       155.     5.1674     0.5218
       155.     5.1695     0.6544
       155.     5.1748     0.7163
       155.      5.179     0.8843
       155.     5.1906      2.025
       155.     5.1959     1.5475
       155.     5.2001     1.1407
       155.     5.2054     2.0957
       155.     5.2096     2.7235
       155.      5.216     2.1222
       155.     5.2202     2.0692
       155.     5.2255     1.8835
       155.     5.2297     1.7597
       155.      5.236      1.857
       155.     5.2413     1.9984
       155.     5.2466     1.9012
       155.     5.2498     1.3264
       155.      5.254     0.9374
       155.     5.2593     0.7429
       155.     5.2645     0.7252
       155.     5.2698     0.6898
       155.     5.2751     0.5925
       155.     5.2793      0.787
       155.     5.2846     1.3883
       155.     5.2899      2.246
       155.     5.2941     2.3521
       155.     5.3004     2.5466
       155.     5.3047     2.1841
       155.     5.3089     1.6005
       155.     5.3142      1.238
       155.     5.3194     1.0877
       155.     5.3247     1.1231
       155.       5.33     1.1496
       155.     5.3342     1.0169
       155.     5.3395     0.9993
       155.     5.3437     1.0523
       155.      5.349     1.0523
       155.     5.3543     1.0346
       155.     5.3585     1.1938
       155.     5.3627     1.3971
       155.      5.368     1.6625
       155.     5.3733     1.4237
       155.     5.3786     1.2646
       155.     5.3891     2.1576
       155.     5.3955     3.4928
       155.     5.3997     3.3336
       155.      5.405     2.9534
       155.     5.4113     3.1567
       155.     5.4145     3.1214
       155.     5.4187     2.4936
       155.      5.424     2.3698
       155.     5.4293     2.3344
       155.     5.4335     1.9189
       155.     5.4377     1.5387
       155.      5.444     1.6802
       155.     5.4472     1.4591
       155.     5.4514     1.0169
       155.     5.4567     0.9639
       155.      5.462     1.0789
       155.     5.4662     1.1938
       155.     5.4715     0.7694
       155.     5.4778     0.7517
       155.      5.481     0.6279
       155.     5.4884      0.619
       155.     5.4958     1.0258
ENDDATA            889
ENDSUBENT          901
SUBENT        F1014004   20090522   20090901   20090828       F036
BIB                  4          5
REACTION   (15-P-31(A,P)16-S-34,PAR,DA)
ERR-ANALYS (ANG-ERR-D)  Angle digitizing error
COMMENT    From compilers: incident energies of alpha particles
           are taken from table 3, p. 90.
STATUS     (CURVE) Fig.4-6
ENDBIB               5
COMMON               3          3
E-LVL      ANG-ERR-D  ERR-DIG
MEV        ADEG       MB/SR
 0.         0.163      0.002
ENDCOMMON            3
DATA                 3       1469
EN         ANG-CM     DATA-CM
MEV        ADEG       MB/SR
      3.242     14.118  7.581E-02
      3.242     19.259  5.658E-02
      3.242     25.007  7.251E-02
      3.242     30.147  5.217E-02
      3.242     36.458  5.821E-02
      3.242     40.477   6.48E-02
      3.242      46.21  6.534E-02
      3.242     50.787    5.6E-02
      3.242     56.517  5.325E-02
      3.242     61.684  6.203E-02
      3.242     66.266  5.709E-02
      3.242     73.146  5.873E-02
      3.242     77.164  6.422E-02
      3.242     82.892  5.927E-02
      3.242     87.474  5.542E-02
      3.242     93.222   7.19E-02
      3.242     97.222  5.871E-02
      3.242      101.8  5.156E-02
      3.242     106.97   5.76E-02
      3.242      112.7  5.649E-02
      3.242     117.28  5.265E-02
      3.242     122.44  5.264E-02
      3.242     127.61  6.088E-02
      3.242     132.19  5.593E-02
      3.242     135.05  5.318E-02
      3.242     141.94  6.746E-02
      3.242     145.94  5.207E-02
      3.242     152.25  5.152E-02
      3.242     156.27  5.866E-02
      3.242     160.84  4.491E-02
      3.242     167.73   5.59E-02
      3.305     25.876    0.21967
      3.305     31.522    0.19325
      3.305     37.173    0.17634
      3.305     42.819    0.15203
      3.305     47.348    0.15202
      3.305     52.427     0.1256
      3.305     57.517    0.11714
      3.305     68.249  7.592E-02
      3.305     73.347  8.225E-02
      3.305     79.003  7.485E-02
      3.305     83.532  7.589E-02
      3.305     88.623  6.955E-02
      3.305      93.72  7.482E-02
      3.305     99.377  6.847E-02
      3.305     103.34  6.952E-02
      3.305     108.44  7.901E-02
      3.305     113.54  9.062E-02
      3.305     116.94  9.273E-02
      3.305     123.17    0.10434
      3.305      127.7    0.11067
      3.305     132.81    0.13073
      3.305      137.9    0.12966
      3.305     143.01    0.14972
      3.305     146.97    0.15394
      3.305     152.64    0.17294
      3.335      14.12    0.14205
      3.335     20.417    0.12458
      3.335     26.155    0.13489
      3.335     31.299    0.10632
      3.335     35.879   9.52E-02
      3.335     41.045    0.10869
      3.335     46.198  9.599E-02
      3.335     51.345  7.217E-02
      3.335     57.647  6.582E-02
      3.335     62.231  6.264E-02
      3.335     67.384  4.993E-02
      3.335     71.969  4.834E-02
      3.335     77.126  4.357E-02
      3.335     82.856  3.881E-02
      3.335     88.017  4.198E-02
      3.335     93.178  4.673E-02
      3.335     97.186  3.721E-02
      3.335     102.35  4.355E-02
      3.335     108.08  4.989E-02
      3.335     112.67  5.465E-02
      3.335     117.27  7.607E-02
      3.335     122.44  8.797E-02
      3.335     128.17   9.59E-02
      3.335     132.76  9.352E-02
      3.335     136.77    0.10224
      3.335     141.94    0.12287
      3.335      147.1    0.12208
      3.335     152.84    0.12524
      3.335     156.29    0.15461
      3.335     162.04       0.18
      3.335     168.34    0.18237
      3.425     15.761    0.49308
      3.425     20.846    0.47032
      3.425     31.579    0.41571
      3.425     36.686     0.4475
      3.425     40.065    0.40429
      3.425     47.423    0.40197
      3.425     52.513    0.39285
      3.425     57.591    0.34964
      3.425     62.685     0.3496
      3.425     67.767    0.31775
      3.425     73.423    0.30635
      3.425     78.513    0.29723
      3.425     83.025    0.25402
      3.425     93.216    0.26077
      3.425     98.873    0.25392
      3.425     103.95     0.2107
      3.425     107.93    0.25613
      3.425      113.6    0.28337
      3.425     118.12    0.26061
      3.425     123.22     0.2674
      3.425     128.32    0.28782
      3.425     133.42    0.30825
      3.425     138.52     0.3173
      3.425     143.05    0.31727
      3.425     148.16    0.35588
      3.425     153.25    0.34448
      3.425     158.35    0.36718
      3.425     162.32    0.38306
      3.425     167.98    0.39439
      3.490     16.195    0.27039
      3.490     21.318    0.24743
      3.490     26.985    0.20613
      3.490     37.194     0.1373
      3.490     42.331    0.12352
      3.490     47.466    0.10858
      3.490     52.039    0.10053
      3.490     57.198     0.1005
      3.490     62.924  9.588E-02
      3.490     68.081   9.47E-02
      3.490     73.819   9.81E-02
      3.490     78.432    0.11526
      3.490     83.018    0.11523
      3.490     88.759    0.12093
      3.490     94.479    0.11287
      3.490     97.922    0.11514
      3.490     108.24    0.11507
      3.490     113.39    0.11046
      3.490     119.12    0.10698
      3.490     123.71     0.1081
      3.490     129.46    0.11952
      3.490     134.04    0.11605
      3.490     138.08    0.13208
      3.490     143.84    0.15267
      3.490     147.89    0.17786
      3.490     158.31    0.24198
      3.490     162.98    0.29123
      3.490     167.59    0.30839
      3.540     16.059     0.5487
      3.540     20.595    0.48925
      3.540     25.123    0.49197
      3.540     30.787    0.46226
      3.540     35.895    0.36498
      3.540     41.556    0.36229
      3.540     47.788    0.31366
      3.540     51.756    0.27584
      3.540     57.421    0.24072
      3.540     62.513    0.25695
      3.540     68.174    0.24886
      3.540     73.271    0.22995
      3.540     79.499    0.22187
      3.540     84.027    0.22458
      3.540     88.558    0.20027
      3.540     93.647    0.24353
      3.540     98.743    0.23003
      3.540     103.27    0.26788
      3.540     108.93    0.24358
      3.540     114.02    0.27062
      3.540     118.55    0.28955
      3.540     123.07     0.3247
      3.540     127.03    0.30309
      3.540     133.26    0.34635
      3.540     138.35    0.35988
      3.540     142.31     0.3653
      3.540      147.4    0.41667
      3.540     151.92    0.44911
      3.540     155.88    0.46264
      3.540     161.53    0.54374
      3.540     166.63    0.50862
      3.580     17.717    0.19459
      3.580     22.834    0.16486
      3.580     27.958    0.15607
      3.580     33.075    0.12364
      3.580     37.626    0.10404
      3.580     43.319   9.12E-02
      3.580     47.872  7.701E-02
      3.580     54.133  6.349E-02
      3.580     58.688  5.538E-02
      3.580     63.813    5.2E-02
      3.580     68.937  4.186E-02
      3.580     74.635  4.794E-02
      3.580      78.62  4.051E-02
      3.580     84.318  4.659E-02
      3.580     89.447  5.266E-02
      3.580     94.004  5.266E-02
      3.580     99.129  4.928E-02
      3.580     103.69  4.793E-02
      3.580     109.38  5.266E-02
      3.580     114.51  5.874E-02
      3.580     119.07  6.009E-02
      3.580     124.19  5.603E-02
      3.580     129.32  5.941E-02
      3.580     134.45  6.819E-02
      3.580     139.58  7.697E-02
      3.580     144.14  8.981E-02
      3.580     148.13   8.98E-02
      3.580     153.26    0.11075
      3.580     158.39    0.12088
      3.580     163.52     0.1398
      3.580     169.22    0.14385
      3.635     14.771    0.31837
      3.635     18.734    0.31839
      3.635     25.558    0.27335
      3.635     30.099    0.25647
      3.635      35.78    0.22692
      3.635       40.9    0.19173
      3.635     46.563    0.18753
      3.635     51.677    0.16079
      3.635     57.348    0.14532
      3.635     62.463    0.11718
      3.635     67.565    0.10593
      3.635     73.232   9.61E-02
      3.635     77.776  7.499E-02
      3.635     82.311  6.515E-02
      3.635     87.405  6.518E-02
      3.635     93.072  5.675E-02
      3.635     97.598  5.959E-02
      3.635     103.25  6.947E-02
      3.635     108.34  8.217E-02
      3.635     112.87  7.233E-02
      3.635     117.39  9.207E-02
      3.635     123.04    0.10477
      3.635     126.98    0.12873
      3.635     132.63    0.14425
      3.635     137.14    0.16962
      3.635     142.79    0.18936
      3.635     146.18    0.19079
      3.635     151.83    0.21053
      3.635     156.35      0.219
      3.635     162.55    0.25987
      3.635     167.08    0.25426
      3.655      14.88    0.97994
      3.655     21.144    0.94378
      3.655     25.127    0.89408
      3.655     30.244    0.74955
      3.655     35.943    0.79468
      3.655     41.632    0.68627
      3.655     46.181    0.57335
      3.655     50.735    0.54171
      3.655     56.427    0.47395
      3.655     62.687    0.38811
      3.655     67.239    0.32487
      3.655     72.933    0.28871
      3.655     78.055    0.22998
      3.655     82.613    0.23899
      3.655     87.739    0.22994
      3.655     91.727    0.24798
      3.655     97.992    0.22989
      3.655     102.55    0.24793
      3.655     107.11    0.30211
      3.655     112.24    0.34273
      3.655     116.23    0.35626
      3.655     121.93    0.38785
      3.655     127.06    0.44654
      3.655     132.76    0.56845
      3.655     137.32    0.58649
      3.655     141.31    0.62712
      3.655     147.59    0.77612
      3.655     152.71    0.75803
      3.655     157.27     0.7806
      3.655     161.27    0.88896
      3.655     166.96    0.87539
      3.750     15.229    0.52494
      3.750     20.359    0.51079
      3.750      24.95    0.39167
      3.750     30.668    0.31795
      3.750     35.803    0.28962
      3.750     40.946    0.23008
      3.750     46.077    0.21594
      3.750     52.353     0.1791
      3.750      56.92    0.14509
      3.750     63.188    0.13663
      3.750     67.747    0.13098
      3.750     72.874    0.13102
      3.750     77.998    0.13957
      3.750     83.696     0.1311
      3.750     88.248    0.15099
      3.750     93.381    0.12833
      3.750     97.929    0.15957
      3.750      102.5    0.11137
      3.750     107.63    0.11425
      3.750     112.75    0.12847
      3.750     117.88    0.10864
      3.750     123.01    0.11152
      3.750     127.56     0.1229
      3.750     132.69    0.12293
      3.750     137.24    0.13715
      3.750     141.79    0.15988
      3.750     146.34    0.19963
      3.750      152.6    0.22237
      3.750     156.57    0.26211
      3.750     161.66    0.37846
      3.750     167.36    0.37566
      3.795     16.153    0.75417
      3.795      21.82    0.64685
      3.795     26.938     0.6122
      3.795     32.625    0.57754
      3.795     37.154    0.47369
      3.795     42.272    0.44249
      3.795     47.946    0.35939
      3.795      52.49    0.31437
      3.795     57.603    0.26241
      3.795     62.729     0.2589
      3.795     67.273    0.21387
      3.795      72.96    0.17921
      3.795     78.081     0.1584
      3.795     83.201    0.13413
      3.795       88.9    0.14445
      3.795     93.457    0.14441
      3.795     98.584    0.14436
      3.795     103.15    0.16507
      3.795     108.27    0.14772
      3.795      113.4    0.16497
      3.795     116.83     0.2203
      3.795     122.53    0.24447
      3.795      127.1    0.25826
      3.795     132.81    0.32049
      3.795     137.94    0.33774
      3.795     143.08    0.38613
      3.795     147.09     0.4726
      3.795     152.22    0.50023
      3.795     157.37     0.5763
      3.795      162.5    0.57971
      3.795     167.65    0.67655
      3.840     16.283    0.19433
      3.840     21.346    0.18865
      3.840      26.41    0.17956
      3.840     32.034    0.18866
      3.840     36.541    0.14548
      3.840     42.164    0.15457
      3.840     46.666    0.14321
      3.840     52.855    0.13299
      3.840      57.92    0.11367
      3.840     63.544    0.12049
      3.840     67.484    0.10345
      3.840      73.11    0.10005
      3.840     78.735  9.778E-02
      3.840     83.798  9.664E-02
      3.840     88.299   9.21E-02
      3.840     93.923  9.551E-02
      3.840     98.424  9.324E-02
      3.840     104.05    0.10688
      3.840     109.11     0.1103
      3.840      113.6     0.1353
      3.840     118.11    0.11712
      3.840     123.73    0.13303
      3.840     128.23    0.13417
      3.840     133.29    0.15349
      3.840     138.35    0.15577
      3.840     142.85    0.18191
      3.840     147.35    0.17396
      3.840     152.97    0.20919
      3.840     157.47    0.21373
      3.840     162.53    0.22397
      3.840     168.15    0.22624
      3.877     16.058    0.30166
      3.877     21.742    0.26755
      3.877     27.419    0.21298
      3.877     33.112    0.20615
      3.877     37.089    0.17716
      3.877     43.338    0.12941
      3.877     47.887    0.10894
      3.877     53.582    0.10381
      3.877     58.706  9.697E-02
      3.877      62.69  8.844E-02
      3.877     68.385  8.501E-02
      3.877     74.081  8.329E-02
      3.877      79.21  9.009E-02
      3.877     84.337  9.178E-02
      3.877     88.892  8.494E-02
      3.877     94.588  8.663E-02
      3.877     99.719  9.855E-02
      3.877     104.84  9.001E-02
      3.877     109.97  7.976E-02
      3.877     114.53  8.657E-02
      3.877     120.22  8.314E-02
      3.877     124.78  9.335E-02
      3.877     129.34    0.10527
      3.877     133.91    0.12571
      3.877     138.47    0.13422
      3.877     144.17    0.15636
      3.877     149.31    0.19725
      3.877     153.89    0.25348
      3.877     158.45    0.25517
      3.877     164.17    0.31993
      3.877      169.3    0.34718
      3.915     15.112    0.99267
      3.915     20.771    0.87117
      3.915     25.279     0.7104
      3.915     30.947    0.61748
      3.915     36.046    0.52456
      3.915     41.707    0.41021
      3.915     46.819    0.36015
      3.915     51.932    0.31723
      3.915     58.167    0.21715
      3.915     62.735    0.25281
      3.915     67.858    0.23847
      3.915     73.561     0.2634
      3.915     79.251     0.2419
      3.915     83.817    0.27042
      3.915     88.932    0.23464
      3.915      93.49    0.23816
      3.915     98.624    0.25953
      3.915     104.31    0.22732
      3.915     109.44    0.22726
      3.915     114.56    0.21648
      3.915     119.12       0.22
      3.915     124.25    0.23065
      3.915      128.8     0.2306
      3.915     133.37     0.2734
      3.915     138.52    0.32334
      3.915     143.66    0.36256
      3.915     148.25    0.47679
      3.915     153.42    0.62316
      3.915     157.43    0.70168
      3.915     163.15    0.77304
      3.915      168.3    0.87298
      3.938     15.481    0.46221
      3.938     21.638    0.39508
      3.938     26.657    0.32268
      3.938     31.724    0.29616
      3.938     36.221    0.26611
      3.938     41.853    0.23959
      3.938     47.457    0.18482
      3.938     52.512    0.14771
      3.938      57.59    0.13178
      3.938     62.095    0.10879
      3.938     67.757     0.1105
      3.938     73.411    0.10515
      3.938     77.952    0.11746
      3.938     83.616    0.12093
      3.938     88.137    0.11382
      3.938     92.671    0.11907
      3.938     98.339    0.12607
      3.938     103.41    0.10838
      3.938     108.53    0.12421
      3.938     113.61    0.11533
      3.938     118.13    0.11176
      3.938     123.23      0.117
      3.938     127.77    0.12048
      3.938     132.89    0.15043
      3.938     137.43    0.15744
      3.938       142.    0.19622
      3.938     147.71    0.24381
      3.938     151.72    0.29142
      3.938     156.85    0.32489
      3.938     161.43    0.37779
      3.938     167.13    0.41479
      3.995     17.039    0.54592
      3.995      22.64     0.5279
      3.995     27.603    0.45391
      3.995     32.635    0.43142
      3.995     38.227    0.40667
      3.995     43.221    0.35507
      3.995     48.244    0.32586
      3.995     54.401    0.30334
      3.995     59.413    0.26518
      3.995     63.937    0.28299
      3.995     68.969     0.2605
      3.995     74.612    0.27381
      3.995     78.519    0.25134
      3.995     84.715    0.25793
      3.995     89.799    0.27349
      3.995      94.29    0.26668
      3.995     99.911    0.26432
      3.995     103.83    0.24857
      3.995     108.92    0.26861
      3.995     114.51    0.24834
      3.995     119.01    0.24377
      3.995     124.07    0.24142
      3.995     129.18    0.27937
      3.995     134.22    0.25911
      3.995     139.29    0.26796
      3.995     143.88    0.33727
      3.995     148.38    0.33717
      3.995     153.55    0.41542
      3.995     158.05    0.41532
      3.995      163.7    0.43311
      3.995     168.24    0.46436
      4.055     16.484    0.27516
      4.055     22.093    0.24822
      4.055     27.139    0.22256
      4.055     31.625    0.20075
      4.055     37.231    0.16997
      4.055     42.293    0.16867
      4.055     47.342    0.14686
      4.055     52.401    0.14171
      4.055     58.019    0.13016
      4.055     62.506    0.10963
      4.055     69.252     0.1032
      4.055     74.306  8.908E-02
      4.055     78.806  8.906E-02
      4.055      83.86  7.623E-02
      4.055      88.92  7.237E-02
      4.055     94.548  7.619E-02
      4.055     99.044  6.977E-02
      4.055     105.24  7.616E-02
      4.055     109.74  8.512E-02
      4.055     114.81  9.792E-02
      4.055     119.32    0.10688
      4.055     123.83    0.11969
      4.055     128.33    0.13121
      4.055     134.53    0.15042
      4.055     138.47    0.15169
      4.055     144.11    0.17731
      4.055     148.06     0.1914
      4.055     153.14    0.22344
      4.055     157.64    0.22727
      4.055      161.6    0.25674
      4.055     167.81     0.2939
      4.114     14.865     1.1201
      4.114     21.123     0.9625
      4.114     26.242    0.79884
      4.114     31.934    0.72002
      4.114     37.053    0.56848
      4.114     42.746    0.50784
      4.114      49.01    0.45932
      4.114     52.422    0.33809
      4.114     58.116    0.29563
      4.114     62.671    0.26531
      4.114     68.368    0.28346
      4.114     73.496    0.30767
      4.114     78.624    0.34401
      4.114     83.751    0.35004
      4.114     88.878    0.36213
      4.114     94.005     0.3621
      4.114     99.132    0.36207
      4.114     104.26    0.33174
      4.114     109.38    0.29535
      4.114     113.94    0.29533
      4.114     119.06    0.28924
      4.114     123.62    0.28315
      4.114     129.32    0.35585
      4.114     133.31    0.38007
      4.114     138.44    0.48913
      4.114     144.14     0.5497
      4.114      152.7    0.76784
      4.114     157.26    0.93145
      4.114     162.39    0.99808
      4.114     167.52     1.0829
      4.155     14.649    0.57736
      4.155     19.762    0.54792
      4.155     25.488     0.4388
      4.155     30.593    0.42117
      4.155     35.737     0.3386
      4.155     41.433    0.27965
      4.155     47.095    0.27679
      4.155     52.236    0.20013
      4.155     56.769    0.19135
      4.155     62.435    0.18259
      4.155      66.97    0.17085
      4.155     72.638    0.15914
      4.155     77.164    0.16216
      4.155     82.266    0.15044
      4.155     87.921    0.15939
      4.155     93.026    0.14176
      4.155     98.113    0.15365
      4.155     102.65    0.14782
      4.155     107.73    0.17152
      4.155     112.82    0.17751
      4.155     117.35    0.17463
      4.155     122.44    0.18062
      4.155      127.5    0.23088
      4.155     132.57    0.26639
      4.155     135.74    0.30493
      4.155     137.63    0.32256
      4.155     146.65    0.38765
      4.155     151.71    0.44972
      4.155     156.78    0.48818
      4.155     161.86    0.50893
      4.155      165.8    0.55622
      4.178     13.958    0.57445
      4.178     20.282    0.45726
      4.178      25.43    0.41362
      4.178     31.186    0.29183
      4.178     36.342     0.2321
      4.178     42.044    0.22065
      4.178     47.756    0.18851
      4.178     52.305    0.20464
      4.178     57.432    0.20238
      4.178     62.554    0.21162
      4.178     68.258    0.19557
      4.178     73.393    0.17952
      4.178     78.523    0.17267
      4.178     83.092    0.14742
      4.178     88.222    0.14056
      4.178     93.343     0.1521
      4.178     98.477    0.13834
      4.178      103.6    0.15448
      4.178     108.71    0.17061
      4.178     113.84    0.17985
      4.178     118.95    0.20058
      4.178     124.09    0.18223
      4.178     128.64    0.19606
      4.178     133.76    0.20759
      4.178     138.32    0.20533
      4.178     143.43    0.23985
      4.178     147.97    0.27437
      4.178     153.06    0.34797
      4.178     156.42    0.45605
      4.178     162.09    0.50667
      4.178     167.74    0.59866
      4.220     15.735     1.0202
      4.220     21.362    0.88924
      4.220     26.427    0.72412
      4.220     31.491    0.62733
      4.220     36.554    0.59317
      4.220      42.18    0.52485
      4.220     47.243    0.46792
      4.220     52.306    0.44515
      4.220     57.931    0.42239
      4.220     62.994    0.45086
      4.220     73.121    0.30853
      4.220     78.183    0.33701
      4.220     83.246    0.26299
      4.220     88.309    0.25161
      4.220      93.37    0.31995
      4.220     98.433    0.33704
      4.220     103.49    0.35413
      4.220     108.56    0.42246
      4.220     113.06    0.47371
      4.220     118.12    0.53066
      4.220     123.18     0.5022
      4.220     127.68      0.599
      4.220      133.3    0.66164
      4.220     138.36    0.71859
      4.220     142.86    0.72998
      4.220     147.36    0.74138
      4.220     152.43    0.83249
      4.220     156.92    0.98623
      4.220     161.42     1.1343
      4.220     167.61     1.2311
      4.250     16.085     1.2121
      4.250     21.776     1.1667
      4.250     26.896     1.1042
      4.250      32.58    0.99065
      4.250     37.124    0.87712
      4.250     43.381     0.8033
      4.250     47.926    0.69545
      4.250     53.619    0.66134
      4.250     58.722    0.45703
      4.250     64.412    0.39456
      4.250     68.396    0.37182
      4.250     73.513    0.28098
      4.250     79.208    0.27525
      4.250     84.339     0.3149
      4.250      89.47    0.34889
      4.250      93.46    0.37154
      4.250     99.164    0.44523
      4.250     103.72    0.45086
      4.250     109.42    0.47916
      4.250     113.99    0.55287
      4.250     118.54    0.54147
      4.250     123.67    0.57546
      4.250     128.79    0.49597
      4.250     133.92    0.53563
      4.250     137.91    0.58097
      4.250     143.61    0.60928
      4.250     147.61    0.67164
      4.250     152.74    0.74534
      4.250     157.89    0.92117
      4.250     161.89     1.0573
      4.250     168.17      1.165
      4.295     17.265     1.1341
      4.295     21.793    0.96995
      4.295     27.454    0.82344
      4.295     33.114    0.72381
      4.295     38.208    0.57729
      4.295     43.302    0.46008
      4.295     47.831    0.36631
      4.295     53.491    0.34287
      4.295     59.151    0.27254
      4.295     63.114    0.29012
      4.295     68.774    0.28426
      4.295     73.302     0.2784
      4.295     78.963    0.29012
      4.295     84.057     0.3077
      4.295     89.151    0.30184
      4.295     94.246     0.3077
      4.295     98.774     0.3077
      4.295     103.87    0.29598
      4.295     109.53    0.29598
      4.295     113.49    0.28426
      4.295     119.72    0.29598
      4.295     124.25     0.3077
      4.295     129.34    0.35458
      4.295      138.4    0.44249
      4.295     143.49    0.54212
      4.295     148.59    0.66519
      4.295     152.55    0.78826
      4.295     157.64    0.90547
      4.295     162.74     1.0227
      4.295      166.7     1.1106
      4.313     15.392    0.94974
      4.313     20.506     0.8412
      4.313     26.172    0.81238
      4.313     31.848     0.7256
      4.313     36.948    0.69677
      4.313       41.5    0.56647
      4.313     47.164     0.5449
      4.313     52.266    0.50158
      4.313      58.49    0.51626
      4.313     63.033    0.43668
      4.313     67.551    0.49479
      4.313     73.216    0.46598
      4.313     77.731    0.53858
      4.313     82.835    0.48801
      4.313     87.928     0.4954
      4.313     93.584    0.51731
      4.313     98.677    0.52471
      4.313     103.19    0.59731
      4.313     108.85    0.59024
      4.313     113.38    0.58313
      4.313     118.46    0.67748
      4.313     123.56    0.64865
      4.313     128.63    0.80098
      4.313     133.15     0.8156
      4.313     137.67    0.88096
      4.313     142.76    0.86662
      4.313     147.84    0.97546
      4.313     151.78     1.0698
      4.313     157.99     1.1787
      4.313     161.95      1.215
      4.313     167.02     1.3021
      4.343     11.026       2.65
      4.343     15.521     2.7015
      4.343     21.169     2.4325
      4.343     26.836     1.9328
      4.343     31.333     1.9714
      4.343     37.554     1.5743
      4.343     42.061     1.4976
      4.343     47.139     1.3055
      4.343     52.779     1.1391
      4.343     57.849     1.0495
      4.343     68.557    0.80642
      4.343     78.687    0.74277
      4.343     83.752    0.71735
      4.343     88.811    0.75603
      4.343     93.877    0.71779
      4.343     98.372    0.76927
      4.343     103.43    0.85924
      4.343     108.48    0.98766
      4.343     113.53     1.1417
      4.343     118.59     1.1932
      4.343     128.12     1.4885
      4.343     133.19     1.5016
      4.343     137.67     1.7453
      4.343     142.71      2.002
      4.343     147.76     2.0791
      4.343     152.81     2.2845
      4.343     157.29     2.5411
      4.343     161.77      2.772
      4.343     166.81     2.9774
      4.418     16.508     1.2631
      4.418     22.272     1.1627
      4.418     27.476     1.0232
      4.418      32.11    0.87249
      4.418     37.291    0.80561
      4.418     43.066    0.67171
      4.418      47.67    0.61598
      4.418     53.434     0.5156
      4.418     58.609    0.46547
      4.418     63.785    0.41535
      4.418     68.399    0.32611
      4.418     74.708    0.31512
      4.418     79.298    0.30409
      4.418     83.889    0.28747
      4.418     89.623    0.28206
      4.418     94.761    0.34925
      4.418     99.897    0.42204
      4.418     105.03    0.48923
      4.418     109.59    0.58434
      4.418     114.71    0.69623
      4.418     119.85    0.76342
      4.418     124.97    0.90324
      4.418     128.93      1.043
      4.418     134.66     1.0767
      4.418      139.2     1.1998
      4.418     144.32     1.3228
      4.418     148.86     1.4626
      4.418     154.55     1.6081
      4.418     157.97     1.6529
      4.418     163.66     1.7983
      4.418     169.36     1.8878
      4.477     17.283    0.70545
      4.477       21.8    0.62579
      4.477     25.759      0.528
      4.477     31.973    0.40487
      4.477     36.483    0.36143
      4.477     42.128    0.26728
      4.477      47.18    0.31805
      4.477     52.831    0.19854
      4.477       57.9     0.1696
      4.477       62.4    0.16964
      4.477     66.904    0.15156
      4.477     73.089    0.16249
      4.477     78.152    0.16253
      4.477     83.215    0.15896
      4.477     87.711    0.17711
      4.477     92.213    0.16991
      4.477     97.834    0.18807
      4.477     102.34    0.16275
      4.477     108.52    0.18092
      4.477     113.02    0.19908
      4.477     118.08    0.20637
      4.477      123.7    0.21729
      4.477      128.2    0.24632
      4.477     133.25    0.30433
      4.477     143.36    0.37689
      4.477     148.39    0.49287
      4.477     153.45    0.52915
      4.477     157.36    0.63063
      4.477     161.84    0.72849
      4.477     168.59     0.7358
      4.517     15.259    0.68402
      4.517     20.471    0.59941
      4.517     25.646    0.55151
      4.517      30.85    0.47537
      4.517      36.07    0.38228
      4.517     41.749    0.39937
      4.517     47.474    0.37126
      4.517     52.122    0.28099
      4.517     56.716    0.24438
      4.517     61.854     0.2332
      4.517     67.017    0.19661
      4.517     72.728    0.18263
      4.517     77.293    0.17427
      4.517     82.431     0.1631
      4.517      87.54    0.18017
      4.517     92.083    0.19441
      4.517     97.232    0.17194
      4.517     102.32    0.21444
      4.517     107.42    0.23999
      4.517     113.09    0.26273
      4.517      117.1     0.2374
      4.517     122.79    0.24602
      4.517     127.38    0.21224
      4.517     132.47    0.24626
      4.517     137.55    0.29441
      4.517     142.65    0.32561
      4.517      147.2    0.32855
      4.517     152.16    0.49251
      4.517     156.65    0.56042
      4.517     161.62    0.71026
      4.517     167.87    0.72737
      4.558      15.89    0.71516
      4.558      21.58    0.60564
      4.558     26.674    0.55259
      4.558      31.77    0.49622
      4.558     37.422    0.44982
      4.558      42.51    0.40674
      4.558     52.122    0.32388
      4.558     57.762    0.29742
      4.558      63.42    0.24106
      4.558     68.506     0.2013
      4.558     72.432    0.22131
      4.558      79.77    0.17827
      4.558     83.713    0.16839
      4.558      88.77    0.17846
      4.558     93.285    0.15197
      4.558     98.883     0.1986
      4.558     103.39    0.18873
      4.558       109.    0.21542
      4.558     114.61    0.23215
      4.558     119.67    0.24222
      4.558     124.71    0.27887
      4.558     134.25    0.30897
      4.558      137.6    0.35222
      4.558     143.76    0.39886
      4.558     148.24    0.43882
      4.558     152.12    0.53525
      4.558     157.69    0.62839
      4.558     162.72    0.67832
      4.558     168.87    0.75154
      4.590     15.657     1.1833
      4.590     21.411     0.9481
      4.590      27.15    0.86977
      4.590     31.757    0.64243
      4.590     37.499    0.54058
      4.590     42.665    0.46225
      4.590     47.828    0.42312
      4.590     53.557    0.46243
      4.590     58.715    0.47036
      4.590     63.293    0.56454
      4.590     69.017     0.6509
      4.590     74.744    0.72158
      4.590     79.327    0.75303
      4.590     84.474    0.88643
      4.590     89.627    0.94926
      4.590     94.784    0.98071
      4.590     99.947    0.94159
      4.590     105.11    0.94952
      4.590     109.69    0.92607
      4.590     114.86    0.81637
      4.590     120.02    0.81645
      4.590     124.61     0.7538
      4.590     129.21    0.67545
      4.590     134.36    0.68338
      4.590     138.95    0.68346
      4.590      144.1    0.75413
      4.590     149.26    0.80127
      4.590     153.82     1.0758
      4.590     158.96     1.3347
      4.590     163.53     1.5073
      4.590     168.68     1.5623
      4.613      18.23     1.2983
      4.613     22.787     1.0799
      4.613      27.32     1.0402
      4.613     33.576    0.80852
      4.613     38.107    0.78873
      4.613     42.664    0.56365
      4.613     48.329    0.53063
      4.613     54.566    0.44465
      4.613     59.656    0.47785
      4.613     64.183    0.48455
      4.613      69.28    0.46477
      4.613     74.371    0.49135
      4.613      79.46     0.5378
      4.613     84.552    0.55113
      4.613     89.642    0.59096
      4.613     94.735    0.59767
      4.613     99.257    0.65073
      4.613     104.36    0.61771
      4.613     109.46    0.57144
      4.613     114.55    0.55166
      4.613     119.65    0.51864
      4.613     124.18    0.49885
      4.613     129.84    0.50557
      4.613     134.94    0.49241
      4.613     138.33     0.5587
      4.613     143.98    0.63827
      4.613     149.05    0.76418
      4.613     154.13    0.88348
      4.613     158.07     1.0491
      4.613     162.59     1.1816
      4.613     167.67     1.2281
      4.658     15.248     1.6944
      4.658     19.759     1.5793
      4.658     26.519     1.3569
      4.658     31.603     1.2878
      4.658      37.24     1.1267
      4.658     42.325     1.0576
      4.658     47.975     0.9885
      4.658     53.051    0.86576
      4.658     58.141    0.83497
      4.658     63.221    0.73522
      4.658      68.31    0.69677
      4.658     73.389    0.59701
      4.658     78.477     0.5509
      4.658     83.014    0.61208
      4.658     87.537    0.57365
      4.658     94.325    0.54281
      4.658     98.288    0.55037
      4.658     104.52    0.59618
      4.658     109.05    0.62671
      4.658     111.31    0.58067
      4.658     114.15     0.6419
      4.658     118.68    0.67243
      4.658     124.34    0.66461
      4.658     128.31    0.71815
      4.658     132.86    0.84063
      4.658     138.53    0.87879
      4.658     143.64    0.98593
      4.658     148.17     1.0548
      4.658     152.72     1.1849
      4.658     157.27     1.3381
      4.658     163.54     1.5908
      4.658     166.92     1.4987
      4.680     21.379     1.4736
      4.680     27.129     1.1726
      4.680      31.15    0.98863
      4.680     36.313      0.788
      4.680     42.043    0.59575
      4.680     46.614    0.52062
      4.680     51.177    0.48732
      4.680     57.448    0.45409
      4.680     62.579    0.42919
      4.680       67.7    0.46286
      4.680     71.686    0.47138
      4.680     77.377    0.49671
      4.680     82.505    0.48854
      4.680     87.636    0.46364
      4.680     92.766     0.4471
      4.680     97.907    0.36362
      4.680     102.46     0.3889
      4.680     108.16    0.34728
      4.680     113.28    0.41442
      4.680     117.83    0.43971
      4.680     122.38    0.46499
      4.680     128.06    0.58236
      4.680     132.59    0.74153
      4.680      137.7    0.82541
      4.680     142.24    0.92601
      4.680     147.33     1.1019
      4.680     152.42     1.2862
      4.680     157.53     1.3869
      4.680     162.63     1.5377
      4.720     16.922     2.4823
      4.720     22.618     2.2271
      4.720      27.19     1.9051
      4.720     31.751      1.672
      4.720     37.423     1.5835
      4.720     43.122      1.306
      4.720     47.659     1.2396
      4.720      52.78      1.051
      4.720     58.446     1.0068
      4.720     62.999    0.82929
      4.720     68.655    0.86292
      4.720     73.753    0.82986
      4.720     78.288    0.78565
      4.720     83.956     0.7304
      4.720     89.052    0.71956
      4.720     94.149    0.69761
      4.720      99.24     0.7201
      4.720     104.33    0.76481
      4.720     109.42     0.7873
      4.720      114.5    0.86535
      4.720     119.03    0.91003
      4.720     124.13    0.85474
      4.720     129.21    0.95501
      4.720     133.74    0.94414
      4.720     138.25     1.0333
      4.720     141.64     1.1334
      4.720     143.31     1.3002
      4.720     148.42     1.2227
      4.720      153.5     1.3341
      4.720     158.01     1.4676
      4.720     163.09     1.5346
      4.720     168.74     1.6349
      4.740     17.089     2.0949
      4.740     23.354     1.9627
      4.740     27.342     1.8407
      4.740     33.038     2.0034
      4.740     38.734     1.7288
      4.740     43.291      1.739
      4.740     47.848     1.6068
      4.740     53.544     1.4847
      4.740     58.671     1.2305
      4.740     64.367     1.1797
      4.740     70.063     1.0068
      4.740      74.62    0.86441
      4.740     77.468    0.79322
      4.740     78.608    0.70169
      4.740     83.734    0.67119
      4.740      89.43    0.63051
      4.740     94.557    0.63051
      4.740     99.114    0.54915
      4.740     104.24    0.65085
      4.740     109.37    0.67119
      4.740     114.49    0.75254
      4.740     120.19    0.87458
      4.740     125.32     1.0373
      4.740      129.3     1.0169
      4.740     134.43     1.2203
      4.740     139.56      1.322
      4.740     144.11     1.5458
      4.740     148.67     1.5254
      4.740     154.37     1.8508
      4.740     159.49     1.7695
      4.740     164.05     1.8814
      4.740     169.18     2.0542
      4.795      23.69     4.6684
      4.795     28.724     4.4693
      4.795     33.753     4.5801
      4.795     39.347     4.3145
      4.795     44.387     3.6947
      4.795      49.98     3.4956
      4.795     54.458      3.075
      4.795     59.497     2.4995
      4.795     64.535     2.0568
      4.795     68.456     1.5255
      4.795     75.167     1.3264
      4.795     79.642     1.1273
      4.795     84.675    0.92813
      4.795     90.267    0.79541
      4.795      94.74    0.77337
      4.795     99.211    0.86204
      4.795      104.8     1.1943
      4.795     109.27     1.3715
      4.795     115.41     1.5709
      4.795     119.88     1.9252
      4.795      124.9      2.346
      4.795     129.38     2.2576
      4.795      134.4     2.4348
      4.795     139.44     2.4792
      4.795     144.46     2.6343
      4.795     148.94     2.7008
      4.795     154.52     3.1437
      4.795     163.47     2.7676
      4.815     16.543     2.9065
      4.815     21.156     2.6964
      4.815     26.335     2.5424
      4.815     31.506     2.4445
      4.815     36.692     2.2344
      4.815     41.862     2.1505
      4.815     47.623     1.9264
      4.815      52.81     1.7022
      4.815     57.985     1.5763
      4.815     63.157     1.4785
      4.815     68.342     1.2683
      4.815     73.505     1.2407
      4.815     79.255     1.1007
      4.815     84.427     1.0029
      4.815     89.009     1.0313
      4.815     94.167     1.0457
      4.815     99.328     1.0321
      4.815     103.91     1.1026
      4.815     108.48     1.2152
      4.815      114.2     1.2858
      4.815     119.35     1.3704
      4.815     124.49     1.5533
      4.815     129.63      1.694
      4.815     134.21     1.6803
      4.815     139.35     1.9053
      4.815     143.93     1.9337
      4.815     148.48     2.1726
      4.815     153.62     2.3555
      4.815     155.92     2.5247
      4.815     158.17     2.6365
      4.815     168.46     2.8899
      4.873     15.978     1.9308
      4.873     21.641     1.9031
      4.873     26.177     1.8054
      4.873     32.412     1.6939
      4.873     36.935      1.764
      4.873     42.598     1.7363
      4.873     47.706     1.5547
      4.873     51.099     1.5969
      4.873     53.366      1.569
      4.873     57.905     1.4294
      4.873     63.569     1.3877
      4.873      68.66     1.4299
      4.873     73.764     1.3042
      4.873     78.849     1.4164
      4.873     83.964     1.1649
      4.873     89.054     1.2211
      4.873     94.159     1.0815
      4.873     99.245     1.1936
      4.873     104.35       1.04
      4.873     109.44     1.1241
      4.873     113.97     1.0964
      4.873     119.06     1.0827
      4.873     124.16      1.027
      4.873     129.24      1.223
      4.873     133.77     1.2232
      4.873     138.29     1.3773
      4.873     143.37     1.4754
      4.873     147.88     1.7274
      4.873     152.97     1.7976
      4.873     157.47     2.1754
      4.873     162.55     2.2875
      4.873     168.77     2.3718
      4.890     17.213     2.5496
      4.890     23.053     2.2263
      4.890     28.308     1.9365
      4.890     32.391     1.7247
      4.890      38.18     1.5578
      4.890     43.934     1.4915
      4.890     48.557     1.3804
      4.890     54.327     1.2694
      4.890     58.924     1.2364
      4.890     64.656     1.2371
      4.890     69.287     1.1036
      4.890     75.008     1.1379
      4.890      79.62     1.0603
      4.890     85.345     1.0833
      4.890     89.942     1.0504
      4.890     95.127    0.97282
      4.890     99.732    0.91754
      4.890     105.48    0.87357
      4.890     110.07    0.86297
      4.890     115.24    0.84128
      4.890     119.81    0.87537
      4.890     125.52     0.9543
      4.890     130.07     1.0443
      4.890     134.61     1.1789
      4.890     139.71     1.3695
      4.890     144.22     1.5935
      4.890     148.71     1.8958
      4.890     153.78     2.1646
      4.890     158.29     2.3998
      4.890      163.9     2.7692
      4.890     168.96     3.0715
      4.995     15.393     3.6223
      4.995     21.629      3.128
      4.995     27.273     2.9306
      4.995     32.351     2.7728
      4.995     37.437     2.5358
      4.995     43.079     2.3583
      4.995     48.161     2.1609
      4.995     53.262     1.7655
      4.995     58.334     1.6671
      4.995     63.975     1.5094
      4.995     69.041     1.4704
      4.995     71.305      1.332
      4.995     74.125     1.2532
      4.995     78.627     1.2339
      4.995     84.828     1.0961
      4.995      89.32     1.1758
      4.995     94.376     1.2358
      4.995     99.437     1.2563
      4.995     104.49     1.3955
      4.995     108.98      1.495
      4.995     114.02     1.6541
      4.995     119.08     1.7537
      4.995     123.55     2.0117
      4.995     128.59     2.2301
      4.995     133.64     2.3495
      4.995     138.68     2.6274
      4.995     144.28     2.8657
      4.995     148.74     3.2425
      4.995     153.22      3.441
      4.995     157.69     3.7782
      4.995     163.84     4.1948
      4.995     167.76     4.3537
      5.050     17.973     3.1457
      5.050     21.958     3.1735
      5.050     28.273     2.5669
      5.050     33.419     2.3326
      5.050     39.128     2.1812
      5.050     44.276     1.9193
      5.050     48.843     1.7954
      5.050     54.543     1.7405
      5.050     59.109     1.6304
      5.050     64.231     1.6858
      5.050     68.793     1.6309
      5.050     74.493      1.576
      5.050     79.628     1.4797
      5.050     85.327     1.4386
      5.050      89.89     1.3698
      5.050     95.019     1.3425
      5.050     99.571     1.3979
      5.050     104.69     1.4809
      5.050     109.81     1.5777
      5.050     114.94     1.5365
      5.050     120.62     1.6885
      5.050     125.16     1.9094
      5.050     129.71     2.0476
      5.050     134.82      2.172
      5.050     139.94     2.2412
      5.050     144.49     2.3793
      5.050     149.61     2.4348
      5.050     154.14     2.7384
      5.050     158.69     2.8628
      5.050     163.79     3.1527
      5.050     169.49     3.1392
      5.088     15.115     2.6454
      5.088     20.821     2.5523
      5.088     26.015     1.8779
      5.088     31.735     1.6347
      5.088     36.307     1.4852
      5.088     42.002     1.5046
      5.088     47.724     1.2427
      5.088     52.847     1.2808
      5.088     57.992     1.0938
      5.088     63.132    0.96315
      5.088     67.687     0.9824
      5.088     73.395    0.87052
      5.088     78.517    0.90857
      5.088     83.644    0.90913
      5.088     88.784    0.77844
      5.088     93.907    0.81649
      5.088     99.022    0.92955
      5.088     104.16    0.79886
      5.088     108.71     0.8931
      5.088     113.84     0.8749
      5.088     118.39     0.9504
      5.088     124.06     1.2323
      5.088     128.05     1.1952
      5.088     133.73     1.2896
      5.088     138.85     1.3651
      5.088     143.39     1.5156
      5.088     147.93     1.7598
      5.088     153.03     1.9854
      5.088     158.12     2.3422
      5.088     163.23     2.5115
      5.088     168.33     2.7933
      5.140     16.695     4.7921
      5.140     21.896     3.8659
      5.140     27.064     3.6629
      5.140     31.669     3.2339
      5.140     37.407     3.1213
      5.140     42.602     2.3307
      5.140     48.319     2.6701
      5.140     50.627     2.3312
      5.140     52.934     2.0376
      5.140     58.088      2.151
      5.140     62.689     1.8123
      5.140     67.849     1.7901
      5.140     73.594     1.5193
      5.140     78.751     1.5649
      5.140     83.919     1.3844
      5.140     89.076       1.43
      5.140     93.667     1.3173
      5.140     98.825     1.3403
      5.140     103.42     1.2502
      5.140     109.15     1.2732
      5.140      114.3     1.3414
      5.140     118.89     1.2287
      5.140     124.05     1.2968
      5.140     128.64     1.3198
      5.140      133.8     1.2975
      5.140     138.95     1.4561
      5.140     143.53     1.4564
      5.140     148.69     1.5698
      5.140     153.26     1.8639
      5.140     157.27     1.9545
      5.140     162.98     2.4069
      5.140     167.57     2.4072
      5.205      16.26     4.9666
      5.205     21.335     3.8206
      5.205     26.402     3.3712
      5.205     31.468     3.0567
      5.205     36.534     2.7647
      5.205     42.163     2.3827
      5.205     47.788     2.3154
      5.205     52.294     1.8211
      5.205     57.358     1.6639
      5.205     62.982     1.6864
      5.205     67.483     1.6416
      5.205     73.107     1.7316
      5.205      78.17     1.6867
      5.205     83.795     1.7093
      5.205     88.296     1.6195
      5.205      93.36     1.4847
      5.205     98.422     1.5297
      5.205     103.49       1.35
      5.205     108.55     1.2827
      5.205     113.61     1.2379
      5.205     118.67     1.2379
      5.205     123.18     1.1931
      5.205      128.8     1.2156
      5.205      133.3     1.3056
      5.205     138.36     1.7327
      5.205     142.86     1.7103
      5.205     147.92      2.025
      5.205     152.41     2.4071
      5.205     157.47     3.1038
      5.205     162.53     3.3735
      5.205     168.14     4.0927
      5.230     16.499     4.1916
      5.230     22.182     3.7214
      5.230     26.742     3.0495
      5.230     32.407     2.9603
      5.230     37.529      2.378
      5.230     42.634     2.1543
      5.230     47.741     1.8858
      5.230     52.842     1.7517
      5.230     57.936     1.7521
      5.230     63.036     1.6404
      5.230      68.13     1.6408
      5.230     73.785     1.7533
      5.230      78.31     1.8208
      5.230     83.409     1.7316
      5.230     88.508     1.6199
      5.230     93.602     1.6427
      5.230     98.699     1.5759
      5.230     103.23      1.621
      5.230     108.89     1.4422
      5.230     113.42     1.5097
      5.230     118.52     1.4653
      5.230     123.04      1.488
      5.230      128.7     1.6453
      5.230     132.66     1.6232
      5.230     137.74     1.8477
      5.230     142.84     1.8929
      5.230     147.35     2.0949
      5.230     152.42     2.6107
      5.230     156.93     3.0368
      5.230     162.57     3.5078
      5.230     167.65     3.8443
      5.292     16.242     4.1289
      5.292     21.409     3.4742
      5.292     27.118     3.0286
      5.292     31.694     2.5968
      5.292     37.406     2.1373
      5.292     42.535      1.817
      5.292      47.64     1.7198
      5.292      52.75     1.5808
      5.292     57.838     1.6369
      5.292     62.932     1.6372
      5.292     68.028     1.6236
      5.292     73.675     1.7494
      5.292      78.76     1.8334
      5.292     84.423     1.8059
      5.292     88.942     1.8898
      5.292     94.048     1.7787
      5.292     99.698     1.8766
      5.292     104.25     1.6261
      5.292     109.35     1.6125
      5.292     114.45     1.5989
      5.292     118.97     1.5992
      5.292     124.07     1.5856
      5.292     128.59     1.6277
      5.292     133.68     1.6699
      5.292     138.19     1.8374
      5.292     143.82     2.0887
      5.292     148.34     2.1865
      5.292     152.84     2.4516
      5.292      157.9     2.7447
      5.292     162.97     2.9959
      5.292     167.47     3.2331
      5.392     17.647     5.5135
      5.392     22.788     4.8965
      5.392     27.356     4.2795
      5.392     32.497     3.6625
      5.392     37.643     3.2138
      5.392     43.364     2.8211
      5.392     48.515     2.5405
      5.392     53.092     2.2413
      5.392     58.819     2.0542
      5.392     63.971     1.8111
      5.392     69.125     1.6427
      5.392     73.707      1.493
      5.392     79.437     1.4181
      5.392     84.017     1.2123
      5.392     89.173     1.1187
      5.392      94.33     1.0438
      5.392      99.49     1.0436
      5.392     104.65     1.0435
      5.392     109.81     1.1554
      5.392      114.4     1.2301
      5.392     120.14     1.4355
      5.392     124.73     1.6783
      5.392     129.33     1.9773
      5.392     134.49     2.1827
      5.392     139.66     2.6498
      5.392     144.83     2.9487
      5.392     148.85      3.229
      5.392     158.63     4.1633
      5.392      163.8     4.6117
      5.392     168.96     4.8171
      5.403     15.394     4.7889
      5.403     21.054     4.3133
      5.403     25.579     3.9716
      5.403     31.232     3.6001
      5.403     36.313     3.3476
      5.403     41.963     3.0208
      5.403     47.041     2.8128
      5.403     52.125     2.5157
      5.403     57.761     2.3673
      5.403     62.285     2.0553
      5.403     67.357     1.9217
      5.403     72.998     1.7138
      5.403      77.51     1.5505
      5.403     83.145      1.417
      5.403     88.222     1.2239
      5.403     92.722     1.2242
      5.403     98.345     1.2542
      5.403     102.84     1.2842
      5.403     108.47     1.2696
      5.403     112.96     1.4185
      5.403       118.     1.7013
      5.403     123.04     1.9246
      5.403     128.08     2.2371
      5.403     132.57     2.4455
      5.403     137.03     2.9365
      5.403     142.65      3.026
      5.403     147.68     3.4426
      5.403      152.7     3.9931
      5.403     156.62     4.2163
      5.403     162.23      4.514
      5.403      166.7     4.8414
ENDDATA           1471
ENDSUBENT         1485
ENDENTRY             4
