ENTRY            F1010   20160423   20160902   20160701       F062
SUBENT        F1010001   20160423   20160902   20160701       F062
BIB                  9         17
TITLE      The threshold anomaly in the elastic scattering of
           protons by nuclei with A~30.
AUTHOR     (M.Cenja,M.Duma,K.Hategan,M.Tanase,A.S.Deineko,
           I.Ya.Malakhov,V.E.Storizhko,N.A.Shlyakhov)
INSTITUTE  (4UKRKFT,3RUMCIP)
REFERENCE  (J,IZV,47,2143,1983)
           (J,BAS,47,(11),58,1983) Engl.trans.of IZV,47,2143,1983
REL-REF    (O,F0950001,M.Cenja+,J,NP/A,307,65,1978) Similar
           experiments with 23Na, 27Al, 31P, 35Cl and 34S targets
FACILITY   (VDGT,3RUMCIP)
SAMPLE     29Si target.
DETECTOR   No information
HISTORY    (20090414C)
           (20160423U) SD: Ref. BAS,47,(11),58 was added. Title
           and authors were corrected following BAS,47,(11),58.
           One ref. moved to REL-REF. Accuracy of data
           presentation update.
ENDBIB              17
COMMON               2          3
EN-ERR-DIG ERR-DIG
MEV        ARB-UNITS
 0.015      0.25
ENDCOMMON            3
ENDSUBENT           24
SUBENT        F1010002   20160423   20160902   20160701       F062
BIB                  3          3
REACTION   (14-SI-29(P,EL)14-SI-29,,DA,,REL)
STATUS     (CURVE) Fig.2 of IZV,47,2143,1983
HISTORY    (20160423A) SD: Accuracy of data presentation update.
ENDBIB               3
NOCOMMON             0          0
DATA                 3        509
ANG        EN         DATA
ADEG       MEV        ARB-UNITS
       140.      4.497      13.26
       140.      4.508      12.63
       140.      4.519      12.06
       140.      4.524      11.55
       140.      4.545      10.99
       140.      4.570      11.24
       140.      4.590      11.56
       140.      4.611      11.94
       140.      4.636      11.76
       140.      4.672      11.76
       140.      4.697      11.83
       140.      4.717      12.21
       140.      4.743      12.53
       140.      4.763      12.21
       140.      4.774      11.77
       140.      4.789      11.39
       140.      4.805      11.02
       140.      4.826      10.64
       140.      4.846      10.20
       140.      4.877      10.39
       140.      4.897      10.46
       140.      4.928      10.21
       140.      4.958      10.78
       140.      4.978      11.23
       140.      5.003      11.55
       140.      5.018      12.18
       140.      5.023      12.75
       140.      5.024      13.19
       140.      5.027      13.70
       140.      5.037      14.02
       140.      5.058      13.89
       140.      5.094      13.65
       140.      5.108      14.22
       140.      5.113      14.66
       140.      5.123      15.23
       140.      5.128      15.74
       140.      5.137      16.25
       140.      5.158      16.06
       140.      5.184      15.62
       140.      5.209      15.94
       140.      5.239      16.38
       140.      5.265      16.01
       140.      5.291      15.57
       140.      5.316      15.82
       140.      5.347      16.14
       140.      5.367      15.77
       140.      5.383      15.58
       140.      5.398      15.26
       140.      5.418      15.65
       140.      5.444      15.97
       140.      5.469      15.65
       140.      5.490      15.27
       140.      5.496      14.52
       140.      5.496      13.63
       140.      5.502      12.87
       140.      5.508      12.11
       140.      5.508      11.42
       140.      5.514      10.91
       140.      5.519      10.15
       140.      5.525       9.65
       140.      5.530       9.27
       140.      5.541       9.02
       140.      5.561       8.76
       140.      5.581       9.08
       140.      5.586       9.84
       140.      5.590      10.48
       140.      5.600      11.11
       140.      5.604      11.62
       140.      5.610      12.12
       140.      5.625      12.57
       140.      5.645      12.95
       140.      5.649      13.46
       140.      5.664      13.97
       140.      5.689      14.60
       140.      5.705      14.16
       140.      5.726      13.91
       140.      5.751      14.10
       140.      5.771      14.11
       140.      5.781      14.49
       140.      5.791      14.87
       140.      5.812      14.62
       140.      5.817      14.36
       140.      5.818      13.67
       140.      5.833      13.29
       140.      5.834      12.72
       140.      5.839      12.22
       140.      5.860      11.77
       140.      5.875      11.78
       140.      5.900      12.10
       140.      5.916      11.72
       140.      5.916      11.34
       140.      5.922      10.83
       140.      5.932      10.58
       140.      5.947      10.71
       140.      5.957      11.15
       140.      5.962      11.53
       140.      5.967      12.04
       140.      5.982      11.60
       140.      5.988      11.03
       140.      5.998      10.59
       140.      6.009      10.15
       140.      6.009       9.64
       140.      6.035       9.52
       140.      6.045      10.09
       140.      6.049      10.41
       140.      6.054      10.98
       140.      6.058      11.61
       140.      6.058      12.05
       140.      6.065      12.81
       140.      6.068      13.19
       140.      6.068      12.43
       140.      6.079      11.74
       140.      6.085      11.17
       140.      6.090      10.66
       140.      6.096      10.03
       140.      6.101       9.52
       140.      6.102       8.89
       140.      6.102       8.32
       140.      6.104       7.75
       140.      6.105       7.12
       140.      6.109       6.55
       140.      6.114       5.79
       140.      6.120       5.29
       140.      6.120       4.72
       140.      6.126       4.02
       140.      6.141       4.59
       140.      6.145       5.16
       140.      6.150       5.73
       140.      6.160       6.05
       140.      6.181       5.55
       140.      6.207       5.17
       140.      6.227       5.62
       140.      6.236       6.25
       140.      6.240       6.88
       140.      6.240       7.83
       140.      6.245       8.28
       140.      6.255       8.91
       140.      6.270       9.29
       140.      6.290       9.10
       140.      6.311       8.73
       140.      6.332       8.29
       140.      6.352       8.54
       140.      6.367       8.80
       140.      6.393       8.29
       140.      6.393       7.85
       140.      6.409       7.28
       140.      6.409       6.84
       140.      6.415       6.33
       140.      6.440       6.27
       140.      6.455       6.59
       140.      6.470       6.91
       140.      6.475       7.42
       140.      6.478       7.92
       140.      6.479       8.49
       140.      6.484       9.13
       140.      6.499       8.69
       140.      6.515       8.25
       140.      6.526       7.87
       140.      6.526       7.30
       140.      6.542       6.92
       140.      6.547       6.41
       140.      6.568       5.91
       140.      6.584       5.47
       140.      6.594       4.90
       140.      6.614       5.03
       140.      6.650       5.16
       140.      6.666       4.97
       140.      6.696       4.66
       140.      6.701       5.48
       140.      6.711       6.05
       140.      6.715       6.50
       140.      6.725       7.13
       140.      6.728       7.70
       140.      6.735       8.02
       140.      6.745       7.39
       140.      6.756       6.82
       140.      6.761       6.31
       140.      6.767       5.87
       140.      6.772       5.36
       140.      6.783       4.99
       140.      6.783       4.67
       140.      6.783       4.23
       140.      6.789       3.85
       140.      6.799       4.36
       140.      6.819       4.74
       140.      6.829       5.12
       140.      6.843       5.75
       140.      6.854       5.37
       140.      6.874       5.06
       140.      6.885       4.81
       140.      6.905       5.19
       140.      6.925       5.57
       140.      6.940       5.76
       140.      6.961       5.70
       140.      6.981       5.58
       140.      6.986       6.09
       140.      7.001       6.78
       140.      7.005       7.29
       140.      7.010       7.86
       140.      7.025       8.18
       140.      7.045       8.31
       140.      7.071       8.56
       140.      7.085       9.14
       140.      7.090       9.52
       140.      7.102      10.09
       140.      7.105      10.53
       140.      7.120      11.10
       140.      7.150      11.04
       140.      7.176      10.92
       140.      7.191      10.60
       140.      7.207      10.23
       140.      7.217       9.85
       140.      7.223       9.47
       140.      7.233       9.03
       140.      7.234       8.58
       140.      7.234       8.14
       140.      7.240       7.57
       140.      7.255       6.94
       140.      7.256       6.50
       140.      7.277       5.99
       140.      7.302       5.74
       140.      7.323       5.43
       140.      7.338       5.12
       140.      7.348       5.56
       140.      7.363       5.81
       140.      7.378       6.07
       140.      7.394       5.63
       140.      7.402       5.06
       140.      7.405       4.55
       140.      7.421       4.24
       140.      7.431       3.86
       140.      7.441       3.67
       140.      7.462       3.99
       140.      7.482       4.50
       160.      4.488      18.36
       160.      4.509      17.35
       160.      4.530      15.84
       160.      4.556      14.83
       160.      4.588      13.70
       160.      4.629      12.82
       160.      4.685      12.84
       160.      4.710      14.11
       160.      4.725      15.51
       160.      4.740      16.52
       160.      4.766      15.64
       160.      4.792      14.76
       160.      4.812      16.03
       160.      4.837      17.18
       160.      4.847      18.57
       160.      4.862      19.59
       160.      4.872      20.60
       160.      4.886      22.13
       160.      4.912      21.12
       160.      4.928      20.24
       160.      4.944      19.61
       160.      4.964      20.24
       160.      4.984      21.14
       160.      5.020      21.27
       160.      5.051      21.15
       160.      5.087      21.29
       160.      5.102      22.17
       160.      5.111      23.32
       160.      5.126      24.08
       160.      5.142      24.84
       160.      5.167      24.47
       160.      5.193      24.09
       160.      5.214      23.59
       160.      5.234      23.22
       160.      5.260      23.86
       160.      5.300      24.50
       160.      5.320      25.90
       160.      5.330      26.91
       160.      5.345      28.18
       160.      5.361      27.17
       160.      5.371      26.54
       160.      5.392      25.53
       160.      5.402      26.80
       160.      5.412      28.20
       160.      5.416      29.46
       160.      5.419      30.48
       160.      5.426      31.36
       160.      5.431      32.00
       160.      5.431      33.26
       160.      5.440      33.90
       160.      5.445      34.79
       160.      5.450      35.42
       160.      5.460      36.06
       160.      5.480      36.31
       160.      5.491      35.68
       160.      5.493      34.04
       160.      5.497      32.52
       160.      5.508      31.51
       160.      5.513      29.61
       160.      5.514      28.47
       160.      5.520      27.46
       160.      5.520      26.20
       160.      5.521      24.55
       160.      5.526      22.91
       160.      5.537      21.77
       160.      5.548      20.76
       160.      5.558      19.37
       160.      5.584      19.37
       160.      5.587      20.26
       160.      5.588      21.40
       160.      5.593      22.29
       160.      5.598      23.55
       160.      5.603      24.32
       160.      5.607      25.33
       160.      5.612      26.22
       160.      5.633      26.35
       160.      5.648      27.11
       160.      5.657      28.25
       160.      5.668      27.62
       160.      5.683      27.25
       160.      5.694      26.49
       160.      5.694      25.48
       160.      5.695      24.46
       160.      5.711      23.07
       160.      5.711      21.81
       160.      5.717      20.92
       160.      5.737      20.80
       160.      5.752      21.82
       160.      5.767      22.71
       160.      5.777      23.34
       160.      5.792      24.11
       160.      5.803      23.10
       160.      5.808      22.08
       160.      5.814      20.95
       160.      5.819      20.06
       160.      5.825      18.80
       160.      5.825      17.66
       160.      5.831      16.52
       160.      5.841      15.51
       160.      5.857      16.27
       160.      5.867      16.91
       160.      5.887      17.29
       160.      5.908      17.04
       160.      5.913      15.91
       160.      5.919      14.77
       160.      5.919      13.75
       160.      5.930      12.36
       160.      5.934      13.50
       160.      5.939      14.52
       160.      5.942      15.66
       160.      5.944      16.67
       160.      5.946      17.68
       160.      5.949      18.57
       160.      5.953      19.84
       160.      5.962      20.98
       160.      5.967      22.12
       160.      5.972      22.88
       160.      5.982      23.90
       160.      5.982      22.76
       160.      5.988      22.13
       160.      5.993      21.37
       160.      6.004      20.23
       160.      6.009      19.09
       160.      6.015      18.21
       160.      6.020      17.20
       160.      6.031      15.93
       160.      6.041      15.30
       160.      6.051      16.44
       160.      6.056      17.33
       160.      6.066      17.97
       160.      6.076      18.73
       160.      6.076      17.46
       160.      6.087      16.45
       160.      6.092      15.44
       160.      6.098      14.30
       160.      6.098      13.29
       160.      6.103      12.28
       160.      6.103      11.27
       160.      6.105      10.25
       160.      6.115       8.86
       160.      6.121       7.72
       160.      6.127       6.59
       160.      6.132       5.70
       160.      6.152       6.59
       160.      6.167       7.35
       160.      6.171       8.62
       160.      6.171       9.76
       160.      6.181      10.90
       160.      6.217      10.78
       160.      6.222      12.05
       160.      6.232      13.45
       160.      6.236      14.21
       160.      6.246      15.48
       160.      6.257      14.59
       160.      6.278      13.71
       160.      6.283      12.95
       160.      6.283      11.94
       160.      6.289      11.05
       160.      6.294      10.55
       160.      6.315      10.17
       160.      6.319      11.57
       160.      6.329      12.58
       160.      6.334      13.72
       160.      6.336      14.74
       160.      6.343      15.88
       160.      6.353      16.77
       160.      6.356      17.53
       160.      6.358      18.29
       160.      6.363      19.17
       160.      6.372      21.07
       160.      6.378      19.81
       160.      6.383      18.80
       160.      6.394      17.91
       160.      6.394      16.52
       160.      6.395      15.13
       160.      6.400      14.12
       160.      6.411      12.85
       160.      6.412      11.34
       160.      6.422      10.71
       160.      6.443       9.82
       160.      6.453      11.09
       160.      6.457      12.36
       160.      6.472      13.38
       160.      6.477      14.26
       160.      6.487      14.90
       160.      6.492      16.04
       160.      6.512      15.92
       160.      6.543      15.16
       160.      6.569      15.42
       160.      6.605      15.56
       160.      6.615      14.29
       160.      6.631      13.29
       160.      6.647      12.53
       160.      6.652      11.39
       160.      6.658      10.51
       160.      6.668       9.50
       160.      6.674       8.99
       160.      6.689       8.11
       160.      6.694       9.37
       160.      6.702      10.26
       160.      6.709      11.28
       160.      6.718      12.29
       160.      6.723      13.31
       160.      6.733      14.19
       160.      6.738      14.96
       160.      6.748      15.72
       160.      6.764      14.71
       160.      6.764      13.70
       160.      6.770      12.56
       160.      6.775      11.93
       160.      6.780      10.91
       160.      6.781      10.15
       160.      6.791       9.40
       160.      6.792       8.51
       160.      6.797       8.01
       160.      6.802       8.90
       160.      6.812       9.91
       160.      6.822      10.54
       160.      6.826      11.18
       160.      6.831      11.69
       160.      6.841      12.32
       160.      6.862      11.95
       160.      6.872      11.44
       160.      6.893      10.56
       160.      6.924      11.07
       160.      6.944      11.58
       160.      6.970      11.97
       160.      7.000      12.99
       160.      7.007      14.01
       160.      7.009      14.89
       160.      7.014      15.53
       160.      7.024      16.54
       160.      7.039      17.94
       160.      7.054      18.83
       160.      7.069      19.84
       160.      7.084      20.48
       160.      7.099      20.99
       160.      7.109      22.13
       160.      7.119      23.15
       160.      7.129      23.91
       160.      7.134      24.67
       160.      7.154      25.43
       160.      7.165      24.55
       160.      7.185      24.17
       160.      7.201      23.54
       160.      7.221      23.17
       160.      7.237      22.67
       160.      7.237      21.65
       160.      7.243      20.64
       160.      7.248      19.25
       160.      7.249      18.24
       160.      7.254      16.85
       160.      7.260      15.71
       160.      7.271      14.32
       160.      7.276      13.18
       160.      7.277      11.91
       160.      7.293      10.65
       160.      7.294       9.77
       160.      7.296       8.63
       160.      7.309       8.12
       160.      7.335       7.88
       160.      7.350       9.02
       160.      7.360       9.78
       160.      7.369      10.80
       160.      7.379      11.69
       160.      7.384      12.32
       160.      7.399      13.59
       160.      7.405      11.82
       160.      7.410      10.55
       160.      7.416       9.54
       160.      7.427       8.53
       160.      7.437       7.27
       160.      7.463       7.78
       160.      7.468       8.29
       160.      7.488       9.05
ENDDATA            511
ENDSUBENT          519
ENDENTRY             2
