ENTRY            F1053   20100210   20100518   20100518       F038
SUBENT        F1053001   20100210   20100518   20100518       F038
BIB                  8         16
TITLE      Reaction mechanism of the O-16 + d reactions.
AUTHOR     (N.E.Davison,W.K.Dawson,G.Roy,W.J.McDonald)
INSTITUTE  (1CANALA)
REFERENCE  (J,CJP,48,2235,1970)
FACILITY   (VDG)
SAMPLE     The target had a uniform concentration of oxygen to a
           depth corresponding to an energy loss of about 230
           keV for 5.00 MeV deuterons. Beyond this depth, the
           concentration of oxygen decreased rapidly.
MONITOR    (8-O-16(P,EL)8-O-16,,DA)
           In order to obtain the absolute normalization for the
           charged particle reactions, the elastic scattering of
           2.0 MeV protons was measured used the same target as
           was used in the case of the 6.00 MeV angular
           distribution.
HISTORY    (20100210C)
ENDBIB              16
NOCOMMON             0          0
ENDSUBENT           19
SUBENT        F1053002   20100210   20100518   20100518       F038
BIB                  7         14
REACTION   (8-O-16(D,N)9-F-17,PAR,DA,,REL)
COMMENT    No explanation of relative units is given.
METHOD     (TOF)
SAMPLE     The thin target consisted of a layer of tantalum oxide
            (Ta2O5) deposited on a tantalum foil 0.08 cm thick.
CORRECTION Corrections for the detector efficiency, dead time in
           the detection system, and for neutron scattered in the
           target backing were applied, and the spectra were
           normalized using the count in a monitor detector.
ERR-ANALYS (ERR-SYS,,3.) Systematic error
           (EN-ERR-DIG)  Energy digitizing error
           (ERR-DIG)     Data digitizing error
           (DATA-ERR)    Error from the graphic bars
STATUS     (CURVE) Fig.3(a-d)
ENDBIB              14
COMMON               2          3
EN-ERR-DIG ERR-DIG
MEV        ARB-UNITS
 0.0006     0.0141
ENDCOMMON            3
DATA                 5         41
E-LVL      ANG        EN         DATA       DATA-ERR
MEV        ADEG       MEV        ARB-UNITS  ARB-UNITS
         0.        30.     5.8014      18.96    0.59661
         0.        30.     5.8212     18.407    0.42033
         0.        30.     5.8407      16.89    0.42034
         0.        30.      5.881     16.081    0.32542
         0.        30.     5.9008     14.822     0.3661
         0.        30.     5.9216     14.865    0.31186
         0.        30.     5.9414     14.609    0.27118
         0.        30.      5.961     15.913    0.33898
         0.        30.     5.9806     14.898    0.33898
         0.        30.     6.0007     14.629     0.2983
         0.       140.     5.7996     12.139    0.51724
         0.       140.     5.8204     13.347    0.58621
         0.       140.     5.8405     12.521    0.68963
         0.       140.     5.8599     12.419    0.58621
         0.       140.     5.8803     11.696    0.55172
         0.       140.     5.9008     10.629    0.44828
         0.       140.     5.9209     10.458    0.48276
         0.       140.      5.941     10.666    0.72414
         0.       140.     5.9604     10.185    0.55172
         0.       140.     5.9805     10.325    0.62069
         0.       140.         6.     11.154    0.65517
        0.5        30.     5.8005      16.32    0.75949
        0.5        30.      5.841     16.907    0.74262
        0.5        30.      5.881     17.815    0.62447
        0.5        30.     5.9015     17.839    0.57384
        0.5        30.     5.9213     17.035    0.65823
        0.5        30.     5.9418     16.468    0.67511
        0.5        30.     5.9618     17.386    0.62447
        0.5        30.     5.9811     18.979    0.70886
        0.5        30.      6.002     17.551    0.62447
        0.5       140.     5.8001     9.1276    0.44631
        0.5       140.     5.8198     9.6498    0.48064
        0.5       140.     5.8401     8.5069    0.46348
        0.5       140.     5.8605     8.4285    0.51498
        0.5       140.     5.8807     7.7834    0.46348
        0.5       140.     5.9003      6.915    0.39481
        0.5       140.     5.9209      5.326    0.41198
        0.5       140.     5.9411     6.9298    0.42903
        0.5       140.     5.9606     6.8681    0.29182
        0.5       140.      5.981     6.9957    0.39481
        0.5       140.     6.0007     7.0028    0.41198
ENDDATA             43
ENDSUBENT           66
SUBENT        F1053003   20100210   20100518   20100518       F038
BIB                  7         18
REACTION   (8-O-16(D,N)9-F-17,PAR,DA,,REL)
COMMENT    No explanation of relative units is given.
METHOD     (TOF)
           (TTM)
SAMPLE     Thick oxygen targets prepared by heating a 0.08 cm
           thick molybdenum foil in air. The thickness of the
           resulting layer of molybdenum oxide (MoO2) was
           determined in the subsequent computer analysis of the
           experimental data.
CORRECTION Corrections for the detector efficiency, dead time in
           the detection system, and for neutron scattered in the
           target backing were applied, and the spectra were
           normalized using the count in a monitor detector.
ERR-ANALYS (ERR-SYS,,3.) Systematic error
           (EN-ERR-DIG) Energy digitizing error
           (ERR-DIG)    Data digitizing error
           (DATA-ERR)   Error from the graphic bars
STATUS     (CURVE) Fig.3(a-d)
ENDBIB              18
COMMON               2          3
EN-ERR-DIG ERR-DIG
MEV        ARB-UNITS
 0.0006     0.0141
ENDCOMMON            3
DATA                 5        141
E-LVL      ANG        EN         DATA       DATA-ERR
MEV        ADEG       MEV        ARB-UNITS  ARB-UNITS
         0.        30.     5.7993      18.73    0.35256
         0.        30.      5.805      18.71    0.34576
         0.        30.     5.8118     18.663      0.339
         0.        30.     5.8176     18.569    0.33898
         0.        30.     5.8258     18.373    0.34583
         0.        30.     5.8301     18.225    0.35939
         0.        30.     5.8354     18.001    0.39329
         0.        30.       5.84     17.778    0.41363
         0.        30.     5.8446     17.555    0.42037
         0.        30.     5.8484     17.332    0.41361
         0.        30.     5.8516     17.122    0.40685
         0.        30.     5.8549     16.912    0.38651
         0.        30.     5.8582     16.689    0.37973
         0.        30.     5.8618     16.465    0.37295
         0.        30.     5.8648     16.269    0.36617
         0.        30.     5.8688     16.039    0.37973
         0.        30.     5.8727     15.829    0.35939
         0.        30.     5.8774     15.592    0.37973
         0.        30.     5.8823     15.383    0.35939
         0.        30.     5.8879     15.166    0.35935
         0.        30.     5.8929     14.991    0.35935
         0.        30.     5.8985     14.849    0.35254
         0.        30.     5.9046     14.768    0.33896
         0.        30.      5.911     14.755    0.32542
         0.        30.     5.9183      14.79    0.30512
         0.        30.     5.9259     14.858    0.29152
         0.        30.     5.9331     14.934    0.27118
         0.        30.     5.9395     15.009    0.26442
         0.        30.     5.9471     15.064    0.27795
         0.        30.      5.954     15.044    0.32544
         0.        30.       5.96     14.964    0.35256
         0.        30.     5.9669      14.91    0.32544
         0.        30.     5.9731     14.891     0.3051
         0.        30.     5.9796     14.891    0.27796
         0.        30.     5.9863     14.885     0.2712
         0.        30.     5.9931     14.893    0.27796
         0.        30.     5.9982       14.9    0.28476
         0.        30.     6.0039     14.901    0.28474
         0.       140.     5.7974     11.552    0.55172
         0.       140.     5.8038     11.776    0.53448
         0.       140.     5.8092     11.948    0.53448
         0.       140.      5.813     12.069    0.55172
         0.       140.     5.8185     12.241    0.55172
         0.       140.     5.8254     12.379    0.51724
         0.       140.      5.831     12.466        0.5
         0.       140.     5.8381     12.569    0.53448
         0.       140.     5.8448     12.638    0.53448
         0.       140.     5.8499     12.672    0.53448
         0.       140.     5.8563     12.655    0.55172
         0.       140.     5.8611     12.586    0.58621
         0.       140.     5.8664     12.534    0.56897
         0.       140.     5.8735     12.379    0.55172
         0.       140.     5.8802     12.103    0.58621
         0.       140.     5.8867      11.81    0.60345
         0.       140.     5.8924     11.534    0.60345
         0.       140.     5.8985     11.259    0.60345
         0.       140.     5.9049     10.983    0.60345
         0.       140.     5.9114     10.759    0.58621
         0.       140.      5.917     10.603    0.56897
         0.       140.     5.9232     10.534    0.53448
         0.       140.     5.9298     10.483    0.55172
         0.       140.     5.9364     10.466    0.56897
         0.       140.     5.9455     10.431    0.56897
         0.       140.     5.9522     10.414    0.55172
         0.       140.      5.959     10.379    0.55172
         0.       140.     5.9657     10.345    0.55172
         0.       140.      5.973      10.31    0.55172
         0.       140.     5.9796      10.31    0.51724
         0.       140.     5.9839     10.276    0.55172
         0.       140.     5.9898     10.207    0.55172
         0.       140.     5.9951     10.172    0.55172
         0.       140.     5.9988     10.155    0.56897
         0.       140.      6.004     10.121    0.56897
        0.5        30.     5.7959     15.282    0.49985
        0.5        30.     5.8015     15.428    0.50833
        0.5        30.     5.8072       15.6    0.49144
        0.5        30.     5.8126     15.746    0.49985
        0.5        30.     5.8177     15.909    0.49144
        0.5        30.     5.8234     16.064    0.47443
        0.5        30.     5.8287     16.193    0.48304
        0.5        30.     5.8343     16.348     0.4829
        0.5        30.     5.8405     16.503    0.48304
        0.5        30.     5.8468     16.667    0.47443
        0.5        30.     5.8518     16.796    0.48297
        0.5        30.     5.8587      16.96    0.47436
        0.5        30.     5.8645     17.114    0.47456
        0.5        30.      5.871     17.244    0.46595
        0.5        30.      5.877     17.382    0.46609
        0.5        30.      5.887     17.573    0.46615
        0.5        30.     5.8944     17.686    0.45761
        0.5        30.     5.9011     17.782    0.46615
        0.5        30.      5.906     17.851    0.46615
        0.5        30.     5.9126      17.93    0.45768
        0.5        30.     5.9199     17.976    0.44907
        0.5        30.      5.926     18.029    0.43219
        0.5        30.     5.9324      18.04    0.42365
        0.5        30.     5.9383     18.059    0.40683
        0.5        30.     5.9444     18.062    0.40677
        0.5        30.     5.9508     18.064    0.38962
        0.5        30.     5.9561     18.066    0.38975
        0.5        30.     5.9609     18.068    0.38982
        0.5        30.     5.9678     18.054    0.38982
        0.5        30.     5.9741     18.057    0.38982
        0.5        30.      5.979      18.05    0.39829
        0.5        30.     5.9846     18.036    0.38134
        0.5        30.     5.9922     18.022    0.38134
        0.5        30.     5.9984     18.024    0.38134
        0.5        30.     6.0042     18.018    0.38975
        0.5        30.     6.0064      18.01    0.38134
        0.5       140.     5.7984     8.7322    0.36042
        0.5       140.     5.8048      8.786    0.36048
        0.5       140.     5.8104     8.8223     0.3606
        0.5       140.     5.8176     8.8593    0.34344
        0.5       140.     5.8247     8.9134    0.36042
        0.5       140.     5.8314     8.9587     0.3519
        0.5       140.     5.8374     8.9866    0.36048
        0.5       140.     5.8433     9.0059    0.34332
        0.5       140.     5.8492     8.9909    0.34332
        0.5       140.     5.8555     8.9331    0.33473
        0.5       140.     5.8623     8.7553    0.41192
        0.5       140.     5.8687     8.5516    0.48064
        0.5       140.     5.8747      8.322    0.52356
        0.5       140.     5.8797     8.1264    0.51498
        0.5       140.     5.8856     7.9054    0.49781
        0.5       140.     5.8912     7.7272    0.47206
        0.5       140.     5.8972     7.5834    0.39481
        0.5       140.     5.9038     7.4914     0.3519
        0.5       140.     5.9101     7.4336    0.32615
        0.5       140.     5.9163     7.4187    0.32615
        0.5       140.     5.9229     7.3953    0.31757
        0.5       140.     5.9295     7.3462    0.33473
        0.5       140.     5.9361     7.2456    0.36907
        0.5       140.     5.9427     7.1106    0.38623
        0.5       140.     5.9493     6.9928    0.36907
        0.5       140.     5.9574     6.9357    0.32609
        0.5       140.      5.964     6.9466    0.31751
        0.5       140.     5.9708     6.9491    0.31757
        0.5       140.      5.978     6.9774    0.32615
        0.5       140.     5.9864     7.0062    0.31751
        0.5       140.     5.9948     7.0264    0.33473
        0.5       140.      6.005     7.0645    0.31757
ENDDATA            143
ENDSUBENT          170
SUBENT        F1053004   20100210   20100518   20100518       F038
BIB                  7         16
REACTION   (8-O-16(D,N)9-F-17,PAR,DA)
COMMENT    No explanation of relative units is given.
METHOD     (TOF)
SAMPLE     The thin target consisted of a layer of tantalum oxide
            (Ta2O5) deposited on a tantalum foil 0.08 cm thick.
CORRECTION Corrections for the detector efficiency, dead time in
           the detection system, and for neutron scattered in the
           target backing were applied, and the spectra were
           normalized using the count in a monitor detector.
ERR-ANALYS (DATA-ERR)   Error in cross section definition includes
           the estimated uncertainties in: the total amount of
           oxygen in the target, the stopping power of molybdenum
           and oxygen, neutron detector efficiency, background
           subtraction, and charge collection as well as
           statistical uncertainties in peak area determinations.
STATUS     (TABLE) Data from text p.2238
ENDBIB              16
NOCOMMON             0          0
DATA                 5          1
E-LVL      ANG        EN         DATA       DATA-ERR
MEV        ADEG       MEV        MB/SR      MB/SR
        0.5         0.         5.       146.        19.
ENDDATA              3
ENDSUBENT           24
SUBENT        F1053005   20100210   20100518   20100518       F038
BIB                  6         26
REACTION   (8-O-16(D,EL)8-O-16,,DA)
DETECTOR   (SOLST) Four solid state detectors suspended from a
           movable support allowed data to be collected
           simultaneously at four angles. A fifth solid state
           detector was held fixed at 90 degr. to the beam
           direction for use as a monitor during measurement of
           the angular distributions and as a fifth detector
           during the measurement of the yield curves.
SAMPLE     The targets consisted entirely of calcium hydroxide
           [Ca(OH)2], produced by the rapid reaction of calcium
           oxide (CaO) with air borne moisture. The angular
           distributions were measured with targets in which the
           48Ca enrichment was 87%. The target was estimated to be
           about 3 keV thick.
METHOD     (BCINT)
ERR-ANALYS (ERR-T) The total uncertainty in the absolute
           normalization was estimated to be 10% due to possible
           systematic errors arising from target nonuniformity,
           charge collection, and uncertainty as to the chemical
           nature of the target. Of this total approximately 5%
           was due to statistical errors in the data.
           (ERR-S) Statistical error
           (ANG-ERR-D) Angle digitizing error
           (ERR-DIG)   Data digitizing error
           (DATA-ERR)  Error from the graphic bars
STATUS     (CURVE) Fig.5
ENDBIB              26
COMMON               4          3
ERR-T      ERR-S      ANG-ERR-D  ERR-DIG
PER-CENT   PER-CENT   ADEG       PER-CENT
 10.        5.         0.1788     0.0076
ENDCOMMON            3
DATA                 4        163
EN         ANG-CM     DATA-CM    DATA-ERR
MEV        ADEG       MB/SR      MB/SR
         4.     39.377      764.1      56.46
         4.     43.427 1.6985E+03
         4.     50.125     325.12
         4.     55.501     209.08
         4.     60.454     155.05
         4.     71.996     96.957
         4.     81.887     66.036     4.8793
         4.     102.53     19.137
         4.     107.08      11.96
         4.     112.05     7.6906
         4.     117.01     5.2356    0.38686
         4.     121.52     5.5451
         4.     126.42     8.3882
         4.     130.91     12.509
         4.     135.82     18.391     1.3589
         4.     140.72     28.219
         4.     144.81     35.972
         4.     149.31     44.568
         4.     153.82     52.906
         4.     158.33     62.803
         4.     162.84      68.44
         4.     167.35      76.74     5.6703
        4.5     34.233     808.09     47.425
        4.5     39.147     512.27
        4.5     44.874     324.77
        4.5     50.188     224.27
        4.5     55.503     154.88
        4.5     61.223     108.49     9.6896
        4.5      66.53     82.785
        4.5     72.246     61.396
        4.5     76.745     43.621
        4.5     82.464     30.996
        4.5     86.962     22.339      1.311
        4.5      92.27     16.804
        4.5     97.566        15.
        4.5     102.45     15.006
        4.5     107.32     17.313
        4.5     112.19     19.692
        4.5     117.06     22.719     1.3333
        4.5     121.94     24.408
        4.5     126.41     25.485
        4.5     130.88     25.861
        4.5     135.37     23.082
        4.5     140.26     20.603
        4.5     144.33     17.871
        4.5     149.23     15.284    0.89697
        4.5      153.3      13.07
        4.5     158.19     12.176
        4.5     162.67      11.67
        4.5     166.74     11.509
        4.5     171.21     11.514
         5.     33.298     535.86     31.466
         5.     39.086     334.84
         5.     44.876     206.26
         5.     50.657     142.42
         5.     55.618     96.937     5.6922
         5.     61.388     77.195
         5.     66.747     62.355
         5.     72.111       46.9
         5.     77.062     35.782
         5.     82.431      25.42
         5.     87.804     16.816    0.98744
         5.     89.449      16.58
         5.     93.188     9.6454
         5.      97.75      5.532
         5.      102.7     4.1607
         5.     107.21     5.1556
         5.     112.93     7.8013
         5.     117.42     12.497
         5.     122.33     15.266
         5.     126.84     17.867     1.3209
         5.     131.76     21.517
         5.     136.28     21.835
         5.      140.8     22.476
         5.     145.32     22.485
         5.     149.43     22.175
         5.     153.95     20.657
         5.     158.47     20.372
         5.       163.      19.25     1.1304
         5.     167.11     18.716
         5.     171.63     17.939
       5.25     33.805     453.06     33.661
       5.25     39.528     299.12
       5.25     44.847      191.9
       5.25      50.16     134.16
       5.25     55.879     93.805
       5.25     61.186     71.474
       5.25     66.491     56.043
       5.25     71.796     43.943
       5.25     77.106     32.073
       5.25     82.009     23.409
       5.25     87.326     15.454
       5.25     92.242     9.3617
       5.25     97.149     6.4519
       5.25     102.45      5.132    0.30284
       5.25     106.91     6.3654
       5.25     112.17     9.7897
       5.25     117.03     13.815
       5.25     121.48     19.495
       5.25     126.75     24.182
       5.25     131.22     27.919
       5.25     134.87     31.321
       5.25     140.56     34.644
       5.25     145.03     35.157
       5.25      149.5     36.194
       5.25     153.98     35.692
       5.25     158.05     35.197     2.0769
       5.25     162.12     35.209
       5.25     166.19     34.226
       5.25     171.07     33.272
        5.5     33.974     479.98     34.858
        5.5     38.946     266.46
        5.5      44.73     170.21
        5.5     50.514     108.72
        5.5     56.287     81.027
        5.5     60.829     59.541
        5.5     67.007     48.271
        5.5     71.957     36.996     2.6868
        5.5     77.318     28.356
        5.5     82.276     19.156
        5.5     87.233     13.124
        5.5     93.017     8.3829
        5.5      97.15     5.9895
        5.5     102.08     6.2492    0.45384
        5.5      107.4     8.6312
        5.5      112.3     12.967
        5.5      116.8     18.417
        5.5     121.72     22.737
        5.5     126.63     27.295
        5.5     131.15      30.12
        5.5     135.66     33.238
        5.5     140.59      34.68
        5.5      144.7     34.691
        5.5     149.63     34.222
        5.5     153.74     33.756
        5.5     158.26     34.245     1.9756
        5.5     162.38     31.937
        5.5      166.9     31.949
         6.     28.364     452.88     26.817
         6.     33.696     258.59
         6.      39.83     172.97
         6.      44.76     93.241
         6.     50.079     63.269
         6.     55.792     50.292
         6.      60.28     42.338
         6.     66.392      37.22
         6.     71.287     31.336     2.3364
         6.      76.59     26.006
         6.     81.907     17.902
         6.      87.22     13.053
         6.     92.132     8.8567
         6.     111.71     4.3232    0.32234
         6.     116.57     5.9351
         6.     121.43      7.917
         6.     125.89     9.9699
         6.     130.74     13.299
         6.     135.62     14.928
         6.     140.08     16.998
         6.     144.15     17.005
         6.     149.44     17.014     1.2686
         6.     153.51     16.778
         6.     157.99     15.178
         6.     162.47      13.73
ENDDATA            165
ENDSUBENT          200
SUBENT        F1053006   20100210   20100518   20100518       F038
BIB                  6         25
REACTION   (8-O-16(D,EL)8-O-16,,DA,,RTH)
DETECTOR   (SOLST) Four solid state detectors suspended from a
           movable support allowed data to be collected
           simultaneously at four angles. A fifth solid state
           detector was held fixed at 90 degr. to the beam
           direction for use as a monitor during measurement of
           the angular distributions and as a fifth detector
           during the measurement of the yield curves.
SAMPLE     The targets consisted entirely of calcium hydroxide
           [Ca(OH)2], produced by the rapid reaction of calcium
           oxide (CaO) with air borne moisture. The angular
           distributions were measured with targets in which the
           48Ca enrichment was 87%. The target was estimated to be
           about 3 keV thick.
METHOD     (BCINT)
ERR-ANALYS (ERR-T) The total uncertainty in the absolute
           normalization was estimated to be 10% due to possible
           systematic errors arising from target nonuniformity,
           charge collection, and uncertainty as to the chemical
           nature of the target. Of this total approximately 5%
           was due to statistical errors in the data.
           (ERR-S)     Statistical error
           (ANG-ERR-D) Angle digitizing error
           (ERR-DIG)   Data digitizing error
STATUS     (CURVE) Fig.6
ENDBIB              25
COMMON               4          3
ERR-T      ERR-S      ANG-ERR-D  ERR-DIG
PER-CENT   PER-CENT   ADEG       PER-CENT
 10.        5.         0.7563     0.0068
ENDCOMMON            3
DATA                 3        149
EN         ANG-CM     DATA
MEV        ADEG       NO-DIM
         4.     36.829     1.4281
         4.     48.263     1.5628
         4.     53.156     1.4403
         4.     58.875     1.5482
         4.     69.491      1.649
         4.     80.107     1.7723
         4.      91.12     1.5608
         4.     100.88    0.87433
         4.     106.98    0.55599
         4.     111.02    0.27442
         4.     126.15    0.44315
         4.     130.27    0.90578
         4.      134.8     1.6458
         4.     139.32     2.8325
         4.     143.83     3.8877
         4.     147.93     5.2402
         4.     152.43     6.3939
         4.     157.34      7.944
         4.     161.43      9.098
         4.     165.52     10.049
        4.5     32.102     1.1096
        4.5     37.765     1.2135
        4.5     43.427     1.2918
        4.5     48.683     1.3508
        4.5     54.339     1.3505
        4.5     59.593     1.3747
        4.5     64.848     1.4119
        4.5     70.497     1.2905
        4.5      75.34     1.1901
        4.5     80.981    0.98553
        4.5      85.41    0.80885
        4.5     91.057    0.71321
        4.5      96.31    0.71949
        4.5     100.77    0.87635
        4.5     105.64     1.2212
        4.5     110.51     1.5838
        4.5     114.98     2.1292
        4.5     120.25     2.6403
        4.5     125.11     3.0748
        4.5     129.16     3.4546
        4.5     134.41     3.2729
        4.5     138.85     3.0185
        4.5     143.28     2.6617
        4.5     147.71     2.2643
        4.5     152.55     1.8418
        4.5     156.58     1.6387
        4.5     161.01      1.445
        4.5     165.04     1.3208
        4.5      169.9     1.3566
         5.     32.079    0.91339
         5.     37.797     1.0088
         5.     49.227     1.0552
         5.     54.125     1.0647
         5.     59.027     1.1654
         5.     65.151     1.2302
         5.     70.865       1.23
         5.      76.17      1.197
         5.     81.468    0.97216
         5.     91.233     0.4269
         5.     97.326    0.19792
         5.     106.31    0.22257
         5.     111.24    0.53497
         5.     116.58     1.3332
         5.     116.99      1.207
         5.     121.49     1.8128
         5.     125.58     2.2317
         5.     130.08     2.9269
         5.     134.98     3.2327
         5.     139.07     3.4749
         5.     143.97      3.538
         5.     148.46      3.635
         5.     152.94     3.4427
         5.     157.43     3.2607
         5.     161.92     3.0329
         5.       166.     2.8466
         5.     170.89     2.6478
       5.25     32.325    0.79021
       5.25        38.    0.98147
       5.25     43.259     1.0549
       5.25     49.323     1.0934
       5.25     54.175     1.1438
       5.25     59.434     1.2293
       5.25     65.496     1.2514
       5.25      70.75     1.2739
       5.25     75.996     1.1848
       5.25     80.833     1.0343
       5.25      86.06     0.7673
       5.25     91.274    0.48373
       5.25     92.874    0.40368
       5.25     95.673    0.28627
       5.25     101.31    0.22624
       5.25      105.8    0.39983
       5.25     116.02     1.5374
       5.25     120.91     2.5503
       5.25     125.79     3.5627
       5.25     129.85     4.5884
       5.25     134.31      5.648
       5.25     138.77     6.4671
       5.25     143.62     7.0776
       5.25     148.07     7.4708
       5.25     152.92     7.8147
       5.25     157.37     7.8132
       5.25     161.81     7.7414
       5.25     165.85     7.4651
       5.25     170.29      7.264
        5.5     81.378    0.84527
        5.5     87.078    0.59873
        5.5     92.772    0.35694
        5.5     97.243    0.22676
        5.5     102.16    0.32007
        5.5     107.08    0.62061
        5.5     112.41     1.2366
        5.5     116.11      2.131
        5.5     121.02     3.1474
        5.5     125.93     4.2072
        5.5     130.02     5.2779
        5.5     134.52     6.0468
        5.5     139.01     6.6204
        5.5     143.91     7.0538
        5.5     149.22     7.1822
        5.5     152.48     7.2472
        5.5     157.38     7.3125
        5.5     161.87     7.3119
        5.5     166.36     7.4451
        5.5     170.85     6.9864
         6.     32.947    0.77712
         6.      38.62    0.93839
         6.     43.862    0.83467
         6.     48.714    0.86505
         6.     54.383     0.9897
         6.     59.652     1.1951
         6.     66.132     1.4046
         6.     70.584     1.5365
         6.     76.243     1.5781
         6.     81.884     1.3299
         6.     86.714     1.0812
         6.      92.34    0.76812
         6.     112.07    0.34787
         6.     116.57    0.68264
         6.     121.08     1.3396
         6.     126.37     2.0621
         6.     130.45     3.1459
         6.     135.72     3.9735
         6.     139.78     4.7555
         6.     144.22     4.8845
         6.     148.67     5.2008
         6.     153.92     5.0612
         6.     157.95     4.3822
         6.     162.38     3.5628
ENDDATA            151
ENDSUBENT          185
SUBENT        F1053007   20100210   20100518   20100518       F038
BIB                  6         26
REACTION   (8-O-16(D,P)8-O-17,PAR,DA)
DETECTOR   (SOLST) Four solid state detectors suspended from a
           movable support allowed data to be collected
           simultaneously at four angles. A fifth solid state
           detector was held fixed at 90 degr. to the beam
           direction for use as a monitor during measurement of
           the angular distributions and as a fifth detector
           during the measurement of the yield curves.
SAMPLE     The targets consisted entirely of calcium hydroxide
           [Ca(OH)2], produced by the rapid reaction of calcium
           oxide (CaO) with air borne moisture. The angular
           distributions were measured with targets in which the
           48Ca enrichment was 87%. The target was estimated to be
           about 3 keV thick.
METHOD     (BCINT)
ERR-ANALYS (ERR-T) The total uncertainty in the absolute
           normalization was estimated to be 10% due to possible
           systematic errors arising from target nonuniformity,
           charge collection, and uncertainty as to the chemical
           nature of the target. Of this total approximately 5%
           was due to statistical errors in the data.
           (ERR-S)     Statistical error
           (ANG-ERR-D) Angle digitizing error
           (ERR-DIG)   Data digitizing error
           (DATA-ERR)  Error from the graphic bars
STATUS     (CURVE) Fig.7-8
ENDBIB              26
COMMON               4          3
ERR-T      ERR-S      ANG-ERR-D  ERR-DIG
PER-CENT   PER-CENT   ADEG       PER-CENT
 10.        5.         0.09       0.004
ENDCOMMON            3
DATA                 5        313
E-LVL      EN         ANG-CM     DATA-CM    DATA-ERR
MEV        MEV        ADEG       MB/SR      MB/SR
         0.         4.     24.458     15.582    0.77466
         0.         4.     28.646     23.781
         0.         4.     34.024     29.075
         0.         4.     39.401     35.059     1.4888
         0.         4.     44.774     35.058
         0.         4.     50.147     34.816
         0.         4.     56.116     33.397
         0.         4.     61.487     30.308
         0.         4.     70.434     21.579
         0.         4.     81.772      16.93
         0.         4.     102.07     16.696    0.70901
         0.         4.     107.44      16.58
         0.         4.     112.22     16.239
         0.         4.      116.4      16.58
         0.         4.     122.37     16.015
         0.         4.     125.95     15.904
         0.         4.     132.51     14.736
         0.         4.     136.69     14.234
         0.         4.     140.87     13.749
         0.         4.     146.84     13.098    0.46189
         0.         4.     151.62     12.651
         0.         4.     156.39      12.22
         0.         4.     160.57     11.969
         0.         4.     165.94     11.722
         0.         4.     170.72     11.481
         0.         4.      174.3     11.401
         0.        4.5     22.934     10.802    0.45874
         0.        4.5     28.815      15.28
         0.        4.5     34.736     18.428
         0.        4.5     40.663     21.769
         0.        4.5     44.836     22.229
         0.        4.5     45.442     21.472
         0.        4.5     47.823     22.078
         0.        4.5     50.218     21.476
         0.        4.5     54.981     22.548
         0.        4.5     60.963     21.484    0.91238
         0.        4.5     65.744     21.045
         0.        4.5     71.131     19.914
         0.        4.5     77.103      19.78
         0.        4.5     81.896     18.459
         0.        4.5     90.888     15.963
         0.        4.5     97.462      15.53    0.77215
         0.        4.5     102.27     13.902
         0.        4.5     106.46     13.063
         0.        4.5     112.45      11.94
         0.        4.5     117.24     11.696
         0.        4.5     122.01     11.537
         0.        4.5     126.78     11.781
         0.        4.5     132.76     11.622    0.49355
         0.        4.5     137.53     11.623
         0.        4.5     142.31     11.465
         0.        4.5      145.9     11.388
         0.        4.5     151.27     11.155
         0.        4.5     156.06     10.777
         0.         5.     17.284     9.4946    0.53859
         0.         5.     22.673     14.865    0.62804
         0.         5.      28.06     21.872
         0.         5.     34.037     26.348
         0.         5.     39.416     30.664
         0.         5.      44.79     31.521
         0.         5.     50.163     31.088
         0.         5.     56.126     25.984
         0.         5.     59.704     23.592
         0.         5.     66.263     18.789    0.79384
         0.         5.     71.031     15.068
         0.         5.     76.397     12.421
         0.         5.     91.307     8.3254    0.35175
         0.         5.     96.679     7.9877
         0.         5.     102.05     7.9326
         0.         5.     106.83     7.9873
         0.         5.      112.2     8.3822
         0.         5.     116.98       8.44    0.29613
         0.         5.     121.76     8.8572
         0.         5.     126.53       8.98
         0.         5.     131.31     8.6754
         0.         5.     136.68     8.6752
         0.         5.     154.59     7.5567    0.31927
         0.         5.     159.36     7.3004
         0.         5.     164.73     7.2501
         0.         5.     168.31     6.9082
         0.       5.25      33.85     26.271
         0.       5.25     34.441     27.014
         0.       5.25     36.821     27.974
         0.       5.25     39.199     29.374
         0.       5.25     45.172     28.972
         0.       5.25     49.963     26.839
         0.       5.25     54.776     22.552
         0.       5.25     60.781     19.083
         0.       5.25     65.026     13.949    0.59542
         0.       5.25     69.848     11.163
         0.       5.25     75.268     8.9341
         0.       5.25     86.643     7.6671
         0.       5.25     90.821      7.668
         0.       5.25     95.596     7.7227    0.27374
         0.       5.25     100.37      7.942
         0.       5.25     105.74     7.8333
         0.       5.25     111.12     7.7802
         0.       5.25     116.49     7.6204
         0.       5.25     121.28     7.2587
         0.       5.25     126.66     6.8186    0.29105
         0.       5.25     130.27     6.2289
         0.       5.25     135.05     5.9333
         0.       5.25     140.43     5.8114
         0.       5.25     145.21     5.5743
         0.       5.25     149.99     5.5364
         0.       5.25     155.36     5.5372    0.19627
         0.       5.25     159.53     5.9374
         0.       5.25      164.3     6.0216
         0.       5.25     169.06     6.4569
         0.       5.25     173.84     6.3684
         0.        5.5     16.594      8.488     0.3623
         0.        5.5     22.002     15.027    0.53263
         0.        5.5     27.992     20.847
         0.        5.5     32.785     27.545
         0.        5.5     36.971     31.007
         0.        5.5     44.135     31.005
         0.        5.5     50.099     28.123
         0.        5.5     54.865     23.958
         0.        5.5     60.226     19.575    0.97821
         0.        5.5     65.586     15.663
         0.        5.5     70.347     12.359
         0.        5.5     75.112     10.311
         0.        5.5     84.647     7.7487
         0.        5.5     90.614     7.3796
         0.        5.5      95.39     7.3281
         0.        5.5     100.76     7.1264
         0.        5.5     106.13     7.1759
         0.        5.5     110.31     7.3272
         0.        5.5     115.69      7.378
         0.        5.5     119.86     7.0758
         0.        5.5     125.24     6.9291     0.2456
         0.        5.5     129.41     6.5533
         0.        5.5     134.19     6.2848
         0.        5.5     139.55     5.7805
         0.         6.     22.136     14.004    0.60084
         0.         6.     27.453     18.404
         0.         6.     29.823     20.159
         0.         6.     32.202     21.026
         0.         6.      34.57     23.193
         0.         6.     37.543     24.531
         0.         6.     42.322     24.193
         0.         6.     43.533     22.244     1.1173
         0.         6.     48.334     19.613
         0.         6.      53.74     16.698
         0.         6.     57.969     12.979
         0.         6.     63.986     10.303    0.44206
         0.         6.     68.796     8.7109
         0.         6.     78.406      6.539
         0.         6.     83.746     7.6826
         0.         6.     88.518      7.792
         0.         6.     95.054     9.0913
         0.         6.     104.58     10.101
         0.         6.     109.34     11.142    0.47805
         0.         6.     114.12     10.685
         0.         6.     124.27     10.915
         0.         6.     129.66     9.8977
         0.         6.     133.86     9.0376
         0.         6.     138.65     8.3688
         0.         6.     143.45     7.5355
         0.         6.     147.64     6.8807    0.24514
         0.         6.     153.03     6.5526
         0.         6.     157.23     5.8589
         0.         6.     162.01     5.6581
      0.871         4.     25.709     109.55     9.2841
      0.871         4.     26.224     125.48
      0.871         4.     32.427      58.82
      0.871         4.     38.061     26.831
      0.871         4.     42.368     16.941
      0.871         4.      59.22      18.46     1.8377
      0.871         4.     64.992     20.607     1.7463
      0.871         4.     75.016     16.188
      0.871         4.     84.444     13.064
      0.871         4.      93.25     11.435
      0.871         4.      104.3     11.945
      0.871         4.     108.94     12.288
      0.871         4.      113.6     12.472
      0.871         4.     117.66     12.829
      0.871         4.     122.91     12.674
      0.871         4.     126.98     12.861
      0.871         4.     131.69     11.711
      0.871         4.     136.36     11.568    0.81136
      0.871         4.     141.59     11.743
      0.871         4.     146.31     10.549
      0.871         4.     151.55     10.564
      0.871         4.     155.06     10.152
      0.871         4.     159.72     10.304
      0.871         4.     164.39     10.041
      0.871         4.     169.63     10.192
      0.871         4.      173.7     10.343
      0.871        4.5      22.24     83.242      6.968
      0.871        4.5     27.076     43.214
      0.871        4.5      32.59     16.934
      0.871        4.5     37.009     5.7253
      0.871        4.5     41.172     3.8851
      0.871        4.5     59.037       15.5     1.2975
      0.871        4.5      64.19     16.153
      0.871        4.5     69.337      17.06
      0.871        4.5      74.53     15.971
      0.871        4.5     79.707     15.565
      0.871        4.5      84.91     14.186
      0.871        4.5     90.072     14.392
      0.871        4.5     94.706     12.941
      0.871        4.5      98.74     12.442    0.86201
      0.871        4.5     106.24     11.345
      0.871        4.5     110.88     10.065
      0.871        4.5     114.96     8.5774
      0.871        4.5     119.04     7.2121
      0.871        4.5     124.29      5.749
      0.871        4.5     129.54     4.6446
      0.871        4.5     134.23     3.5088
      0.871        4.5      138.9     2.9113    0.20171
      0.871        4.5     142.96     2.6175    0.21911
      0.871        4.5     148.12     2.6203
      0.871         5.     18.514     119.99     10.113
      0.871         5.     24.104     57.998
      0.871         5.     29.119     27.655
      0.871         5.     34.697     13.733
      0.871         5.     50.782      22.11
      0.871         5.     55.947      26.03     2.1939
      0.871         5.     61.818      23.72
      0.871         5.     66.523     21.609
      0.871         5.     72.406     19.167
      0.871         5.     75.953     17.222
      0.871         5.     80.671     15.272
      0.871         5.     85.972     13.544
      0.871         5.     91.247     12.678
      0.871         5.     96.522     11.867
      0.871         5.     101.24     10.523
      0.871         5.     105.35     9.8474    0.83001
      0.871         5.     110.64     8.9723
      0.871         5.     115.34     8.2847
      0.871         5.     119.47     7.4451
      0.871         5.     125.36     6.5154
      0.871         5.     130.68      5.475
      0.871         5.     134.21     5.1225
      0.871         5.     138.35     4.4809    0.37768
      0.871         5.     142.49     3.9728    0.63537
      0.871         5.     156.56      3.301    0.27824
      0.871         5.     161.85     2.9674
      0.871         5.     167.12     2.8153
      0.871         5.     171.79     2.7809
      0.871       5.25     36.182     14.624
      0.871       5.25     39.703     11.793
      0.871       5.25     47.144     12.634
      0.871       5.25     52.795     16.343
      0.871       5.25     57.934     17.739     1.4953
      0.871       5.25     63.661     18.492
      0.871       5.25     68.858     17.072
      0.871       5.25     72.901     15.971
      0.871       5.25      79.26     14.163
      0.871       5.25     84.461       12.9
      0.871       5.25     89.653      12.07    0.84212
      0.871       5.25     95.428     10.995
      0.871       5.25     100.06     9.8795
      0.871       5.25     105.27     8.8779
      0.871       5.25     109.91     7.6606
      0.871       5.25     114.55        6.7
      0.871       5.25     155.15     2.1748
      0.871       5.25     160.33     2.0907
      0.871       5.25      164.4     1.8038    0.12585
      0.871       5.25     169.05     1.5357
      0.871       5.25     173.69     1.3613
      0.871        5.5     17.232     111.72     12.685
      0.871        5.5     24.518     29.946
      0.871        5.5      34.12     8.5875
      0.871        5.5     38.834     6.7456
      0.871        5.5     43.974     10.661
      0.871        5.5     50.309     14.731
      0.871        5.5     56.108     16.638     1.3976
      0.871        5.5     61.924     17.334
      0.871        5.5     66.602        16.
      0.871        5.5     70.704     14.376
      0.871        5.5     75.977     12.575
      0.871        5.5     80.667        11.
      0.871        5.5     85.925     10.291
      0.871        5.5     90.615     9.0015
      0.871        5.5       95.3     8.0882
      0.871        5.5     101.16      6.888
      0.871        5.5     105.28     5.8647
      0.871        5.5     110.55     5.1302    0.43094
      0.871        5.5     115.26     4.1397
      0.871        5.5     119.37     3.5247
      0.871        5.5     124.65     2.9614
      0.871        5.5     128.79      2.295
      0.871        5.5     142.79     2.0644
      0.871        5.5     148.01     2.3314
      0.871        5.5     151.48     2.5625    0.21525
      0.871        5.5     157.28     2.8554
      0.871        5.5     161.93      3.097
      0.871        5.5     167.15     3.3593
      0.871        5.5     171.79     3.6928
      0.871         6.     22.354     38.385     2.6498
      0.871         6.     27.247     16.131
      0.871         6.     43.489     10.005    0.83444
      0.871         6.     49.204     10.851
      0.871         6.     54.367     11.008
      0.871         6.      59.58     9.6415
      0.871         6.     65.336     9.2729
      0.871         6.     70.518     8.9174
      0.871         6.     75.088     9.5411
      0.871         6.      80.26     9.4237
      0.871         6.      85.97     10.358
      0.871         6.     90.559     10.506
      0.871         6.     95.731     10.377    0.86541
      0.871         6.      110.8     6.8791
      0.871         6.     116.04     5.6361
      0.871         6.     119.59     4.2043
      0.871         6.     134.16     2.2509    0.18772
      0.871         6.     138.74     2.3449
      0.871         6.     143.89     2.4759
      0.871         6.     149.58     2.8706
      0.871         6.     153.54     3.3719
      0.871         6.     163.82     4.0187    0.27741
ENDDATA            315
ENDSUBENT          350
SUBENT        F1053008   20100210   20100518   20100518       F038
BIB                  6         16
REACTION   (8-O-16(D,N)9-F-17,PAR,DA)
METHOD     (TOF)
SAMPLE     A thick oxygen targets prepared by heating a 0.08 cm
           thick molybdenum foil in air. The thickness of the
           resulting layer of molybdenum oxide (MoO2) was
           determined in the subsequent computer analysis of the
           experimental data.
CORRECTION Corrections for the detector efficiency, dead time in
           the detection system, and for neutron scattered in the
           target backing were applied, and the spectra were
           normalized using the count in a monitor detector.
ERR-ANALYS (ERR-SYS,,3.) Systematic error
           (ANG-ERR-D)  Angle digitizing error
           (ERR-DIG)    Data digitizing error
           (DATA-ERR)   Error from the graphic bars
STATUS     (CURVE) Fig.9
ENDBIB              16
COMMON               3          3
E-LVL      ANG-ERR-D  ERR-DIG
MEV        ADEG       PER-CENT
 0.         0.5956     0.0104
ENDCOMMON            3
DATA                 4        122
EN         ANG-CM     DATA-CM    DATA-ERR
MEV        ADEG       MB/SR      MB/SR
       4.75     2.0486     7.8059    0.32165
       4.75     13.955     13.667
       4.75     25.269     24.747
       4.75     35.721     33.097
       4.75     47.006     32.481
       4.75     57.951     24.681
       4.75     67.816     17.769     0.7322
       4.75     78.837     12.371
       4.75     89.183     9.7875     0.4033
       4.75     108.44     8.7503
       4.75     119.64     9.4359
       4.75     128.06      9.835
       4.75     136.89      12.13    0.41512
       4.75     141.97     11.976
       4.75     144.22      12.06
         5.     1.5127     7.1757
         5.     7.0467     8.7188    0.29664
         5.       12.4     12.862
         5.      17.76     18.849
         5.     23.784     24.985
         5.     28.169     30.558
         5.     31.573       31.4
         5.     34.958      32.92
         5.     41.244     32.947
         5.     46.424     31.671
         5.     51.697     27.537
         5.      58.12     23.787
         5.     62.847     20.134
         5.     67.605     16.482    0.67518
         5.     72.363     13.492
         5.     77.146     10.753
         5.     83.009     9.1643
         5.     83.364     6.2583
         5.     85.637     6.3445
         5.     88.314      7.706
         5.     93.035     6.5666    0.31489
         5.     98.817      6.105
         5.     107.87     6.7124
         5.     113.56     6.9458
         5.     118.66     7.2837
         5.     123.16     7.8446
         5.      128.3     7.9024
         5.     131.69     8.2298
         5.     136.79     8.6301
         5.     141.88     9.1106
         5.     146.99     9.4267
       5.25    0.49211     11.782    0.40118
       5.25     12.018     17.052
       5.25      23.46     27.287
       5.25     29.563       30.6
       5.25     34.556     33.627
       5.25     45.895     30.864
       5.25     56.297     22.557    0.92476
       5.25     66.168     15.836
       5.25     77.216     10.468
       5.25     88.192     7.5494    0.25705
       5.25     106.34     6.5729
       5.25     116.45     6.8048
       5.25      127.1     7.2365
       5.25      136.6     8.0102
        5.5    0.68369     11.268    0.38413
        5.5     6.3009     12.637
        5.5     12.358     16.536
        5.5     18.427      21.35
        5.5      23.97     26.123
        5.5     28.982     30.497
        5.5     34.079     32.197
        5.5      40.93     32.439
        5.5     46.164     29.157
        5.5      51.41     25.859
        5.5     57.278     21.591
        5.5     67.381     13.702     0.5624
        5.5     72.752     10.486
        5.5     77.483     8.6956
        5.5     82.798     7.1156
        5.5     88.038      6.353
        5.5       92.7     5.7099
        5.5     97.895     5.3788    0.25844
        5.5      108.6     6.4112
        5.5     113.17     6.4577
        5.5     117.15     6.6364
        5.5     121.69     6.8204
        5.5     126.25     6.9627
        5.5     131.38     7.0609
        5.5     135.94     7.1601
        5.5     141.05     7.4585
        5.5     145.05      7.462    0.35853
       5.75    0.16537     10.801    0.36781
       5.75     10.757     16.273
       5.75     22.738     26.573
       5.75     33.283     32.095
       5.75     44.675     27.735
       5.75     54.569     19.083
       5.75     65.186     10.886    0.37069
       5.75     75.802     6.2099
       5.75     85.583     4.8851    0.23446
       5.75     106.78     6.2748
       5.75     126.09     5.2138
         6.    0.46039     12.317    0.50627
         6.     6.0809     13.723
         6.     12.686     18.331
         6.     18.178     23.674
         6.     23.728      28.59
         6.     28.777     31.852
         6.     35.593     33.412
         6.     40.229      31.05
         6.     45.489     27.166
         6.     50.802     22.374
         6.     56.733     17.465
         6.     61.556     13.093    0.44695
         6.     65.826      9.619
         6.     75.939     6.1007
         6.     86.843     5.7892    0.31942
         6.     92.551     5.8322
         6.      97.04     6.4105
         6.     102.17     6.5012
         6.     107.14     7.9566    0.32704
         6.     116.26     8.1275
         6.     127.17     7.6609
         6.     135.83     6.9809
         6.     140.45     6.5752
         6.     145.63     6.3196    0.25975
ENDDATA            124
ENDSUBENT          149
SUBENT        F1053009   20100210   20100518   20100518       F038
BIB                  6         16
REACTION   (8-O-16(D,N)9-F-17,PAR,DA)
METHOD     (TOF)
SAMPLE     A thick oxygen targets prepared by heating a 0.08 cm
           thick molybdenum foil in air. The thickness of the
           resulting layer of molybdenum oxide (MoO2) was
           determined in the subsequent computer analysis of the
           experimental data.
CORRECTION Corrections for the detector efficiency, dead time in
           the detection system, and for neutron scattered in the
           target backing were applied, and the spectra were
           normalized using the count in a monitor detector.
ERR-ANALYS (ERR-SYS,,3.) Systematic error
           (ANG-ERR-D)  Angle digitizing error
           (ERR-DIG)    Data digitizing error
           (DATA-ERR)   Error from the graphic bars
STATUS     (CURVE) Fig.10
ENDBIB              16
COMMON               3          3
E-LVL      ANG-ERR-D  ERR-DIG
MEV        ADEG       PER-CENT
 0.5        0.9418     0.0063
ENDCOMMON            3
DATA                 4        117
EN         ANG-CM     DATA-CM    DATA-ERR
MEV        ADEG       MB/SR      MB/SR
       4.75     1.4011     127.34     8.1156
       4.75     10.093      94.62
       4.75     20.817     47.346
       4.75     32.217     16.762     1.0683
       4.75     44.434     12.609
       4.75     54.552     15.744
       4.75     66.072     14.434     1.1108
       4.75     86.246     13.727
       4.75     107.13     11.538
       4.75     117.21     11.114
       4.75     125.13      10.19    0.64942
       4.75     135.24     11.961
       4.75     144.62     12.719
         5.     1.0417     137.96     8.8081
         5.     10.481     106.36
         5.     16.236     78.046
         5.     20.545     48.756
         5.     26.292     28.278     1.4355
         5.      31.32     16.812
         5.     37.794     11.596
         5.     43.558     11.035
         5.     48.606     12.335
         5.     53.654     13.451
         5.     59.422     14.133
         5.     65.908     14.132
         5.     69.512     13.957
         5.     75.273      12.18    0.77772
         5.     80.317     12.029
         5.     86.079      10.76
         5.     89.678     9.2745
         5.     96.882     8.5041
         5.     106.25     8.5033
         5.     110.58      8.295
         5.     115.62     8.3979
         5.     119.95     8.8238
         5.     124.99     8.8234
         5.     130.04     9.3863     0.4765
         5.     133.64     9.6212
         5.     138.69     10.235
         5.     143.02     10.491
       5.25     2.4559     139.69     8.9198
       5.25     8.3501     105.07
       5.25     19.148     45.839      2.927
       5.25     30.661     14.495
       5.25     41.467     10.505
       5.25     53.722     12.965
       5.25     63.811     12.805
       5.25     74.619     10.767    0.54658
       5.25     85.426     8.3015
       5.25     104.88     6.9799
       5.25     114.97     6.4799
       5.25     124.34     6.3999
       5.25     132.99     7.3332
       5.25     142.36     7.7052
        5.5     1.4622     145.89     9.4108
        5.5     5.0247       132.
        5.5     10.791     106.73
        5.5     16.558     76.153
        5.5     21.605     43.932
        5.5     27.373     24.108
        5.5     32.421     12.584    0.81175
        5.5     38.908     9.2063
        5.5     43.954     9.0919
        5.5     49.719     10.303
        5.5     54.043     11.387
        5.5     59.808     11.675
        5.5     66.295     11.106
        5.5     71.341     9.8005
        5.5     75.665     8.8677
        5.5     81.432     7.8256
        5.5     86.477     6.9928    0.45108
        5.5     91.523     6.0187
        5.5     96.568     5.2454
        5.5     106.66     5.5144
        5.5      111.7     5.3783
        5.5     116.75     5.3783
        5.5     121.07     5.1803
        5.5      125.4     5.2455
        5.5     130.44     5.0525
        5.5     134.05      5.116
        5.5     139.81     5.0525
        5.5     143.42     4.9278    0.31787
       5.75      1.289     155.07     7.9616
       5.75     11.259     112.01
       5.75     21.399     42.733
       5.75     32.995     11.923
       5.75     43.815     10.008    0.51382
       5.75     54.613     13.019
       5.75     64.708      11.78
       5.75     75.535     8.5092
       5.75     86.367     5.6308    0.43917
       5.75     105.84     4.1191
       5.75      124.6     3.0512
       5.75     143.32     4.3877    0.22527
         6.     2.7841     156.79     10.135
         6.     3.7044     143.64
         6.     9.4764     111.81
         6.     15.253     73.032
         6.     20.312     41.046
         6.     26.095     20.609
         6.     31.871     13.631    0.70046
         6.      37.64     11.877
         6.     42.684     12.488
         6.     48.448     13.633
         6.     54.213     13.634
         6.     58.539     12.647
         6.     64.309     10.882
         6.     75.127     7.9567
         6.     85.224     6.0405
         6.     90.993     5.1977    0.33598
         6.     95.318     5.1331
         6.      105.4     5.8186
         6.     115.49     5.8924
         6.     124.14      5.535
         6.     134.23     5.6052    0.36232
         6.     137.84     5.2651
         6.     142.88     5.3316
ENDDATA            119
ENDSUBENT          144
SUBENT        F1053010   20100210   20100518   20100518       F038
BIB                  6         25
REACTION   (8-O-16(D,P)8-O-17,PAR,DA)
DETECTOR   (SOLST) Four solid state detectors suspended from a
           movable support allowed data to be collected
           simultaneously at four angles. A fifth solid state
           detector was held fixed at 90 degr. to the beam
           direction for use as a monitor during measurement of
           the angular distributions and as a fifth detector
           during the measurement of the yield curves.
SAMPLE     The targets consisted entirely of calcium hydroxide
           [Ca(OH)2], produced by the rapid reaction of calcium
           oxide (CaO) with air borne moisture. The angular
           distributions were measured with targets in which the
           48Ca enrichment was 87%. The target was estimated to be
           about 3 keV thick.
METHOD     (BCINT)
ERR-ANALYS The  total  uncertainty  in  the  absolute
           normalization was estimated to be 10% due to possible
           systematic errors arising from target nonuniformity,
           charge collection, and uncertainty as to the chemical
           nature of the target. Of this total approximately 5%
           was due to statistical errors in the data.
           (ANG-ERR-D) Angle digitizing error
           (ERR-DIG)   Data digitizing error
           (DATA-ERR)  Error from the graphic bars
STATUS     (CURVE) Fig.11
ENDBIB              25
COMMON               3          3
E-LVL      ANG-ERR-D  ERR-DIG
MEV        ADEG       PER-CENT
 3.846      0.1232     0.0014
ENDCOMMON            3
DATA                 4         66
EN         ANG-CM     DATA-CM    DATA-ERR
MEV        ADEG       MB/SR      MB/SR
       5.25     39.929     1.5087      0.107
       5.25     44.974     1.2897  9.172E-02
       5.25     50.776     1.0197    0.10191
       5.25      71.42    0.87747  5.605E-02
       5.25     76.455    0.83681  5.604E-02
       5.25     81.239    0.80634  5.095E-02
       5.25     86.773    0.85741  5.605E-02
       5.25     91.801    0.96451  5.603E-02
       5.25     96.834     0.9799  5.095E-02
       5.25     101.87     1.0106  5.097E-02
       5.25     107.14     1.1839  5.605E-02
       5.25     111.42     1.2197  5.095E-02
       5.25     116.45     1.2809  5.604E-02
       5.25     121.47     1.4747  7.134E-02
       5.25     144.88     1.3732  5.603E-02
       5.25     149.91     1.4243  5.605E-02
       5.25     154.19      1.404  7.134E-02
       5.25     158.72     1.3837  6.115E-02
       5.25     163.25     1.4653  9.172E-02
       5.25     168.04     1.3737  5.605E-02
       5.25     171.82     1.2158  6.116E-02
        5.5     35.119     1.6233  6.852E-02
        5.5     45.934     1.7249  6.599E-02
        5.5     50.728     1.5397   5.33E-02
        5.5     56.764     1.5981  8.375E-02
        5.5     66.353     1.2352  8.374E-02
        5.5     71.881     1.3571  4.315E-02
        5.5     77.166     1.3571  4.568E-02
        5.5     81.699     1.3191  3.807E-02
        5.5     87.482     1.4004  4.314E-02
        5.5     92.515     1.4105  4.567E-02
        5.5     97.293     1.4588  3.807E-02
        5.5     102.58     1.4969  3.298E-02
        5.5      107.6     1.5629  3.553E-02
        5.5     112.63     1.6137  4.315E-02
        5.5     117.16     1.6874  3.299E-02
        5.5      132.5     1.7814  4.822E-02
        5.5     136.54      1.685  4.315E-02
        5.5     141.57     1.6418  3.807E-02
        5.5      146.1     1.6876  4.311E-02
        5.5     150.37     1.7688  4.314E-02
        5.5     155.41       1.68  4.061E-02
        5.5     159.19     1.6648  3.806E-02
        5.5     162.96     1.6826  3.807E-02
        5.5     168.75      1.675  4.315E-02
        5.5     173.29     1.6446  3.808E-02
         6.     39.181     1.0643    0.17303
         6.     50.791    0.63724  7.633E-02
         6.     66.572     1.5894    0.10687
         6.     72.112     1.5488    0.10178
         6.      77.13     1.7475  8.651E-02
         6.     81.926     1.5644  8.652E-02
         6.     86.928     1.9768   9.16E-02
         6.     92.725      1.865  7.125E-02
         6.     97.226     2.2418  7.123E-02
         6.      117.6     2.3696  7.633E-02
         6.     122.14     2.2476  6.616E-02
         6.     127.18     2.1766  6.617E-02
         6.     132.45     2.3599  7.125E-02
         6.     136.49     2.1921  6.616E-02
         6.     140.77     2.1465  5.598E-02
         6.     147.09     1.8617  6.617E-02
         6.     150.86     1.9127  5.599E-02
         6.     155.14      1.811  5.598E-02
         6.     159.19     1.5974  6.616E-02
         6.     163.98     1.5111  5.596E-02
ENDDATA             68
ENDSUBENT          102
SUBENT        F1053011   20100210   20100518   20100518       F038
BIB                  6         25
REACTION   (8-O-16(D,EL)8-O-16,,DA)
DETECTOR   (SOLST) Four solid state detectors suspended from a
           movable support allowed data to be collected
           simultaneously at four angles. A fifth solid state
           detector was held fixed at 90 degr. to the beam
           direction for use as a monitor during measurement of
           the angular distributions and as a fifth detector
           during the measurement of the yield curves.
SAMPLE     The targets consisted entirely of calcium hydroxide
           [Ca(OH)2], produced by the rapid reaction of calcium
           oxide (CaO) with air borne moisture. The angular
           distributions were measured with targets in which the
           48Ca enrichment was 87%. The target was estimated to be
           about 3 keV thick.
METHOD     (BCINT)
ERR-ANALYS (ERR-T) The total uncertainty in the absolute
           normalization was estimated to be 10% due to possible
           systematic errors arising from target nonuniformity,
           charge collection, and uncertainty as to the chemical
           nature of the target. Of this total approximately 5%
           was due to statistical errors in the data.
           (ERR-S)      Statistical error
           (EN-ERR-DIG) Energy digitizing error
           (ERR-DIG)    Data digitizing error
STATUS     (CURVE) Fig.14
ENDBIB              25
COMMON               4          3
ERR-T      ERR-S      EN-ERR-DIG ERR-DIG
PER-CENT   PER-CENT   MEV        MB/SR
 10.        5.         0.0015     0.1347
ENDCOMMON            3
DATA                 3        854
ANG        EN         DATA
ADEG       MEV        MB/SR
        65.     3.9846     102.79
        65.     3.9973     108.39
        65.     4.0163     113.62
        65.      4.029      112.5
        65.     4.0322     111.01
        65.     4.0449     107.28
        65.     4.0576     106.53
        65.      4.064     102.05
        65.     4.0736     99.063
        65.     4.0831     93.837
        65.     4.0895     91.597
        65.     4.0958     89.731
        65.     4.1085     88.612
        65.     4.1276     86.747
        65.     4.1403     87.495
        65.     4.1593     88.617
        65.      4.172     90.858
        65.     4.1847     93.473
        65.     4.1943     88.247
        65.     4.2006     93.475
        65.     4.2164     95.716
        65.     4.2228     99.824
        65.     4.2355     98.705
        65.      4.245     96.839
        65.     4.2545     100.57
        65.     4.2608     101.69
        65.     4.2735     101.32
        65.     4.2862     107.67
        65.     4.2925     109.17
        65.     4.3021     107.67
        65.     4.3116     108.42
        65.     4.3243     106.93
        65.     4.3338     103.57
        65.     4.3402     101.33
        65.     4.3529     98.343
        65.     4.3625     96.104
        65.      4.372     91.997
        65.     4.3816     88.638
        65.     4.3879     86.772
        65.     4.3975     86.026
        65.     4.4038      85.28
        65.     4.4133     87.521
        65.     4.4197     84.534
        65.     4.4324     84.909
        65.     4.4451      84.91
        65.     4.4546     85.284
        65.     4.4641     83.418
        65.     4.4768     82.673
        65.     4.4832      80.06
        65.     4.4927     78.194
        65.     4.5023     80.435
        65.     4.5118     77.822
        65.     4.5213     78.943
        65.      4.534     78.198
        65.     4.5499     78.573
        65.     4.5658     79.321
        65.     4.5753     81.562
        65.     4.5848     83.803
        65.     4.5943     84.924
        65.      4.607     84.925
        65.     4.6134     82.312
        65.     4.6261     80.447
        65.     4.6356     78.581
        65.     4.6451     79.702
        65.     4.6483     77.088
        65.     4.6674     75.223
        65.     4.6832     75.225
        65.     4.6864     76.719
        65.     4.6959     74.106
        65.     4.6991     70.746
        65.      4.715        70.
        65.     4.7246     67.388
        65.     4.7341     65.148
        65.     4.7436     64.029
        65.     4.7532     59.923
        65.     4.7627     61.044
        65.     4.7722     61.791
        65.     4.7849     61.419
        65.     4.7976     62.914
        65.     4.8008     66.648
        65.     4.8166     65.903
        65.      4.823     69.264
        65.     4.8325     67.025
        65.     4.8452     67.399
        65.     4.8547      66.28
        65.     4.8674     66.281
        65.     4.8706     67.775
        65.     4.8896     67.777
        65.     4.8928     66.657
        65.     4.9119     66.659
        65.     4.9277     67.034
        65.     4.9373     66.661
        65.     4.9405     65.168
        65.     4.9563     63.676
        65.      4.969     62.557
        65.      4.969      64.05
        65.     4.9913     61.065
        65.     4.9976     62.186
        65.     5.0103     62.934
        65.     5.0262     59.575
        65.     5.0325     61.443
        65.     5.0484     62.564
        65.     5.0548     61.818
        65.     5.0611     63.686
        65.     5.0706     62.193
        65.     5.0865     64.808
        65.     5.0992     63.316
        65.     5.1024      64.81
        65.     5.1151     64.811
        65.     5.1214     63.318
        65.     5.1341      64.44
        65.     5.1468     64.067
        65.     5.1532     62.948
        65.      5.169     64.443
        65.     5.1722     62.576
        65.     5.1881     61.831
        65.     5.2008     60.712
        65.     5.2103     59.966
        65.      5.223     60.341
        65.     5.2389     58.849
        65.     5.2548     58.477
        65.     5.2643     59.971
        65.      5.277     57.359
        65.     5.2833       59.6
        65.     5.2929      56.24
        65.     5.3024     57.735
        65.     5.3151     56.616
        65.     5.3278     52.136
        65.      5.331     50.643
        65.     5.3469     50.645
        65.     5.3596     48.032
        65.      5.366     49.153
        65.     5.3755     48.407
        65.      5.385     48.781
        65.     5.3914     46.915
        65.     5.4072      48.41
        65.     5.4168     47.664
        65.     5.4295     47.665
        65.     5.4422     45.426
        65.     5.4422     47.293
        65.     5.4612     46.922
        65.     5.4644     45.802
        65.     5.4739      47.67
        65.     5.4898     48.044
        65.      5.493     45.804
        65.     5.5088     45.433
        65.     5.5152     46.553
        65.     5.5279     46.928
        65.     5.5406     45.062
        65.     5.5438     43.569
        65.     5.5565     43.944
        65.      5.566     40.957
        65.     5.5755     39.838
        65.     5.5914      39.84
        65.     5.6009     40.961
        65.     5.6073     41.708
        65.     5.6136     43.576
        65.     5.6263     43.577
        65.     5.6454     43.952
        65.     5.6454     42.458
        65.     5.6549       44.7
        65.     5.6644     43.954
        65.     5.6803     44.702
        65.     5.6866     46.196
        65.     5.6993     48.438
        65.     5.7056     50.305
        65.     5.7215       51.8
        65.     5.7278     52.548
        65.     5.7405     52.922
        65.     5.7501     53.297
        65.     5.7596     54.791
        65.     5.7691     54.792
        65.     5.7818     54.046
        65.     5.7881     55.167
        65.     5.7977     54.795
        65.     5.8072     54.049
        65.     5.8167      55.17
        65.     5.8294     55.171
        65.     5.8421     55.919
        65.     5.8516       54.8
        65.     5.8643     55.921
        65.      5.877     56.296
        65.     5.8897     55.177
        65.     5.8992     55.551
        65.     5.9056     54.058
        65.     5.9151     52.939
        65.     5.9278     52.193
        65.     5.9374     52.568
        65.     5.9533     48.462
        65.     5.9596     47.342
        65.     5.9692     46.223
        65.     5.9755     45.477
        65.     5.9882     43.985
        65.     5.9977     45.106
        90.     3.9933     36.809
        90.     4.0061     34.677
        90.     4.0124     33.611
        90.      4.022     32.279
        90.     4.0315     30.946
        90.     4.0442     28.281
        90.     4.0569     27.749
        90.     4.0792     21.617
        90.      4.092     18.952
        90.     4.1015     18.686
        90.     4.1079      17.62
        90.     4.1237     17.622
        90.     4.1333     16.556
        90.     4.1396     15.756
        90.     4.1523     16.824
        90.     4.1619     15.759
        90.     4.1714     15.226
        90.     4.1809      16.56
        90.     4.1904     14.428
        90.        4.2     15.495
        90.     4.2095     16.296
        90.      4.219     17.097
        90.     4.2253     16.031
        90.     4.2476     16.033
        90.     4.2571     16.567
        90.     4.2666     17.101
        90.      4.273     16.302
        90.     4.2825      18.17
        90.     4.2888     19.503
        90.     4.3015     19.238
        90.      4.311     19.772
        90.     4.3237     19.507
        90.     4.3301     20.041
        90.     4.3364     19.241
        90.     4.3491     18.976
        90.     4.3618      18.71
        90.     4.3745     18.445
        90.     4.3809     19.512
        90.     4.3872     18.179
        90.     4.3999     17.647
        90.     4.4094     18.448
        90.      4.419     18.982
        90.     4.4348      19.25
        90.     4.4444     19.251
        90.     4.4539     19.519
        90.     4.4634     19.786
        90.     4.4793     19.254
        90.     4.4888     18.455
        90.     4.5015     18.723
        90.      4.511     17.391
        90.     4.5237     16.858
        90.     4.5301     15.526
        90.     4.5365     14.726
        90.     4.5524     13.661
        90.     4.5587     11.795
        90.     4.5683     10.996
        90.      4.581      10.73
        90.     4.5873     10.198
        90.        4.6     10.466
        90.     4.6127       10.2
        90.     4.6223     9.4009
        90.      4.635     9.9354
        90.     4.6445     9.9363
        90.     4.6572     9.4041
        90.     4.6699     9.1386
        90.     4.6826     9.6731
        90.     4.6953     9.4076
        90.     4.7048     8.8752
        90.     4.7175     9.4097
        90.      4.727     10.211
        90.     4.7397     10.478
        90.     4.7429     11.279
        90.     4.7556     11.547
        90.     4.7651     12.614
        90.     4.7778     13.682
        90.     4.7905     14.216
        90.     4.8095     14.218
        90.     4.8222     15.019
        90.     4.8381     15.021
        90.     4.8476     14.222
        90.     4.8698     13.957
        90.     4.8794     13.425
        90.     4.8921     12.626
        90.     4.9016      13.16
        90.     4.9143     12.628
        90.     4.9238     11.829
        90.     4.9365      11.83
        90.      4.946     11.297
        90.     4.9587     11.299
        90.     4.9619     9.6988
        90.     4.9778     9.7003
        90.     4.9905     9.4348
        90.     5.0001     7.8357
        90.     5.0064     8.3696
        90.     5.0159     7.3038
        90.     5.0318     7.0386
        90.     5.0477     6.7734
        90.     5.0667     6.2418
        90.     5.0826     6.2433
        90.     5.0921     6.5108
        90.      5.108     6.5123
        90.     5.1239     6.7804
        90.     5.1397     7.3152
        90.     5.1651     7.0509
        90.     5.1778     6.7854
        90.     5.1874     7.5863
        90.     5.2032     7.0544
        90.     5.2223     7.5895
        90.      5.235      6.524
        90.     5.2477     7.0585
        90.     5.2636     7.5933
        90.     5.2763     6.2611
        90.     5.2922     5.4626
        90.     5.3144     5.7313
        90.     5.3207     4.9319
        90.     5.3398     5.7336
        90.     5.3525     4.9348
        90.     5.3588     5.7354
        90.     5.3747     5.4702
        90.     5.3969     5.4722
        90.      5.416      5.474
        90.     5.4287     5.7418
        90.     5.4445     5.4766
        90.     5.4604     5.4781
        90.     5.4763     6.0128
        90.      5.489     6.5473
        90.     5.4985     6.5482
        90.     5.5048     6.0155
        90.     5.5175       6.55
        90.     5.5302     7.0845
        90.     5.5429      6.819
        90.     5.5493     7.8862
        90.      5.562      8.154
        90.     5.5778     8.4222
        90.     5.5937     9.4903
        90.     5.6064     10.291
        90.     5.6191     10.559
        90.     5.6222      11.36
        90.     5.6413     10.561
        90.     5.6571     11.896
        90.     5.6635      10.83
        90.     5.6826     11.098
        90.     5.6984     12.167
        90.     5.7175     12.435
        90.     5.7333     12.436
        90.     5.7524     11.638
        90.     5.7587     12.439
        90.     5.7746     12.174
        90.     5.7905     12.442
        90.     5.8063     12.443
        90.     5.8254     12.978
        90.     5.8381     11.913
        90.     5.8508     11.647
        90.     5.8572     10.581
        90.     5.8699     10.582
        90.     5.8794     9.7832
        90.     5.8889     10.051
        90.     5.8921     8.7177
        90.      5.908     8.9858
        90.     5.9143     7.9198
        90.     5.9302     7.9212
        90.     5.9524     8.1899
        90.     5.9588     7.3905
        90.     5.9715     7.3917
        90.     5.9842     7.1262
        90.     5.9937     7.6604
        90.     5.9969     8.4607
       115.     3.9908     8.7932
       115.     4.0066      8.794
       115.     4.0193     8.7947
       115.     4.0289       7.28
       115.     4.0479     6.6749
       115.      4.067      7.282
       115.     4.0797     7.5857
       115.     4.0892     8.4953
       115.     4.0955     10.314
       115.     4.1082     11.224
       115.     4.1241     13.043
       115.     4.1336     13.952
       115.     4.1431     15.165
       115.     4.1526     17.286
       115.     4.1685     18.196
       115.     4.1812     19.712
       115.     4.1844     21.228
       115.     4.1939     20.016
       115.     4.2066     22.441
       115.     4.2161     23.653
       115.     4.2256     24.563
       115.     4.2351     26.382
       115.     4.2446     26.079
       115.     4.2573     27.898
       115.     4.2668     28.808
       115.     4.2764     29.717
       115.     4.2827     31.233
       115.     4.2986      31.84
       115.     4.3081     32.749
       115.     4.3176     33.962
       115.     4.3398     34.266
       115.     4.3557     34.873
       115.     4.3652     33.964
       115.     4.3747     34.571
       115.     4.3875     33.662
       115.      4.397     32.451
       115.     4.4097     32.451
       115.     4.4192     32.755
       115.     4.4224      31.24
       115.     4.4319     30.634
       115.     4.4446     30.332
       115.     4.4573     30.333
       115.     4.4668     31.545
       115.     4.4795      30.94
       115.     4.4827     28.516
       115.     4.4954     28.819
       115.     5.0066     12.786
       115.     5.0257     14.302
       115.      5.032      16.12
       115.     5.0479     16.424
       115.     5.0542     17.636
       115.     5.0605     19.758
       115.     5.0732     19.759
       115.     5.0828     20.668
       115.     5.0986     20.972
       115.     5.1082     21.882
       115.     5.1113     20.367
       115.     5.1209     19.761
       115.     5.1304     20.065
       115.     5.1431     19.459
       115.      5.159      19.46
       115.     5.1717      20.37
       115.     5.1907     20.068
       115.     5.2066     20.372
       115.      5.232     20.676
       115.     5.2447     20.374
       115.     5.2542     20.071
       115.     5.2574     21.283
       115.     5.2732     20.375
       115.     5.2859     22.194
       115.     5.2923     20.376
       115.     5.2986     21.589
       115.     5.3145     21.286
       115.     5.3272     20.378
       115.     5.3431     19.773
       115.     5.3621     20.986
       115.     5.3717     20.683
       115.     5.3843     20.987
       115.     5.4002     20.988
       115.     5.4224     20.989
       115.     5.4383      20.99
       115.     5.4542     20.688
       115.     5.4605     21.597
       115.     5.4764     21.901
       115.     5.4986     22.205
       115.     5.5113     21.903
       115.     5.5177     23.115
       115.     5.5304     23.116
       115.     5.5335     24.328
       115.     5.5431      23.42
       115.     5.5462     24.632
       115.     5.5621     24.936
       115.      5.578      25.24
       115.     5.5907     24.937
       115.     5.5938     27.059
       115.     5.6097     27.968
       115.     5.6161      27.06
       115.     5.6256     27.363
       115.     5.6383     27.364
       115.     5.6446     25.849
       115.     5.6605      25.85
       115.       5.67     24.941
       115.     5.6732     24.032
       115.     5.6859     23.427
       115.     5.6923     22.518
       115.     5.7081     21.913
       115.     5.7209     21.308
       115.     5.7304     20.399
       115.     5.7431     19.794
       115.      5.759     19.491
       115.     5.7717     19.492
       115.      5.778      18.28
       115.     5.7939     17.675
       115.     5.7939     18.887
       115.     5.8066     16.464
       115.     5.8161     17.373
       115.     5.8256     16.465
       115.      5.832     15.253
       115.      5.851      15.86
       115.     5.8574     14.042
       115.     5.8701     14.043
       115.     5.8765     12.528
       115.     5.8892     11.922
       115.     5.8955     10.711
       115.     5.9082     10.711
       115.     5.9209     10.409
       115.     5.9209     11.318
       115.     5.9368     9.5006
       115.     5.9495     8.5922
       115.     5.9622     8.8959
       115.     5.9844     7.3819
       115.     5.9844      8.594
       115.     6.0003     8.2918
       145.     4.1188      50.64
       145.     4.1252     51.381
       145.     4.1347     50.642
       145.     4.1474     50.149
       145.     4.1538      47.68
       145.     4.1634     45.459
       145.     4.1761     44.967
       145.     4.1856     42.498
       145.     4.1983     42.006
       145.     4.2047     41.266
       145.     4.2143     38.304
       145.     4.2333     37.812
       145.     4.2365     35.343
       145.     4.2461     33.615
       145.     4.2556     32.629
       145.      4.262     31.148
       145.     4.2715     30.408
       145.     4.2811     29.421
       145.     4.2938     28.188
       145.     4.3034     26.213
       145.     4.3128     29.671
       145.     4.3161     25.474
       145.     4.3288     25.228
       145.     4.3383      25.97
       145.     4.3541     26.465
       145.     4.3637     26.713
       145.     4.3827     26.221
       145.     4.4018     26.964
       145.     4.4113     26.471
       145.      4.424     25.238
       145.     4.4336     23.016
       145.     4.4431     21.783
       145.     4.4558     20.302
       145.     4.4654     18.822
       145.     4.4717     17.588
       145.     4.4813     16.107
       145.      4.494     14.874
       145.     4.5131     14.629
       145.     4.5289     15.124
       145.     4.5416     15.619
       145.     4.5416     14.632
       145.     4.5543     14.633
       145.     4.5639      14.14
       145.     4.5702     13.153
       145.     4.5798     11.919
       145.     4.5893     10.933
       145.      4.602      10.44
       145.     4.6147     9.7006
       145.     4.6306     9.7022
       145.     4.6496      9.951
       145.     4.6623     10.446
       145.      4.675     11.188
       145.     4.6845      11.93
       145.     4.6909     12.671
       145.     4.7036     13.166
       145.     4.7099     13.908
       145.     4.7194     14.896
       145.     4.7321     16.626
       145.     4.7416     17.615
       145.     4.7511      18.85
       145.     4.7606     19.592
       145.     4.7669     20.333
       145.     4.7828     21.075
       145.     4.7955     20.089
       145.      4.805      20.09
       145.     4.8114     18.609
       145.     4.8209      18.61
       145.     4.8305     17.623
       145.     4.8432     17.131
       145.     4.8559     17.379
       145.     4.8622     16.639
       145.     4.8749     16.887
       145.     4.8813     17.628
       145.     4.8908     16.888
       145.     4.9035     18.618
       145.     4.9098     17.384
       145.     4.9194     17.385
       145.     4.9257     18.127
       145.     4.9416     18.128
       145.     4.9575      18.13
       145.     4.9733     18.131
       145.     4.9765     17.391
       145.     4.9956      17.64
       145.     5.0051     18.381
       145.     5.0146     18.876
       145.     5.0209     19.617
       145.     5.0336       21.1
       145.     5.0368     21.841
       145.     5.0494     24.065
       145.     5.0589     26.041
       145.     5.0716     26.536
       145.     5.0811     28.512
       145.     5.0906     29.501
       145.     5.1033     30.737
       145.     5.1128     31.479
       145.     5.1255     31.974
       145.     5.1318     33.703
       145.     5.1477     33.704
       145.     5.1604     33.952
       145.     5.1699       34.2
       145.     5.1794     34.448
       145.     5.1953     34.697
       145.      5.208     34.945
       145.     5.2238     34.946
       145.     5.2397     34.454
       145.     5.2492     36.677
       145.     5.2587     36.925
       145.     5.2714     36.926
       145.     5.2873     36.928
       145.     5.2905     34.953
       145.     5.3064     36.436
       145.     5.3096     34.708
       145.     5.3286     35.451
       145.     5.3381     34.464
       145.     5.3508     33.971
       145.     5.3667      34.96
       145.     5.3794     34.715
       145.     5.3953      35.21
       145.     5.4175     34.719
       145.     5.4239     33.978
       145.     5.4366     34.227
       145.     5.4366     32.992
       145.     5.4524     33.241
       145.      5.462      31.76
       145.     5.4683     32.501
       145.     5.4842     31.762
       145.     5.4969     31.763
       145.     5.5033     30.776
       145.      5.516     32.012
       145.     5.5287     31.767
       145.      5.535     33.002
       145.     5.5445     31.274
       145.     5.5668     31.276
       145.     5.5763     31.524
       145.      5.589     31.279
       145.     5.5953      32.02
       145.      5.608     32.762
       145.     5.6302     32.023
       145.     5.6493     31.778
       145.     5.6652     30.545
       145.     5.6842     30.547
       145.     5.7001      31.29
       145.     5.7096     29.315
       145.     5.7128     30.303
       145.     5.7255     29.564
       145.     5.7351     28.824
       145.     5.7446     28.084
       145.     5.7573     27.345
       145.       5.77     26.605
       145.     5.7764     25.618
       145.     5.7827     24.878
       145.     5.7986     24.633
       145.     5.8145     23.893
       145.     5.8272     24.635
       145.     5.8367     23.402
       145.     5.8494      23.65
       145.      5.859     23.157
       145.     5.8622     21.923
       145.      5.878     21.924
       145.     5.8844     20.443
       145.     5.8971     20.445
       145.     5.9066     19.952
       145.      5.913     19.212
       145.     5.9225     17.731
       145.     5.9225     18.966
       145.     5.9384     17.733
       145.     5.9416     16.498
       145.     5.9575     16.253
       145.     5.9638     15.266
       145.     5.9765     16.996
       145.     5.9861     16.009
       145.     5.9987     17.245
       165.      3.988     76.405
       165.     4.0007     73.927
       165.     4.0135     71.449
       165.     4.0231     67.731
       165.     4.0358     67.733
       165.     4.0518     65.503
       165.     4.0612     68.729
       165.     4.0675     71.706
       165.     4.0769     74.684
       165.     4.0895     79.647
       165.     4.0987     88.329
       165.     4.1082     91.058
       165.     4.1208     92.549
       165.     4.1272     93.542
       165.      4.143     94.289
       165.     4.1494     93.298
       165.      4.159     89.579
       165.     4.1655     84.868
       165.     4.1751     82.389
       165.     4.1879     77.679
       165.     4.1975     74.953
       165.     4.2071      74.21
       165.     4.2198     71.237
       165.     4.2263     68.013
       165.     4.2359     63.303
       165.     4.2488     58.593
       165.     4.2584      55.37
       165.     4.2648     52.147
       165.     4.2776     47.933
       165.     4.2872     45.951
       165.     4.2968     42.728
       165.     4.3033     38.761
       165.      4.316     37.771
       165.     4.3256     36.285
       165.     4.3351      35.79
       165.     4.3478     35.545
       165.     4.3574     35.794
       165.     4.3606     34.803
       165.     4.3733     34.805
       165.     4.3765     33.317
       165.     4.3861     31.087
       165.     4.3957     27.864
       165.     4.4052      26.13
       165.     4.4179      26.38
       165.     4.4243     27.373
       165.      4.437     27.127
       165.     4.4497      27.13
       165.      4.456     25.891
       165.     4.4656     23.412
       165.     4.4752     20.934
       165.      4.488     18.208
       165.     4.4976     14.985
       165.      4.504     12.754
       165.     4.5167      12.26
       165.     4.5263     11.518
       165.     4.5358     11.024
       165.     4.5517     10.778
       165.     4.5644     10.284
       165.     4.5803     9.5431
       165.     4.5867     7.3121
       165.     4.5963     6.0737
       165.      4.609     4.8358
       165.     4.6122     3.5963
       165.     4.6218     3.1019
       165.     4.6345      2.608
       165.     4.6472     2.8582
       165.     4.6567     2.3638
       165.     4.6726     2.3665
       165.     4.6884     2.8653
       165.     4.7011     3.8595
       165.      4.717     4.3583
       165.     4.7265     5.3519
       165.      4.736     6.3456
       165.     4.7455     7.0913
       165.     4.7581     8.3335
       165.     4.7644     9.3267
       165.     4.7771     10.073
       165.     4.7835     10.818
       165.      4.793     11.564
       165.     4.8024     12.805
       165.     4.8215     12.809
       165.     4.8342     12.811
       165.     4.8501     12.814
       165.     4.8596     12.071
       165.     4.8755     12.322
       165.     4.8818     11.579
       165.     4.8945     11.829
       165.      4.904     13.071
       165.     4.9167     12.577
       165.     4.9263     12.579
       165.     4.9358     13.076
       165.     4.9485     13.574
       165.     4.9643     14.073
       165.     4.9802     14.324
       165.     4.9897     14.574
       165.     5.0024     15.072
       165.     5.0119     16.065
       165.     5.0245      17.06
       165.      5.034     18.549
       165.     5.0467     19.296
       165.     5.0562     21.777
       165.     5.0657     21.035
       165.     5.0784     22.277
       165.     5.0879     23.271
       165.      5.091     24.511
       165.     5.1036     26.498
       165.     5.1131     30.468
       165.     5.1257     32.206
       165.     5.1416     32.457
       165.     5.1416     31.465
       165.     5.1543     31.715
       165.     5.1734     30.478
       165.     5.1829     30.728
       165.     5.1892     31.473
       165.     5.2019     31.227
       165.     5.2146     31.477
       165.     5.2273     32.223
       165.     5.2368     31.729
       165.     5.2495     32.475
       165.     5.2622     32.973
       165.     5.2717     33.223
       165.     5.2844     33.473
       165.      5.294     31.987
       165.     5.3066     32.733
       165.     5.3162     33.231
       165.     5.3162     32.239
       165.     5.3257     34.224
       165.      5.332     35.713
       165.     5.3478     35.716
       165.      5.351     34.725
       165.     5.3605     35.222
       165.     5.3732     35.224
       165.     5.3828     35.226
       165.     5.3955     34.732
       165.      5.405      35.23
       165.     5.4114     34.487
       165.     5.4241     34.737
       165.     5.4399      34.74
       165.     5.4463     33.253
       165.     5.4622     32.016
       165.     5.4622     33.256
       165.     5.4781     32.018
       165.     5.4845     30.283
       165.      5.494     29.541
       165.     5.5068     28.551
       165.     5.5163     29.049
       165.     5.5259     27.066
       165.     5.5385     27.564
       165.     5.5449     25.829
       165.     5.5576     25.832
       165.     5.5672     24.593
       165.     5.5831     25.092
       165.     5.5894     24.101
       165.     5.5926     23.109
       165.     5.6117     23.113
       165.     5.6181      22.37
       165.     5.6308     21.628
       165.     5.6372     20.389
       165.     5.6498     20.639
       165.     5.6626     19.897
       165.     5.6784     19.652
       165.     5.6975     20.151
       165.     5.7134      19.41
       165.     5.7261     18.668
       165.     5.7388     18.422
       165.     5.7484     16.936
       165.     5.7579     16.193
       165.     5.7674     15.947
       165.     5.7833     15.702
       165.     5.7865     14.462
       165.     5.8024     14.217
       165.     5.8151     13.475
       165.     5.8278     12.733
       165.     5.8374     10.999
       165.     5.8596     11.003
       165.     5.8628     12.243
       165.     5.8755     12.245
       165.     5.8818     13.239
       165.     5.8913      13.24
       165.     5.9009     12.746
       165.     5.9104     13.491
       165.     5.9263     12.998
       165.     5.9358     12.256
       165.     5.9549     12.011
       165.     5.9707     12.014
       165.     5.9834     11.768
       165.     5.9897     13.009
       165.     5.9994     8.7945
ENDDATA            856
ENDSUBENT          890
SUBENT        F1053012   20100210   20100518   20100518       F038
BIB                  6         25
REACTION   (8-O-16(D,P)8-O-17,PAR,DA)
DETECTOR   (SOLST) Four solid state detectors suspended from a
           movable support allowed data to be collected
           simultaneously at four angles. A fifth solid state
           detector was held fixed at 90 degr. to the beam
           direction for use as a monitor during measurement of
           the angular distributions and as a fifth detector
           during the measurement of the yield curves.
SAMPLE     The targets consisted entirely of calcium hydroxide
           [Ca(OH)2], produced by the rapid reaction of calcium
           oxide (CaO) with air borne moisture. The angular
           distributions were measured with targets in which the
           48Ca enrichment was 87%. The target was estimated to be
           about 3 keV thick.
METHOD     (BCINT)
ERR-ANALYS (ERR-T) The total uncertainty in the absolute
           normalization was estimated to be 10% due to possible
           systematic errors arising from target nonuniformity,
           charge collection, and uncertainty as to the chemical
           nature of the target. Of this total approximately 5%
           was due to statistical errors in the data.
           (ERR-S)      Statistical error
           (EN-ERR-DIG) Energy digitizing error
           (ERR-DIG)    Data digitizing error
STATUS     (CURVE) Fig.15-16
ENDBIB              25
COMMON               4          3
ERR-T      ERR-S      EN-ERR-DIG ERR-DIG
PER-CENT   PER-CENT   MEV        MB/SR
 10.        5.         0.0015     0.0331
ENDCOMMON            3
DATA                 4       1249
E-LVL      ANG        EN         DATA
MEV        ADEG       MEV        MB/SR
         0.        65.      3.997     22.178
         0.        65.     4.0093     22.634
         0.        65.     4.0185      22.27
         0.        65.     4.0339     22.907
         0.        65.     4.0369     24.182
         0.        65.     4.0461     24.091
         0.        65.     4.0584     25.002
         0.        65.     4.0676     24.274
         0.        65.     4.0768     25.003
         0.        65.     4.0891     26.005
         0.        65.     4.0952     26.187
         0.        65.     4.1014     26.369
         0.        65.     4.1106     26.643
         0.        65.     4.1198     27.098
         0.        65.     4.1321     26.825
         0.        65.     4.1382     27.918
         0.        65.     4.1505     28.009
         0.        65.     4.1566     28.192
         0.        65.     4.1689     27.372
         0.        65.     4.1782     26.098
         0.        65.     4.1905     25.551
         0.        65.     4.1997     24.095
         0.        65.     4.2151      23.64
         0.        65.     4.2182     22.911
         0.        65.     4.2305     23.002
         0.        65.     4.2366     22.001
         0.        65.      4.249     20.635
         0.        65.     4.2643     20.726
         0.        65.     4.2736     19.998
         0.        65.     4.2828      20.18
         0.        65.     4.2889     21.456
         0.        65.     4.3012     21.911
         0.        65.     4.3104     21.729
         0.        65.     4.3165     21.456
         0.        65.     4.3258     21.365
         0.        65.     4.3411     21.548
         0.        65.     4.3503     21.001
         0.        65.     4.3595      21.73
         0.        65.     4.3688      21.73
         0.        65.      4.378     22.277
         0.        65.     4.3902      22.55
         0.        65.     4.4026     18.088
         0.        65.     4.4026     21.276
         0.        65.     4.4118     19.181
         0.        65.      4.418     17.269
         0.        65.     4.4334     16.814
         0.        65.     4.4365      15.63
         0.        65.     4.4518     16.268
         0.        65.      4.461     16.906
         0.        65.     4.4702     17.634
         0.        65.     4.4794     19.092
         0.        65.     4.4886     20.185
         0.        65.     4.4978     21.733
         0.        65.       4.51     23.099
         0.        65.     4.5377     24.557
         0.        65.     4.5469     24.011
         0.        65.     4.5592     23.647
         0.        65.     4.5685     21.735
         0.        65.     4.5808     21.097
         0.        65.       4.59     20.642
         0.        65.     4.5962     19.276
         0.        65.     4.6085      18.73
         0.        65.     4.6208     18.002
         0.        65.       4.63     16.636
         0.        65.     4.6393     15.726
         0.        65.     4.6485     15.453
         0.        65.     4.6608      16.09
         0.        65.     4.6669     15.908
         0.        65.     4.6792     16.364
         0.        65.     4.6915     16.455
         0.        65.     4.6976     15.818
         0.        65.      4.713     14.999
         0.        65.     4.7191     15.545
         0.        65.     4.7314     14.908
         0.        65.     4.7437     14.908
         0.        65.     4.7529     14.817
         0.        65.     4.7652     14.544
         0.        65.     4.7714     14.271
         0.        65.     4.7806     14.909
         0.        65.     4.7898     14.272
         0.        65.     4.8113     15.092
         0.        65.     4.8236     15.365
         0.        65.     4.8297     16.276
         0.        65.      4.842     15.912
         0.        65.     4.8543      15.73
         0.        65.     4.8635      15.73
         0.        65.     4.8727      15.73
         0.        65.     4.8819     16.914
         0.        65.     4.8973     17.006
         0.        65.     4.9004     16.642
         0.        65.     4.9126     17.462
         0.        65.     4.9219     16.096
         0.        65.     4.9311     16.551
         0.        65.     4.9434     16.005
         0.        65.     4.9496      15.55
         0.        65.     4.9618      16.37
         0.        65.     4.9741     16.552
         0.        65.     4.9833     15.824
         0.        65.     4.9925     16.188
         0.        65.     5.0048     16.917
         0.        65.      5.014     17.919
         0.        65.     5.0201     18.374
         0.        65.     5.0324     18.648
         0.        65.     5.0416     19.012
         0.        65.     5.0539     19.104
         0.        65.     5.0662     18.831
         0.        65.     5.0754     18.467
         0.        65.     5.0816     17.738
         0.        65.     5.0908     17.647
         0.        65.     5.1062     17.557
         0.        65.     5.1154     17.101
         0.        65.     5.1247       16.1
         0.        65.     5.1339     15.827
         0.        65.     5.1462     15.372
         0.        65.     5.1554     15.099
         0.        65.     5.1646     15.281
         0.        65.     5.1738     14.553
         0.        65.     5.1861     14.826
         0.        65.     5.1953     15.191
         0.        65.     5.2076     15.009
         0.        65.     5.2138     15.191
         0.        65.      5.223     15.009
         0.        65.     5.2353     14.281
         0.        65.     5.2537     14.463
         0.        65.     5.2568     14.008
         0.        65.     5.2722     14.008
         0.        65.     5.2845     14.009
         0.        65.     5.2967     14.191
         0.        65.     5.3029     13.827
         0.        65.     5.3183     13.918
         0.        65.     5.3244     13.645
         0.        65.     5.3367     13.281
         0.        65.     5.3459     12.917
         0.        65.     5.3552     12.462
         0.        65.     5.3675     11.734
         0.        65.     5.3767     12.098
         0.        65.     5.3828     12.372
         0.        65.     5.3951     12.372
         0.        65.     5.4074     12.645
         0.        65.     5.4197     12.646
         0.        65.     5.4258     13.192
         0.        65.      5.435     13.374
         0.        65.     5.4473     14.285
         0.        65.     5.4565     13.739
         0.        65.     5.4657     14.104
         0.        65.      5.478     14.286
         0.        65.     5.4811     15.015
         0.        65.     5.4995     15.106
         0.        65.     5.5087     15.561
         0.        65.     5.5179     15.015
         0.        65.     5.5271     15.198
         0.        65.     5.5394     15.562
         0.        65.     5.5486     15.107
         0.        65.     5.5579     14.196
         0.        65.     5.5671      14.47
         0.        65.     5.5763     13.286
         0.        65.     5.5855     13.286
         0.        65.     5.5978     13.196
         0.        65.     5.6071     12.467
         0.        65.     5.6194     11.921
         0.        65.     5.6255     11.648
         0.        65.     5.6378     11.739
         0.        65.     5.6409     11.011
         0.        65.     5.6563     11.467
         0.        65.     5.6685     12.013
         0.        65.     5.6747     11.467
         0.        65.      5.687     12.469
         0.        65.     5.6993     11.832
         0.        65.     5.7054     12.651
         0.        65.     5.7177     12.925
         0.        65.       5.73     12.379
         0.        65.     5.7361     11.741
         0.        65.     5.7484     11.377
         0.        65.     5.7576     11.104
         0.        65.     5.7669     10.103
         0.        65.     5.7792     9.4656
         0.        65.     5.7915     8.7374
         0.        65.     5.8038     8.1001
         0.        65.     5.8222     8.1005
         0.        65.     5.8376     7.9187
         0.        65.     5.8499     7.4636
         0.        65.     5.8591     7.1906
         0.        65.     5.8652     7.9193
         0.        65.     5.8745     7.9195
         0.        65.     5.8868     7.4644
         0.        65.      5.899      8.011
         0.        65.     5.9113     8.4666
         0.        65.     5.9267     8.7402
         0.        65.      5.942     8.8315
         0.        65.     5.9482     9.0138
         0.        65.     5.9543     9.6514
         0.        65.     5.9666     9.6516
         0.        65.     5.9789     10.198
         0.        65.      5.985     10.472
         0.        65.     5.9973     10.472
         0.        90.     4.2049     15.968
         0.        90.     4.2111     15.199
         0.        90.     4.2204     14.174
         0.        90.     4.2357     14.495
         0.        90.     4.2419     13.533
         0.        90.     4.2543     12.508
         0.        90.     4.2634     13.149
         0.        90.     4.2758     12.701
         0.        90.      4.285     12.701
         0.        90.     4.2972     13.022
         0.        90.     4.3034     13.406
         0.        90.     4.3157     13.278
         0.        90.     4.3249      12.83
         0.        90.     4.3341     12.766
         0.        90.     4.3433      12.83
         0.        90.     4.3495     12.638
         0.        90.     4.3618     12.702
         0.        90.     4.3741     12.895
         0.        90.     4.3832     13.472
         0.        90.     4.3924     14.562
         0.        90.     4.4047     15.139
         0.        90.     4.4139     14.755
         0.        90.     4.4231     14.242
         0.        90.     4.4324     13.601
         0.        90.     4.4447     12.833
         0.        90.     4.4509     12.448
         0.        90.     4.4632     12.769
         0.        90.     4.4754     13.346
         0.        90.     4.4846     13.987
         0.        90.     4.4907     14.436
         0.        90.      4.503     15.013
         0.        90.     4.5152     15.911
         0.        90.     4.5244     17.385
         0.        90.     4.5397     17.835
         0.        90.     4.5428     17.386
         0.        90.      4.552     16.873
         0.        90.     4.5643     16.809
         0.        90.     4.5736     15.207
         0.        90.      4.586      14.31
         0.        90.     4.5952     13.028
         0.        90.     4.6076     12.067
         0.        90.     4.6107     11.234
         0.        90.     4.6261     10.721
         0.        90.     4.6353     10.144
         0.        90.     4.6446     9.4395
         0.        90.     4.6569     8.8629
         0.        90.      4.663     9.1835
         0.        90.     4.6753     9.1838
         0.        90.     4.6845      9.825
         0.        90.     4.6968     9.4407
         0.        90.      4.706     9.2486
         0.        90.     4.7183      9.313
         0.        90.     4.7245     9.5695
         0.        90.     4.7337     9.6338
         0.        90.     4.7429      9.634
         0.        90.     4.7552     9.2497
         0.        90.     4.7644     9.0576
         0.        90.     4.7767     9.1219
         0.        90.      4.789     8.7376
         0.        90.     4.7983     8.3532
         0.        90.     4.8075     8.1611
         0.        90.     4.8167     7.7767
         0.        90.     4.8229     7.3922
         0.        90.     4.8352     7.3925
         0.        90.     4.8475     7.3928
         0.        90.     4.8536     7.2647
         0.        90.     4.8628     7.3931
         0.        90.     4.8782     7.4575
         0.        90.     4.8904     7.7783
         0.        90.     4.8966     8.4836
         0.        90.     4.9058     8.0992
         0.        90.      4.915      7.843
         0.        90.     4.9242      7.715
         0.        90.     4.9365     7.9716
         0.        90.     4.9457     7.9718
         0.        90.      4.955     7.5233
         0.        90.     4.9673     7.7159
         0.        90.     4.9795     8.0367
         0.        90.     4.9857      7.524
         0.        90.      4.998     7.6525
         0.        90.     5.0102     8.1656
         0.        90.     5.0256     8.2941
         0.        90.     5.0286     9.3198
         0.        90.     5.0409     8.6791
         0.        90.     5.0501     9.2562
         0.        90.     5.0563      9.064
         0.        90.     5.0655     9.3847
         0.        90.     5.0808     9.7056
         0.        90.      5.087     9.5134
         0.        90.     5.0992     9.8983
         0.        90.     5.1146     9.8986
         0.        90.     5.1207      10.86
         0.        90.     5.1422     10.092
         0.        90.     5.1515     9.9636
         0.        90.     5.1607     10.156
         0.        90.     5.1699     10.284
         0.        90.     5.1822     10.349
         0.        90.     5.1914     10.541
         0.        90.     5.2006     10.285
         0.        90.     5.2129     10.157
         0.        90.     5.2221      9.901
         0.        90.     5.2314     9.6448
         0.        90.     5.2375     9.4526
         0.        90.     5.2498     9.4529
         0.        90.      5.259     9.1967
         0.        90.     5.2713     9.3893
         0.        90.     5.2836     9.3255
         0.        90.     5.2867      9.005
         0.        90.      5.299     8.6848
         0.        90.     5.3113     8.6851
         0.        90.     5.3205     8.7494
         0.        90.     5.3297     8.8137
         0.        90.      5.342     8.4293
         0.        90.     5.3451     7.9807
         0.        90.     5.3574      7.981
         0.        90.     5.3697     7.7889
         0.        90.     5.3789      7.725
         0.        90.     5.3882     7.5329
         0.        90.     5.4097     7.4693
         0.        90.      5.422     7.3414
         0.        90.     5.4342     7.3416
         0.        90.     5.4434     7.8547
         0.        90.     5.4527     7.7908
         0.        90.     5.4619     7.4705
         0.        90.     5.4711     7.9835
         0.        90.     5.4834     7.9837
         0.        90.     5.4895     7.8557
         0.        90.     5.4987     7.8559
         0.        90.      5.511     8.1767
         0.        90.     5.5202     8.0487
         0.        90.     5.5325      8.113
         0.        90.     5.5417     8.0491
         0.        90.      5.554     8.5622
         0.        90.     5.5632     8.2419
         0.        90.     5.5725     7.9857
         0.        90.     5.5817     7.6013
         0.        90.     5.5909     7.7297
         0.        90.     5.6032     7.4736
         0.        90.     5.6124     7.4097
         0.        90.     5.6216     7.6663
         0.        90.     5.6309     7.5383
         0.        90.     5.6431     7.7309
         0.        90.     5.6523     7.7952
         0.        90.     5.6616     8.0518
         0.        90.     5.6738     8.1162
         0.        90.     5.6861     8.1805
         0.        90.     5.6892     8.6293
         0.        90.     5.7045      8.822
         0.        90.     5.7107     9.0785
         0.        90.     5.7229      9.207
         0.        90.     5.7322     9.2072
         0.        90.     5.7414     9.0151
         0.        90.     5.7537     8.9512
         0.        90.     5.7629     8.8874
         0.        90.     5.7752     8.6312
         0.        90.     5.7844     8.5032
         0.        90.     5.7967     8.1189
         0.        90.     5.8029     7.7985
         0.        90.     5.8152     7.7347
         0.        90.     5.8275     7.5426
         0.        90.     5.8306      7.094
         0.        90.     5.8459     6.8379
         0.        90.     5.8551     7.1586
         0.        90.     5.8613     7.4793
         0.        90.     5.8736     7.3514
         0.        90.     5.8828     7.4798
         0.        90.      5.892     7.8646
         0.        90.     5.9012     7.8007
         0.        90.     5.9135     8.0574
         0.        90.     5.9227     7.7371
         0.        90.      5.938      8.122
         0.        90.     5.9473     8.1222
         0.        90.     5.9534       7.93
         0.        90.     5.9657     7.9303
         0.        90.     5.9749     8.0587
         0.        90.     5.9841     8.3794
         0.        90.     5.9964     8.7643
         0.        90.     6.0056     9.5978
         0.        90.     6.0147     10.239
         0.       115.     3.9984     17.201
         0.       115.     4.0107     16.785
         0.       115.     4.0199     16.438
         0.       115.     4.0322     16.508
         0.       115.     4.0414     16.508
         0.       115.     4.0507     16.092
         0.       115.     4.0629     16.509
         0.       115.     4.0722     15.814
         0.       115.     4.0814      16.44
         0.       115.     4.0936     17.134
         0.       115.     4.1028     17.829
         0.       115.     4.1151     18.454
         0.       115.     4.1243     18.107
         0.       115.     4.1365     18.732
         0.       115.     4.1427     18.455
         0.       115.     4.1519      19.08
         0.       115.     4.1642     18.872
         0.       115.     4.1734     18.733
         0.       115.     4.1826     18.942
         0.       115.      4.198     18.387
         0.       115.     4.2042     17.484
         0.       115.     4.2165     17.554
         0.       115.     4.2227     16.999
         0.       115.     4.2319     16.791
         0.       115.     4.2442     16.513
         0.       115.     4.2534     16.374
         0.       115.     4.2626     16.166
         0.       115.      4.275     15.403
         0.       115.     4.2811      14.57
         0.       115.     4.2934     14.362
         0.       115.     4.3058     13.945
         0.       115.      4.312     12.696
         0.       115.     4.3242     12.696
         0.       115.     4.3335     12.279
         0.       115.     4.3427     12.071
         0.       115.      4.355     12.419
         0.       115.     4.3612     11.725
         0.       115.     4.3734     11.725
         0.       115.     4.3826     12.489
         0.       115.     4.3917     14.503
         0.       115.     4.4009     15.823
         0.       115.     4.4132     15.615
         0.       115.     4.4256     14.157
         0.       115.     4.4348     13.115
         0.       115.     4.4441     12.282
         0.       115.     4.4503     11.657
         0.       115.     4.4626     11.172
         0.       115.     4.4718     11.172
         0.       115.     4.4841     10.686
         0.       115.     4.4903     10.408
         0.       115.     4.5025     10.964
         0.       115.     4.5117      11.52
         0.       115.     4.5209     12.562
         0.       115.     4.5362     13.257
         0.       115.     4.5423     13.673
         0.       115.     4.5515      14.09
         0.       115.     4.5607     14.577
         0.       115.       4.57      14.16
         0.       115.     4.5853     14.161
         0.       115.     4.5915     13.328
         0.       115.     4.6007     12.564
         0.       115.      4.613     12.425
         0.       115.     4.6254     11.453
         0.       115.     4.6316     10.759
         0.       115.     4.6408     10.759
         0.       115.     4.6531      10.76
         0.       115.     4.6653     11.107
         0.       115.     4.6746      10.83
         0.       115.     4.6838     10.274
         0.       115.     4.6992     10.414
         0.       115.     4.7084     10.275
         0.       115.     4.7176     10.414
         0.       115.     4.7207     9.8587
         0.       115.      4.733     10.137
         0.       115.     4.7453     9.8594
         0.       115.     4.7576     10.137
         0.       115.     4.7668     9.7904
         0.       115.      4.776     9.6518
         0.       115.     4.7852     9.4437
         0.       115.     4.7945     8.5412
         0.       115.     4.8037      8.472
         0.       115.     4.8191     8.1252
         0.       115.     4.8283     7.7782
         0.       115.     4.8406     8.1952
         0.       115.     4.8529     8.3344
         0.       115.      4.859     8.4734
         0.       115.     4.8682     8.6819
         0.       115.     4.8775      8.335
         0.       115.     4.8866     9.0296
         0.       115.     4.8989     9.6549
         0.       115.     4.9082     8.8913
         0.       115.     4.9173     9.5859
         0.       115.     4.9266     8.8223
         0.       115.     4.9389     8.8226
         0.       115.     4.9512     8.5451
         0.       115.     4.9665     8.8233
         0.       115.     4.9819     9.3097
         0.       115.      4.988     9.1016
         0.       115.     5.0003     9.2408
         0.       115.     5.0095     9.4493
         0.       115.     5.0156     9.6578
         0.       115.     5.0248     9.8663
         0.       115.     5.0371     10.006
         0.       115.     5.0494     10.006
         0.       115.     5.0586     10.145
         0.       115.     5.0709     10.215
         0.       115.     5.0863     10.493
         0.       115.     5.0985     10.979
         0.       115.     5.1077     11.327
         0.       115.     5.1169     11.396
         0.       115.     5.1292     11.674
         0.       115.     5.1354     11.258
         0.       115.     5.1507     11.675
         0.       115.     5.1599     11.883
         0.       115.     5.1722     11.953
         0.       115.     5.1815      11.19
         0.       115.     5.1907     10.426
         0.       115.      5.203     10.218
         0.       115.     5.2092      10.01
         0.       115.     5.2153     9.8711
         0.       115.     5.2245     9.8713
         0.       115.     5.2307     9.0382
         0.       115.     5.2399     9.3162
         0.       115.     5.2522     9.1082
         0.       115.     5.2584     8.5528
         0.       115.     5.2707     8.6226
         0.       115.     5.2799      8.345
         0.       115.     5.2922     7.9981
         0.       115.     5.3015     7.5817
         0.       115.     5.3107     7.0959
         0.       115.     5.3261     7.0963
         0.       115.     5.3414     7.1661
         0.       115.     5.3537     7.1664
         0.       115.     5.3598     7.5832
         0.       115.     5.3752     7.3753
         0.       115.     5.3936     7.2368
         0.       115.      5.409     7.5844
         0.       115.     5.4243     7.5154
         0.       115.     5.4336      7.585
         0.       115.     5.4428     7.7936
         0.       115.     5.4612     7.6552
         0.       115.     5.4735     8.0721
         0.       115.     5.4858     8.0724
         0.       115.     5.4981     7.9338
         0.       115.     5.5165     8.0037
         0.       115.     5.5226     7.6567
         0.       115.     5.5349     8.0042
         0.       115.      5.541     8.4904
         0.       115.     5.5564     8.4908
         0.       115.     5.5626     8.2132
         0.       115.     5.5748     8.4218
         0.       115.     5.5902     8.3528
         0.       115.     5.6055     8.8393
         0.       115.     5.6178     8.7007
         0.       115.     5.6209     9.1868
         0.       115.     5.6301     9.3954
         0.       115.     5.6485     9.6736
         0.       115.     5.6546     10.021
         0.       115.     5.6669     10.577
         0.       115.     5.6792     10.855
         0.       115.     5.6976     11.064
         0.       115.     5.7068     10.925
         0.       115.     5.7129     12.383
         0.       115.     5.7252     12.314
         0.       115.     5.7344     12.384
         0.       115.     5.7467     12.523
         0.       115.      5.759     12.454
         0.       115.     5.7682     12.246
         0.       115.     5.7805     12.246
         0.       115.     5.7897     12.108
         0.       115.      5.802     12.108
         0.       115.     5.8204     12.039
         0.       145.     4.0027     12.702
         0.       145.     4.0119     12.185
         0.       145.     4.0211     12.185
         0.       145.     4.0334     11.668
         0.       145.     4.0457     11.898
         0.       145.      4.058     11.783
         0.       145.     4.0641     11.438
         0.       145.     4.0734     10.863
         0.       145.     4.0857     11.093
         0.       145.     4.0918     11.611
         0.       145.     4.1041     12.818
         0.       145.     4.1163      13.68
         0.       145.     4.1317     14.312
         0.       145.     4.1378     14.714
         0.       145.     4.1501     14.944
         0.       145.     4.1593     14.714
         0.       145.     4.1655     14.542
         0.       145.     4.1778     14.427
         0.       145.      4.187     13.968
         0.       145.     4.1993     14.025
         0.       145.     4.2116     13.393
         0.       145.     4.2208     14.083
         0.       145.       4.23       14.6
         0.       145.     4.2361     15.347
         0.       145.     4.2484     15.347
         0.       145.     4.2607     14.945
         0.       145.     4.2699      15.06
         0.       145.     4.2791     14.658
         0.       145.     4.2914     14.543
         0.       145.     4.3007     13.509
         0.       145.      4.313     12.704
         0.       145.     4.3191     12.014
         0.       145.     4.3283       11.9
         0.       145.     4.3406     11.842
         0.       145.     4.3499     11.268
         0.       145.     4.3591     10.923
         0.       145.     4.3683     11.095
         0.       145.     4.3806     11.383
         0.       145.     4.3898     12.015
         0.       145.      4.399      12.82
         0.       145.     4.4113     12.417
         0.       145.     4.4205     11.325
         0.       145.     4.4267     10.349
         0.       145.      4.439     9.9463
         0.       145.     4.4482     10.004
         0.       145.     4.4605     9.6591
         0.       145.     4.4697     10.061
         0.       145.     4.4789     9.7742
         0.       145.     4.4881     9.4869
         0.       145.     4.5004     9.7168
         0.       145.     4.5096      9.602
         0.       145.     4.5188     10.579
         0.       145.     4.5311     11.556
         0.       145.     4.5403     12.476
         0.       145.     4.5526     13.108
         0.       145.     4.5587     13.453
         0.       145.      4.571     14.085
         0.       145.     4.5833      13.97
         0.       145.     4.5895     12.993
         0.       145.     4.5987     12.476
         0.       145.      4.611     11.902
         0.       145.     4.6202     12.476
         0.       145.     4.6325     11.729
         0.       145.     4.6387     9.7753
         0.       145.      4.651     10.063
         0.       145.     4.6602     9.7754
         0.       145.     4.6694     11.212
         0.       145.     5.0657     8.7438
         0.       145.     5.0749     9.7209
         0.       145.     5.0749     9.2036
         0.       145.     5.0841     10.296
         0.       145.     5.0965     8.4567
         0.       145.     5.1057      8.859
         0.       145.     5.1149     8.6867
         0.       145.      5.121     9.1465
         0.       145.     5.1333     9.1466
         0.       145.     5.1456     8.9168
         0.       145.     5.1579     8.2847
         0.       145.     5.1671     7.8824
         0.       145.     5.1733     7.0779
         0.       145.     5.1825      6.963
         0.       145.     5.1948     6.9631
         0.       145.     5.2071     7.0781
         0.       145.     5.2132     6.8483
         0.       145.     5.2255     6.8484
         0.       145.     5.2347     6.5611
         0.       145.      5.244     6.0439
         0.       145.     5.2562     6.6762
         0.       145.     5.2655      6.159
         0.       145.     5.2778     5.9292
         0.       145.      5.287     5.4695
         0.       145.     5.2931     5.2971
         0.       145.     5.3054     5.0673
         0.       145.     5.3147     4.6076
         0.       145.      5.327     4.2054
         0.       145.     5.3362     3.9756
         0.       145.     5.3454     3.8607
         0.       145.     5.3546     4.1481
         0.       145.       5.37     4.2057
         0.       145.     5.3792     4.3782
         0.       145.     5.3915     4.5507
         0.       145.     5.4007     4.7232
         0.       145.     5.4068     5.0106
         0.       145.     5.4222     5.1256
         0.       145.     5.4345     5.2406
         0.       145.     5.4467     5.5281
         0.       145.      5.456     5.6431
         0.       145.     5.4682     5.6432
         0.       145.     5.4775     5.5858
         0.       145.     5.4898     5.7583
         0.       145.     5.4959     5.1836
         0.       145.     5.5082     5.1837
         0.       145.     5.5174     5.1837
         0.       145.     5.5266     4.8965
         0.       145.     5.5389     4.8965
         0.       145.     5.5481     4.9541
         0.       145.     5.5604     4.8967
         0.       145.     5.5696     4.7818
         0.       145.     5.5789     4.6669
         0.       145.     5.5881     4.3796
         0.       145.     5.6004     4.6096
         0.       145.     5.6096     4.7821
         0.       145.     5.6219     4.7247
         0.       145.      5.628     4.4374
         0.       145.     5.6403     4.8972
         0.       145.     5.6464     5.2421
         0.       145.     5.6557     5.2997
         0.       145.     5.6587     5.6445
         0.       145.     5.6679     5.3572
         0.       145.     5.6833     5.5872
         0.       145.     5.6956     5.5873
         0.       145.     5.7079     5.6448
         0.       145.     5.7263     5.9323
         0.       145.     5.7325      5.645
         0.       145.     5.7386     5.9899
         0.       145.     5.7509     6.0474
         0.       145.     5.7632     5.8751
         0.       145.     5.7755     5.9327
         0.       145.     5.7908     5.9328
         0.       145.     5.8062     5.9329
         0.       145.     5.8185     5.7031
         0.       145.     5.8369     5.7607
         0.       145.      5.843     6.2205
         0.       145.     5.8553     6.5079
         0.       145.     5.8738     6.5081
         0.       145.      5.886     7.6001
         0.       145.     5.8952     7.8875
         0.       145.     5.9075     7.8302
         0.       145.     5.9198     8.4624
         0.       145.      5.926     8.1176
         0.       145.     5.9352     8.4625
         0.       145.     5.9475     8.5201
         0.       145.     5.9567     8.0604
         0.       145.      5.969     8.1754
         0.       145.     5.9782     7.9456
         0.       145.     5.9843     7.6583
         0.       145.     5.9997     7.7159
         0.       145.     6.0089     7.2562
         0.       145.     6.0181     7.2562
         0.       145.     6.0304     7.1414
      0.871        65.     3.9943     17.936
      0.871        65.     4.0005     19.047
      0.871        65.      4.013     20.159
      0.871        65.     4.0193     19.326
      0.871        65.     4.0318     18.956
      0.871        65.     4.0445     17.105
      0.871        65.     4.0539     16.179
      0.871        65.     4.0634     14.698
      0.871        65.     4.0729     12.755
      0.871        65.     4.0886     12.015
      0.871        65.     4.0948     12.941
      0.871        65.     4.1042     13.311
      0.871        65.     4.1167     13.497
      0.871        65.     4.1293     13.405
      0.871        65.     4.1324     13.961
      0.871        65.     4.1449     13.776
      0.871        65.     4.1544     13.406
      0.871        65.     4.1669     13.314
      0.871        65.     4.1763     14.148
      0.871        65.     4.1857     14.241
      0.871        65.      4.192     13.408
      0.871        65.     4.2045     13.408
      0.871        65.     4.2139     13.872
      0.871        65.     4.2233     13.594
      0.871        65.     4.2359     12.947
      0.871        65.     4.2484     12.762
      0.871        65.     4.2578     13.133
      0.871        65.     4.2672     13.596
      0.871        65.     4.2797     13.689
      0.871        65.      4.289     16.375
      0.871        65.     4.2984     17.579
      0.871        65.     4.3014     18.412
      0.871        65.      4.314     18.783
      0.871        65.     4.3265     19.154
      0.871        65.     4.3327     19.617
      0.871        65.     4.3484      19.71
      0.871        65.     4.3672     20.914
      0.871        65.     4.3797       21.1
      0.871        65.     4.3891     20.823
      0.871        65.     4.4016     21.009
      0.871        65.      4.411     20.824
      0.871        65.     4.4142     21.287
      0.871        65.     4.4267     20.732
      0.871        65.     4.4393     20.362
      0.871        65.     4.4518     20.177
      0.871        65.     4.4549     20.548
      0.871        65.     4.4675     20.178
      0.871        65.     4.4801     19.438
      0.871        65.     4.4864      18.79
      0.871        65.     4.4989     19.254
      0.871        65.     4.5114     19.624
      0.871        65.     4.5208     20.643
      0.871        65.     4.5333     20.829
      0.871        65.     4.5395     21.755
      0.871        65.     4.5458     21.015
      0.871        65.     4.5521     21.108
      0.871        65.     4.5615     21.201
      0.871        65.     4.5678     20.553
      0.871        65.     4.5803     20.553
      0.871        65.     4.5897     21.017
      0.871        65.     4.6054     21.202
      0.871        65.     4.6085     21.665
      0.871        65.     4.6148     21.388
      0.871        65.     4.6304     21.574
      0.871        65.     4.6399     21.111
      0.871        65.     4.6524     21.482
      0.871        65.     4.6617     22.408
      0.871        65.     4.6712      21.02
      0.871        65.     4.6869     21.021
      0.871        65.       4.69     21.576
      0.871        65.     4.7026     20.188
      0.871        65.     4.7151     20.189
      0.871        65.     4.7183     20.467
      0.871        65.     4.7308     20.282
      0.871        65.     4.7402     20.005
      0.871        65.     4.7496     20.005
      0.871        65.     4.7591     19.543
      0.871        65.     4.7653     19.265
      0.871        65.     4.7842     19.266
      0.871        65.     4.7935     20.007
      0.871        65.      4.803     19.544
      0.871        65.     4.8092     20.193
      0.871        65.     4.8186     19.082
      0.871        65.     4.8311     20.286
      0.871        65.     4.8406     19.176
      0.871        65.       4.85     19.361
      0.871        65.     4.8594     18.991
      0.871        65.      4.872     18.251
      0.871        65.     4.8814     17.881
      0.871        65.     4.8908     18.252
      0.871        65.     4.9033     17.975
      0.871        65.     4.9126     20.012
      0.871        65.     4.9221     18.531
      0.871        65.     4.9315     18.902
      0.871        65.     4.9409     19.365
      0.871        65.     4.9503     20.014
      0.871        65.     4.9628     20.292
      0.871        65.     4.9722     20.477
      0.871        65.     4.9784     21.218
      0.871        65.     4.9941     21.126
      0.871        65.     5.0003     22.423
      0.871        65.     5.0097     22.608
      0.871        65.     5.0191     23.627
      0.871        65.     5.0284     24.368
      0.871        65.     5.0409     24.739
      0.871        65.     5.0473     23.906
      0.871        65.     5.0629     23.999
      0.871        65.     5.0692     23.167
      0.871        65.     5.0787     22.519
      0.871        65.     5.0943     22.334
      0.871        65.     5.1038     21.872
      0.871        65.     5.1132     21.224
      0.871        65.     5.1164     20.576
      0.871        65.     5.1321     20.114
      0.871        65.     5.1415     20.485
      0.871        65.     5.1478      19.93
      0.871        65.     5.1571     20.485
      0.871        65.     5.1697     20.486
      0.871        65.     5.1822     20.394
      0.871        65.     5.1885     20.672
      0.871        65.     5.1979     20.765
      0.871        65.     5.2073     20.765
      0.871        65.     5.2198     20.951
      0.871        65.     5.2324     20.859
      0.871        65.     5.2386     20.489
      0.871        65.     5.2512     20.675
      0.871        65.     5.2543     20.119
      0.871        65.     5.2669     20.027
      0.871        65.     5.2794     20.305
      0.871        65.     5.2889     19.287
      0.871        65.     5.2983     18.732
      0.871        65.     5.3077     18.918
      0.871        65.     5.3203     17.993
      0.871        65.     5.3266     16.975
      0.871        65.      5.336     17.438
      0.871        65.     5.3454     16.883
      0.871        65.     5.3548     16.513
      0.871        65.     5.3673     17.161
      0.871        65.     5.3799     16.977
      0.871        65.     5.3862     16.607
      0.871        65.     5.3924     17.255
      0.871        65.     5.4049     17.348
      0.871        65.     5.4175     17.627
      0.871        65.       5.43     17.997
      0.871        65.     5.4362     18.275
      0.871        65.     5.4457     17.813
      0.871        65.     5.4582     18.554
      0.871        65.     5.4645     17.443
      0.871        65.      5.477     18.277
      0.871        65.     5.4833     17.907
      0.871        65.     5.4958     18.093
      0.871        65.     5.5021      17.63
      0.871        65.     5.5115     18.649
      0.871        65.     5.5271     18.557
      0.871        65.     5.5334     18.928
      0.871        65.     5.5491     17.354
      0.871        65.     5.5553     18.558
      0.871        65.     5.5648     17.262
      0.871        65.     5.5773     17.448
      0.871        65.     5.5837     16.523
      0.871        65.     5.5993     16.523
      0.871        65.     5.6056     17.079
      0.871        65.      5.615     16.154
      0.871        65.     5.6244     16.339
      0.871        65.     5.6433     15.599
      0.871        65.     5.6558     15.322
      0.871        65.     5.6653     14.026
      0.871        65.     5.6716     13.471
      0.871        65.     5.6841     13.194
      0.871        65.     5.6935     13.009
      0.871        65.      5.703     12.917
      0.871        65.     5.7124     12.732
      0.871        65.     5.7218     12.918
      0.871        65.     5.7343     12.733
      0.871        65.     5.7437     12.456
      0.871        65.     5.7563     12.086
      0.871        65.     5.7657     11.901
      0.871        65.      5.772     12.179
      0.871        65.     5.7845     11.624
      0.871        65.     5.7971     11.718
      0.871        65.     5.8065     11.811
      0.871        65.     5.8127     12.274
      0.871        65.     5.8315     12.367
      0.871        65.     5.8347     11.627
      0.871        65.     5.8441      12.09
      0.871        65.     5.8597     12.183
      0.871        65.      5.866     11.813
      0.871        65.     5.8754     11.628
      0.871        65.     5.8848     11.536
      0.871        65.     5.8943     10.981
      0.871        65.     5.9037     10.796
      0.871        65.     5.9162     10.797
      0.871        65.     5.9225     10.149
      0.871        65.     5.9319     10.797
      0.871        65.     5.9444     10.798
      0.871        65.     5.9538     11.076
      0.871        65.      5.982     10.892
      0.871        90.     3.9878     13.508
      0.871        90.     3.9972     13.962
      0.871        90.     4.0129     13.638
      0.871        90.     4.0192     13.248
      0.871        90.     4.0286     12.534
      0.871        90.      4.038      11.82
      0.871        90.     4.0537     12.145
      0.871        90.     4.0787     13.964
      0.871        90.     4.0943     15.652
      0.871        90.     4.1005     16.821
      0.871        90.     4.1131     17.276
      0.871        90.     4.1224     18.055
      0.871        90.     4.1287     18.445
      0.871        90.     4.1381     19.419
      0.871        90.     4.1506     20.004
      0.871        90.     4.1631     20.588
      0.871        90.     4.1725     21.368
      0.871        90.     4.1819     21.757
      0.871        90.     4.1913     20.978
      0.871        90.     4.2007     21.433
      0.871        90.     4.2132     21.498
      0.871        90.     4.2195     22.018
      0.871        90.     4.2321     20.849
      0.871        90.     4.2446      19.81
      0.871        90.     4.2509     20.395
      0.871        90.     4.2634     20.265
      0.871        90.     4.2729     19.875
      0.871        90.     4.2791     21.434
      0.871        90.     4.2916     21.694
      0.871        90.     4.3011     20.265
      0.871        90.     4.3136      20.46
      0.871        90.      4.323     19.551
      0.871        90.     4.3324     18.967
      0.871        90.     4.3387     18.578
      0.871        90.     4.3513     17.864
      0.871        90.     4.3639     17.149
      0.871        90.     4.3764     17.539
      0.871        90.     4.3827     17.085
      0.871        90.     4.3952      17.54
      0.871        90.     4.4046     17.864
      0.871        90.      4.414      17.41
      0.871        90.     4.4265     17.085
      0.871        90.      4.436     16.826
      0.871        90.     4.4485     16.501
      0.871        90.     4.4548     16.047
      0.871        90.     4.4674     15.463
      0.871        90.     4.4768     14.813
      0.871        90.     4.4831     14.294
      0.871        90.     4.4956     13.905
      0.871        90.     4.4987     14.229
      0.871        90.     4.5082     13.905
      0.871        90.     4.5207     14.165
      0.871        90.     4.5238     14.879
      0.871        90.     4.5363     14.684
      0.871        90.     4.5457     14.879
      0.871        90.     4.5583     15.074
      0.871        90.     4.5708     15.204
      0.871        90.     4.5771     14.945
      0.871        90.     4.5896     15.075
      0.871        90.      4.599      14.62
      0.871        90.     4.6053     14.296
      0.871        90.      4.621     14.231
      0.871        90.     4.6304     13.712
      0.871        90.     4.6398     13.257
      0.871        90.     4.6492     13.582
      0.871        90.     4.6586     13.193
      0.871        90.     4.6712     12.673
      0.871        90.     4.6775     13.063
      0.871        90.     4.6931     12.998
      0.871        90.     4.7025     12.804
      0.871        90.     4.7088     12.544
      0.871        90.     4.7182     12.869
      0.871        90.     4.7339     12.804
      0.871        90.     4.7402     12.415
      0.871        90.     4.7527     11.895
      0.871        90.      4.759     11.311
      0.871        90.     4.7716     11.181
      0.871        90.     4.7841     10.662
      0.871        90.     4.7904     11.052
      0.871        90.     4.8029     10.402
      0.871        90.     4.8217     10.727
      0.871        90.     4.8343     10.792
      0.871        90.     4.8374     10.338
      0.871        90.       4.85     10.273
      0.871        90.     4.8656     10.208
      0.871        90.     4.8687     11.442
      0.871        90.     4.8813     10.404
      0.871        90.      4.897     10.793
      0.871        90.     4.9001     11.638
      0.871        90.     4.9095     11.832
      0.871        90.      4.922     12.287
      0.871        90.     4.9314     12.547
      0.871        90.     4.9408     12.742
      0.871        90.     4.9502     12.937
      0.871        90.     4.9658     13.781
      0.871        90.     4.9659     12.937
      0.871        90.     4.9815     13.782
      0.871        90.     4.9909     13.457
      0.871        90.     5.0003     13.782
      0.871        90.     5.0034     14.107
      0.871        90.     5.0223     13.977
      0.871        90.     5.0379     13.847
      0.871        90.     5.0505     13.393
      0.871        90.     5.0599     13.458
      0.871        90.     5.0693     13.198
      0.871        90.     5.0818     13.328
      0.871        90.     5.0912     13.523
      0.871        90.     5.1006     13.264
      0.871        90.     5.1101     12.809
      0.871        90.     5.1289      12.55
      0.871        90.     5.1414     12.615
      0.871        90.     5.1477      12.81
      0.871        90.     5.1571     12.485
      0.871        90.     5.1728     12.421
      0.871        90.     5.1791     12.096
      0.871        90.     5.1885     12.096
      0.871        90.     5.2041     11.902
      0.871        90.     5.2073     11.382
      0.871        90.     5.2198     11.447
      0.871        90.     5.2323     11.967
      0.871        90.     5.2418     11.383
      0.871        90.     5.2543     11.383
      0.871        90.     5.2637     11.578
      0.871        90.     5.2731     11.123
      0.871        90.     5.2825     11.643
      0.871        90.     5.2888     11.513
      0.871        90.     5.2982     11.838
      0.871        90.     5.3076     12.228
      0.871        90.      5.317     12.098
      0.871        90.     5.3295     12.293
      0.871        90.     5.3389     12.423
      0.871        90.     5.3483     11.839
      0.871        90.     5.3578     11.449
      0.871        90.     5.3703     11.839
      0.871        90.     5.3766     10.865
      0.871        90.     5.3828      11.19
      0.871        90.     5.3985      11.06
      0.871        90.     5.4111      11.19
      0.871        90.     5.4173     10.736
      0.871        90.     5.4267     10.541
      0.871        90.     5.4361     10.931
      0.871        90.     5.4456     10.476
      0.871        90.      5.455     10.606
      0.871        90.     5.4644     10.152
      0.871        90.     5.4801     10.087
      0.871        90.     5.4863     9.6978
      0.871        90.     5.4958     9.3732
      0.871        90.      5.502     10.023
      0.871        90.     5.5052     8.9188
      0.871        90.     5.5114     9.3734
      0.871        90.      5.524     9.1139
      0.871        90.     5.5365     8.9842
      0.871        90.     5.5397     8.4647
      0.871        90.     5.5553      8.465
      0.871        90.     5.5679     8.0106
      0.871        90.     5.5773     8.0757
      0.871        90.     5.5867     7.6213
      0.871        90.     5.5961     7.3616
      0.871        90.     5.6024      7.102
      0.871        90.      5.615     6.8424
      0.871        90.     5.6244     6.5828
      0.871        90.     5.6338     6.1284
      0.871        90.     5.6432     6.1285
      0.871        90.     5.6557      5.869
      0.871        90.     5.6652     5.6743
      0.871        90.     5.6808     5.7395
      0.871        90.     5.6934     5.9994
      0.871        90.     5.7153     5.8698
      0.871        90.     5.7278     6.0648
      0.871        90.     5.7372     6.2597
      0.871        90.     5.7435     6.7144
      0.871        90.     5.7592     6.7795
      0.871        90.     5.7654     7.0394
      0.871        90.      5.778     7.0395
      0.871        90.     5.7842     7.2994
      0.871        90.     5.7936     7.5592
      0.871        90.      5.803     7.8191
      0.871        90.     5.8187     8.5336
      0.871        90.     5.8281     8.7935
      0.871        90.     5.8343     9.1183
      0.871        90.     5.8468     9.2483
      0.871        90.     5.8468      9.508
      0.871        90.     5.8562     10.093
      0.871        90.     5.8688     10.353
      0.871        90.      5.875     10.612
      0.871        90.     5.8844     10.872
      0.871        90.     5.8938     11.587
      0.871        90.     5.9063     11.652
      0.871        90.     5.9189     11.782
      0.871        90.     5.9283     11.977
      0.871        90.     5.9377     11.328
      0.871        90.     5.9502     11.393
      0.871        90.     5.9565     11.652
      0.871        90.     5.9659     11.068
      0.871        90.     5.9816     11.133
      0.871        90.      5.991     11.004
      0.871        90.     5.9941     11.263
      0.871       115.      3.988     12.601
      0.871       115.     4.0037     12.672
      0.871       115.     4.0163     12.388
      0.871       115.     4.0225     12.672
      0.871       115.     4.0351     13.098
      0.871       115.     4.0445     13.523
      0.871       115.     4.0539      14.02
      0.871       115.     4.0664     14.233
      0.871       115.     4.0789     15.013
      0.871       115.     4.0821     14.658
      0.871       115.     4.0946     14.871
      0.871       115.      4.104     15.226
      0.871       115.     4.1134     15.722
      0.871       115.     4.1228     16.077
      0.871       115.     4.1353     16.077
      0.871       115.     4.1447     16.715
      0.871       115.     4.1573     16.573
      0.871       115.     4.1667     16.999
      0.871       115.     4.1761     16.574
      0.871       115.     4.1886     16.786
      0.871       115.      4.198     16.503
      0.871       115.     4.2074     16.645
      0.871       115.     4.2106      16.29
      0.871       115.     4.2231     16.148
      0.871       115.     4.2357     15.439
      0.871       115.     4.2451     14.375
      0.871       115.     4.2545     13.879
      0.871       115.     4.2639     13.099
      0.871       115.     4.2702      12.39
      0.871       115.     4.2859     12.035
      0.871       115.     4.2953     11.752
      0.871       115.     4.3047     11.042
      0.871       115.     4.3141     10.475
      0.871       115.     4.3266     10.404
      0.871       115.     4.3329      9.766
      0.871       115.     4.3454     9.4115
      0.871       115.     4.3517     8.7732
      0.871       115.     4.3611     8.9151
      0.871       115.     4.3737     8.7024
      0.871       115.     4.3862     8.4897
      0.871       115.     4.3987     8.6317
      0.871       115.     4.4082     8.5608
      0.871       115.     4.4176     8.8445
      0.871       115.      4.427     9.1992
      0.871       115.     4.4364      9.412
      0.871       115.     4.4458     9.0574
      0.871       115.     4.4552     9.1284
      0.871       115.     4.4646     8.7029
      0.871       115.     4.4771      8.703
      0.871       115.     4.4865     7.9939
      0.871       115.     4.4959     7.4975
      0.871       115.     4.5085     7.2848
      0.871       115.     4.5148     6.7884
      0.871       115.     4.5304     6.7175
      0.871       115.     4.5398      6.363
      0.871       115.     4.5461     6.7885
      0.871       115.     4.5555     6.5049
      0.871       115.     4.5618      7.356
      0.871       115.     4.5743     7.5688
      0.871       115.       4.59      7.498
      0.871       115.     4.5994     7.7108
      0.871       115.     5.1072     7.1463
      0.871       115.     5.1198       7.43
      0.871       115.     5.1292     6.2244
      0.871       115.     5.1386     6.5791
      0.871       115.      5.148     6.2245
      0.871       115.     5.1511     5.1607
      0.871       115.     5.1574     5.3735
      0.871       115.     5.1699     5.3736
      0.871       115.     5.1762     4.9481
      0.871       115.     5.1887     4.9482
      0.871       115.     5.2013     5.0192
      0.871       115.     5.2076     4.8773
      0.871       115.     5.2201     4.9483
      0.871       115.     5.2295     4.7356
      0.871       115.     5.2389     4.9484
      0.871       115.     5.2514     4.8067
      0.871       115.      5.264     5.0195
      0.871       115.     5.2765     5.2323
      0.871       115.     5.2765     5.0196
      0.871       115.     5.2891     5.2324
      0.871       115.     5.2985     5.0906
      0.871       115.      5.311     5.3035
      0.871       115.     5.3141     5.0198
      0.871       115.     5.3298      4.878
      0.871       115.     5.3423     5.1618
      0.871       115.     5.3486     4.5944
      0.871       115.      5.358     4.4527
      0.871       115.     5.3674     4.5946
      0.871       115.       5.38     4.5946
      0.871       115.     5.3862      4.311
      0.871       115.     5.4019      4.382
      0.871       115.     5.4113      4.453
      0.871       115.     5.4207     4.1693
      0.871       115.     5.4301     4.0275
      0.871       115.     5.4427     4.1694
      0.871       115.     5.4521     3.9567
      0.871       115.     5.4615     4.1696
      0.871       115.      5.474     4.1696
      0.871       115.     5.4928     4.2406
      0.871       115.     5.4991     4.0279
      0.871       115.     5.5085     3.7443
      0.871       115.     5.5179     3.9571
      0.871       115.     5.5304     3.8863
      0.871       115.     5.5367     3.6026
      0.871       115.     5.5524     3.6736
      0.871       115.     5.5587     3.4609
      0.871       115.     5.5743     3.3191
      0.871       115.     5.5837     3.3901
      0.871       115.     5.5931      3.532
      0.871       115.     5.5994     3.3193
      0.871       115.     5.6057     3.5321
      0.871       115.     5.6182     3.4612
      0.871       115.     5.6308     3.5322
      0.871       115.      5.637     3.8159
      0.871       115.     5.6496     3.9578
      0.871       115.     5.6621      3.887
      0.871       115.     5.6684     4.1707
      0.871       115.     5.6809      3.958
      0.871       115.     5.6872     4.4545
      0.871       115.     5.6997     4.5255
      0.871       115.     5.7091     4.9511
      0.871       115.     5.7185      5.022
      0.871       115.     5.7311     4.8093
      0.871       115.     5.7405     5.0931
      0.871       115.      5.753      5.235
      0.871       115.     5.7624     4.9514
      0.871       115.     5.7687      5.306
      0.871       115.     5.7843      5.377
      0.871       115.        5.8     5.1643
      0.871       115.     5.8126     5.3772
      0.871       115.     5.8251     5.2354
      0.871       115.     5.8345     5.5191
      0.871       115.     5.8439     5.3064
      0.871       115.     5.8533     5.5192
      0.871       115.     5.8627     5.1647
      0.871       115.     5.8721     5.3066
      0.871       115.     5.8815     5.1648
      0.871       115.     5.8909     5.3067
      0.871       115.     5.9003     5.3067
      0.871       115.     5.9129     5.2359
      0.871       115.     5.9223     4.8813
      0.871       115.     5.9348     4.8814
      0.871       115.     5.9442     4.8815
      0.871       115.     5.9536     4.3141
      0.871       115.      5.963     4.3142
      0.871       115.     5.9693     4.1015
      0.871       115.      5.985     4.1725
      0.871       115.     6.0006     4.3144
ENDDATA           1251
ENDSUBENT         1285
SUBENT        F1053013   20100210   20100518   20100518       F038
BIB                  6         25
REACTION   (8-O-16(D,P)8-O-17,PAR,DA)
DETECTOR   (SOLST) Four solid state detectors suspended from a
           movable support allowed data to be collected
           simultaneously at four angles. A fifth solid state
           detector was held fixed at 90 degr. to the beam
           direction for use as a monitor during measurement of
           the angular distributions and as a fifth detector
           during the measurement of the yield curves.
SAMPLE     The targets consisted entirely of calcium hydroxide
           [Ca(OH)2], produced by the rapid reaction of calcium
           oxide (CaO) with air borne moisture. The angular
           distributions were measured with targets in which the
           48Ca enrichment was 87%. The target was estimated to be
           about 3 keV thick.
METHOD     (BCINT)
ERR-ANALYS (ERR-T) The total uncertainty in the absolute
           normalization was estimated to be 10% due to possible
           systematic errors arising from target nonuniformity,
           charge collection, and uncertainty as to the chemical
           nature of the target. Of this total approximately 5%
           was due to statistical errors in the data.
           (ERR-S)      Statistical error
           (EN-ERR-DIG) Energy digitizing error
           (ERR-DIG)    Data digitizing error
STATUS     (CURVE) Fig.15-16
ENDBIB              25
COMMON               4          3
ERR-T      ERR-S      EN-ERR-DIG ERR-DIG
PER-CENT   PER-CENT   MEV        MB/SR
 10.        5.         0.0016     0.0213
ENDCOMMON            3
DATA                 4        306
E-LVL      ANG        EN         DATA
MEV        ADEG       MEV        MB/SR
         0.       165.     4.0048     11.782
         0.       165.     4.0141     11.434
         0.       165.     4.0233     10.796
         0.       165.     4.0356     10.796
         0.       165.     4.0479      10.68
         0.       165.      4.054     10.854
         0.       165.     4.0694     10.448
         0.       165.     4.0756     10.159
         0.       165.     4.0847     10.913
         0.       165.     4.0939     11.261
         0.       165.     4.1062     12.363
         0.       165.     4.1185     12.479
         0.       165.     4.1277     12.827
         0.       165.     4.1369     13.059
         0.       165.      4.143     13.291
         0.       165.     4.1584      13.35
         0.       165.     4.1707     12.654
         0.       165.     4.1738     12.132
         0.       165.     4.1892     12.074
         0.       165.     4.2015     11.494
         0.       165.     4.2107      11.03
         0.       165.     4.7085     6.2215
         0.       165.     4.7178     5.4676
         0.       165.     4.7331     5.5837
         0.       165.     4.7424     5.3518
         0.       165.     4.7547       5.41
         0.       165.     4.7608      5.526
         0.       165.     4.7731     5.2362
         0.       165.     4.7823     5.0043
         0.       165.     4.7915     5.5264
         0.       165.     4.8038     5.5845
         0.       165.     4.8099     5.9906
         0.       165.     4.8222     6.4548
         0.       165.     4.8314     6.8609
         0.       165.     4.8437      6.803
         0.       165.     4.8498     7.1511
         0.       165.     4.8652     7.0353
         0.       165.     4.8744     7.2674
         0.       165.     4.8836     7.5575
         0.       165.     4.8959     7.4997
         0.       165.      4.902     8.4278
         0.       165.     4.9113     8.0799
         0.       165.     4.9205      8.602
         0.       165.     4.9328     8.3121
         0.       165.      4.945     8.1382
         0.       165.     4.9543     8.2544
         0.       165.     4.9666     8.0805
         0.       165.     4.9727     8.3126
         0.       165.     4.9819     8.3707
         0.       165.     4.9942     8.5448
         0.       165.     5.0034     8.4289
         0.       165.     5.0157     8.6611
         0.       165.     5.0249     8.2552
         0.       165.     5.0341     8.0812
         0.       165.     5.0434     7.5013
         0.       165.     5.0526     7.5014
         0.       165.     5.0649     7.5016
         0.       165.     5.0741     7.3277
         0.       165.     5.0833     7.9078
         0.       165.     5.0956     7.8499
         0.       165.     5.1109     8.4301
         0.       165.     5.1171     8.6622
         0.       165.     5.1294     8.8944
         0.       165.     5.1355     9.3004
         0.       165.     5.1509     9.1846
         0.       165.     5.1601     8.1407
         0.       165.     5.1693     7.2127
         0.       165.     5.1786     6.3428
         0.       165.     5.1939      6.517
         0.       165.     5.2001     7.1551
         0.       165.     5.2123     7.9093
         0.       165.     5.2216     7.4453
         0.       165.     5.2308     7.2134
         0.       165.     5.2431     7.5616
         0.       165.     5.2523     7.4457
         0.       165.     5.2615     7.8518
         0.       165.     5.2738     7.3299
         0.       165.      5.283      6.924
         0.       165.     5.2923     6.5761
         0.       165.     5.3015     6.4022
         0.       165.     5.3107     6.1123
         0.       165.      5.323     5.3004
         0.       165.     5.3353     5.1265
         0.       165.     5.3445     4.6046
         0.       165.     5.3538     4.3147
         0.       165.      5.363     4.4308
         0.       165.     5.3753     4.3149
         0.       165.     5.3845      4.431
         0.       165.     5.3937     4.7792
         0.       165.     5.3998     5.0112
         0.       165.     5.4121     5.0694
         0.       165.     5.4213     5.1275
         0.       165.     5.4306     5.1276
         0.       165.     5.4428     5.1277
         0.       165.     5.4551     5.0699
         0.       165.     5.4674       5.07
         0.       165.     5.4736     4.8961
         0.       165.     5.4889     4.9542
         0.       165.     5.4951     4.4323
         0.       165.     5.5043     4.2584
         0.       165.     5.5197     4.2586
         0.       165.     5.5258     3.9686
         0.       165.     5.5351     3.6787
         0.       165.     5.5473     3.9109
         0.       165.     5.5566     3.6789
         0.       165.     5.5688     3.7371
         0.       165.     5.5781     3.5632
         0.       165.     5.5904     3.5053
         0.       165.     5.5965     3.0994
         0.       165.     5.6088     3.2735
         0.       165.      5.618     2.8676
         0.       165.     5.6303     3.2158
         0.       165.     5.6365     3.0418
         0.       165.     5.6457     3.0999
         0.       165.      5.658     3.1581
         0.       165.     5.6733     2.9262
         0.       165.     5.6825     3.3324
         0.       165.     5.6825     3.1583
         0.       165.     5.6918     3.1004
         0.       165.      5.704     2.9266
         0.       165.     5.7163     2.9267
         0.       165.     5.7286     3.0429
         0.       165.     5.7409      2.985
         0.       165.     5.7532     3.1591
         0.       165.     5.7624     3.2173
         0.       165.     5.7747     3.1594
         0.       165.     5.7808     3.2755
         0.       165.     5.7901     3.2176
         0.       165.     5.8023     3.1597
         0.       165.     5.8177     3.1019
         0.       165.       5.83      2.986
         0.       165.     5.8454     3.1022
         0.       165.     5.8515     3.7983
         0.       165.     5.8607     5.3065
         0.       165.     5.8699     5.7126
         0.       165.     5.8791     6.0607
         0.       165.     5.8913     6.8729
         0.       165.     5.9036      7.105
         0.       165.     5.9159     7.2792
         0.       165.      5.922     7.6273
         0.       165.     5.9282     7.3373
         0.       165.     5.9405     7.4535
         0.       165.     5.9528     7.3376
         0.       165.     5.9681     7.2798
         0.       165.     5.9804     6.6419
         0.       165.     5.9958        6.7
         0.       165.     6.0019     6.1781
         0.       165.     6.0142     6.3522
         0.       165.     6.0204     5.9463
         0.       165.     6.0357     5.8305
      0.871       145.     4.0715     9.7622
      0.871       145.      4.081     8.1893
      0.871       145.     4.0904      6.966
      0.871       145.     4.0998     6.4417
      0.871       145.     4.1093     6.2088
      0.871       145.     4.1312     6.2673
      0.871       145.     4.1437     6.2092
      0.871       145.     4.1532     5.8598
      0.871       145.     4.1625     6.0929
      0.871       145.     4.1751     6.0348
      0.871       145.     4.1814     6.2097
      0.871       145.     4.1908     6.3263
      0.871       145.      4.197     6.2099
      0.871       145.     4.2064     6.3848
      0.871       145.      4.219     6.7345
      0.871       145.     4.2315     6.5598
      0.871       145.     4.2409     6.2104
      0.871       145.     4.2503     6.4435
      0.871       145.     4.2629     6.1524
      0.871       145.     4.2723     5.9195
      0.871       145.     4.2817     5.6865
      0.871       145.     4.2942     5.3371
      0.871       145.     4.3099     5.2208
      0.871       145.      4.313     5.6869
      0.871       145.     4.3256     5.6871
      0.871       145.     4.3287     5.9784
      0.871       145.     4.3444     5.6873
      0.871       145.     4.3569     5.9787
      0.871       145.     4.3632     6.1536
      0.871       145.     4.3757      6.212
      0.871       145.     4.3883     5.8043
      0.871       145.     4.3977     6.0957
      0.871       145.     4.4071      5.688
      0.871       145.     4.4196     6.1543
      0.871       145.     4.4227     5.7465
      0.871       145.     4.4353     5.8049
      0.871       145.     4.4447     5.3389
      0.871       145.     4.4541     5.2808
      0.871       145.     4.4667     4.9896
      0.871       145.     4.4761     4.6985
      0.871       145.     4.4855     4.4073
      0.871       145.      4.498     4.0579
      0.871       145.     4.5043     3.7084
      0.871       145.     4.5137     3.7668
      0.871       145.     4.5263     3.5339
      0.871       145.     4.5357      3.767
      0.871       145.     4.5482     3.8254
      0.871       145.     4.5545     4.4664
      0.871       145.     4.5638     5.3404
      0.871       145.     4.5732     5.8065
      0.871       145.     4.5826     6.3893
      0.871       145.     4.5982     7.0885
      0.871       145.     4.6045      7.613
      0.871       145.      4.617     8.0209
      0.871       145.     4.6264     8.2541
      0.871       145.     4.6358     8.0794
      0.871       145.     4.6484     8.4874
      0.871       145.     4.6578     8.1379
      0.871       145.     4.6672     8.4293
      0.871       145.     4.6734     8.1381
      0.871       145.      4.686     8.1965
      0.871       145.     4.6954     8.0219
      0.871       145.     4.7079     7.5559
      0.871       145.     4.7174     7.2647
      0.871       145.     4.7268      6.857
      0.871       145.     4.7362     6.5659
      0.871       145.     4.7456     6.4495
      0.871       145.     4.7582     6.1583
      0.871       145.     4.7676     5.9836
      0.871       145.     4.7801     6.0421
      0.871       145.     4.7864     5.6926
      0.871       145.     4.7958     5.2849
      0.871       145.     4.8083     5.4015
      0.871       145.     4.8177     5.0521
      0.871       145.     4.8303     4.7027
      0.871       145.     4.8366     4.9358
      0.871       145.     4.8491     4.8194
      0.871       145.     4.8585     4.5282
      0.871       145.     4.8711     4.4701
      0.871       145.     4.8773     4.8198
      0.871       145.     4.8867     4.7034
      0.871       145.     4.8993     5.0531
      0.871       145.     4.9055     5.2279
      0.871       145.     4.9181     4.2377
      0.871       145.     4.9275     4.7039
      0.871       145.     4.9368     5.7526
      0.871       145.     4.9463     4.9954
      0.871       145.     4.9525      5.578
      0.871       145.     5.3131     2.6111
      0.871       145.     5.3194     2.1451
      0.871       145.     5.3288     2.4365
      0.871       145.     5.3414     2.0289
      0.871       145.     5.3476     1.6211
      0.871       145.     5.3633     1.7961
      0.871       145.     5.3696     1.9709
      0.871       145.      5.379     1.8545
      0.871       145.     5.3915     2.0295
      0.871       145.     5.4009     2.1461
      0.871       145.     5.4103     2.2045
      0.871       145.     5.4291     2.4377
      0.871       145.     5.4354     2.6708
      0.871       145.     5.4479     2.5545
      0.871       145.     5.4636     2.4381
      0.871       145.     5.4699      2.613
      0.871       145.     5.4824     2.5549
      0.871       145.     5.4918     2.7298
      0.871       145.     5.5075       2.73
      0.871       145.     5.5137     2.9048
      0.871       145.       5.52     3.0214
      0.871       145.     5.5294     3.3128
      0.871       145.     5.5451     3.6043
      0.871       145.     5.5576     3.5462
      0.871       145.     5.5639     4.1289
      0.871       145.     5.5733     3.8959
      0.871       145.     5.5858     4.0709
      0.871       145.     5.5921      4.304
      0.871       145.     5.6015     4.5954
      0.871       145.     5.6108     5.0616
      0.871       145.     5.6202     5.2947
      0.871       145.     5.6296     5.5861
      0.871       145.     5.6422      5.528
      0.871       145.     5.6547     5.7029
      0.871       145.     5.6641     5.9361
      0.871       145.     5.6766      6.111
      0.871       145.      5.686     6.4024
      0.871       145.     5.6954     6.1695
      0.871       145.     5.7048     6.6939
      0.871       145.     5.7142     6.4028
      0.871       145.     5.7268     6.5194
      0.871       145.     5.7331     6.1117
      0.871       145.     5.7456     6.4614
      0.871       145.     5.7519     6.1119
      0.871       145.     5.7644     6.1121
      0.871       145.     5.7707     5.6461
      0.871       145.     5.7864     5.6463
      0.871       145.     5.7926     5.4133
      0.871       145.     5.8021     5.4134
      0.871       145.     5.8209     4.9476
      0.871       145.     5.8334     4.5981
      0.871       145.     5.8397     4.2487
      0.871       145.     5.8522     4.2488
      0.871       145.     5.8648     3.9577
      0.871       145.     5.8742      3.783
      0.871       145.     5.8867     3.8414
      0.871       145.     5.8961     3.8415
      0.871       145.     5.9056     3.8416
      0.871       145.     5.9181      3.667
      0.871       145.     5.9275     3.7836
      0.871       145.     5.9369     3.4925
      0.871       145.     5.9463     3.3761
      0.871       145.     5.9557     3.2014
      0.871       145.     5.9714     3.1433
      0.871       145.     5.9745     3.3181
      0.871       145.     5.9839     3.0852
      0.871       145.     5.9996     2.9689
      0.871       145.     6.0059     3.3185
ENDDATA            308
ENDSUBENT          342
SUBENT        F1053014   20100210   20100518   20100518       F038
BIB                  6         25
REACTION   (8-O-16(D,P)8-O-17,PAR,DA)
DETECTOR   (SOLST) Four solid state detectors suspended from a
           movable support allowed data to be collected
           simultaneously at four angles. A fifth solid state
           detector was held fixed at 90 degr. to the beam
           direction for use as a monitor during measurement of
           the angular distributions and as a fifth detector
           during the measurement of the yield curves.
SAMPLE     The targets consisted entirely of calcium hydroxide
           [Ca(OH)2], produced by the rapid reaction of calcium
           oxide (CaO) with air borne moisture. The angular
           distributions were measured with targets in which the
           48Ca enrichment was 87%. The target was estimated to be
           about 3 keV thick.
METHOD     (BCINT)
ERR-ANALYS (ERR-T) The total uncertainty in the absolute
           normalization was estimated to be 10% due to possible
           systematic errors arising from target nonuniformity,
           charge collection, and uncertainty as to the chemical
           nature of the target. Of this total approximately 5%
           was due to statistical errors in the data.
           (ERR-S)      Statistical error
           (EN-ERR-DIG) Energy digitizing error
           (ERR-DIG)    Data digitizing error
STATUS     (CURVE) Fig.16
ENDBIB              25
COMMON               6          3
ERR-T      ERR-S      E-LVL      ANG        EN-ERR-DIG ERR-DIG
PER-CENT   PER-CENT   MEV        ADEG       MEV        MB/SR
 10.        5.         0.871       165.      0.0015     0.1596
ENDCOMMON            3
DATA                 2        103
EN         DATA
MEV        MB/SR
     4.9573     16.098
     4.9762     15.513
     4.9793     18.455
     4.9918     21.987
     5.0012     24.342
     5.0074     29.049
     5.0231     31.405
     5.0262     34.347
      5.045     35.527
     5.0482     31.998
     5.0638     32.002
     5.0733     29.651
     5.0795     26.123
      5.089     22.595
     5.0984     20.244
     5.1047     17.892
     5.1141     17.306
     5.1266     17.309
      5.136     17.311
     5.1486     17.313
     5.1611      19.08
     5.1705     17.318
     5.1862     19.086
     5.1924     17.322
     5.1987     15.559
      5.205     17.325
     5.2144     17.327
     5.2301     18.506
     5.2426     16.744
     5.2551     16.747
     5.2645     16.749
     5.2739     19.103
     5.2834     16.164
     5.2927     18.519
      5.299     16.167
     5.3147     16.171
      5.321     13.819
     5.3335      14.41
     5.3429        15.
     5.3523     16.766
     5.3617     18.533
     5.3711     23.241
     5.3836      24.42
      5.393     26.186
     5.4118     32.661
     5.4212     35.015
     5.4337      34.43
     5.4525     37.375
     5.4651     36.201
     5.4745     35.614
      5.487     38.558
      5.487     36.205
     5.4964     35.619
     5.5089     37.974
     5.5246     42.095
      5.534      44.45
     5.5402     46.216
     5.5496     45.041
     5.5653     49.162
     5.5716     46.811
     5.5872     49.755
     5.5935     52.109
     5.5997     55.051
     5.6154     56.819
      5.628     55.645
     5.6342     57.411
     5.6499     53.885
     5.6531     49.768
     5.6656     51.535
     5.6719     49.184
     5.6844     48.598
     5.6938     48.012
     5.7032     49.778
     5.7127     44.486
     5.7189     43.311
     5.7377     43.315
      5.744     44.493
     5.7597     42.731
     5.7628     40.967
     5.7722     39.204
     5.7879     38.619
     5.7973     38.033
     5.8099     39.212
     5.8224     38.626
     5.8255      40.98
     5.8412     40.983
     5.8506     40.985
       5.86     40.399
     5.8694     42.754
     5.8788     43.932
     5.8913     43.934
     5.9007     45.113
      5.907     48.055
     5.9132     50.409
     5.9289     51.001
     5.9352     48.061
     5.9477     48.064
     5.9571      49.83
     5.9666     44.538
     5.9791     44.541
     5.9854     42.777
     5.9948      45.72
     6.0074     38.664
ENDDATA            105
ENDSUBENT          139
SUBENT        F1053015   20100210   20100518   20100518       F038
BIB                  6         25
REACTION   (8-O-16(D,P)8-O-17,PAR,DA)
DETECTOR   (SOLST) Four solid state detectors suspended from a
           movable support allowed data to be collected
           simultaneously at four angles. A fifth solid state
           detector was held fixed at 90 degr. to the beam
           direction for use as a monitor during measurement of
           the angular distributions and as a fifth detector
           during the measurement of the yield curves.
SAMPLE     The targets consisted entirely of calcium hydroxide
           [Ca(OH)2], produced by the rapid reaction of calcium
           oxide (CaO) with air borne moisture. The angular
           distributions were measured with targets in which the
           48Ca enrichment was 87%. The target was estimated to be
           about 3 keV thick.
METHOD     (BCINT)
ERR-ANALYS (ERR-T) The total uncertainty in the absolute
           normalization was estimated to be 10% due to possible
           systematic errors arising from target nonuniformity,
           charge collection, and uncertainty as to the chemical
           nature of the target. Of this total approximately 5%
           was due to statistical errors in the data.
           (ERR-S)      Statistical error
           (EN-ERR-DIG) Energy digitizing error
           (ERR-DIG)    Data digitizing error
STATUS     (CURVE) Fig.17
ENDBIB              25
COMMON               5          3
ERR-T      ERR-S      E-LVL      EN-ERR-DIG ERR-DIG
PER-CENT   PER-CENT   MEV        MEV        MB/SR
 10.        5.         3.846      0.0024     0.0087
ENDCOMMON            3
DATA                 3        438
ANG        EN         DATA
ADEG       MEV        MB/SR
        65.     5.0865      1.468
        65.     5.0988     1.4312
        65.     5.1141     1.6538
        65.     5.1172     1.3946
        65.     5.1325     1.3578
        65.     5.1447     1.3581
        65.     5.1509      1.173
        65.     5.1631     1.2473
        65.     5.1723     1.0994
        65.     5.1846    0.98852
        65.     5.1908     0.8405
        65.     5.2061     0.8408
        65.     5.2152     1.2113
        65.     5.2275    0.87826
        65.     5.2366     1.2118
        65.     5.2459     0.9527
        65.     5.2582    0.69369
        65.     5.2673     1.0642
        65.     5.2765    0.87923
        65.     5.2826     1.2127
        65.     5.2979     1.3611
        65.      5.304     1.6205
        65.     5.3131     2.1392
        65.     5.3284     2.1395
        65.     5.3376     2.3249
        65.     5.3467     2.4732
        65.      5.359     2.1401
        65.     5.3682     1.9921
        65.     5.3774     1.9182
        65.     5.3866     1.7703
        65.     5.3989     1.6224
        65.     5.4111     1.8448
        65.     5.4111     2.1782
        65.     5.4112     1.6226
        65.     5.4234     1.8821
        65.     5.4326     1.9193
        65.     5.4479     1.9567
        65.     5.4602     1.6977
        65.     5.4662     1.9941
        65.     5.4755     1.5128
        65.     5.4877     1.6982
        65.     5.4939     1.4021
        65.     5.5061     1.4023
        65.     5.5183     1.8099
        65.     5.5306     1.5509
        65.     5.5398     1.5141
        65.      5.546      1.366
        65.     5.5582     1.4404
        65.     5.5674     1.1072
        65.     5.5797     1.2556
        65.     5.5858     1.3668
        65.      5.598      1.256
        65.     5.6103     1.3673
        65.     5.6225     1.6268
        65.     5.6286     1.9603
        65.      5.647     1.6643
        65.     5.6562     1.7756
        65.     5.6715     1.9611
        65.     5.6776     2.1094
        65.     5.6898     2.0726
        65.     5.7021     2.0358
        65.     5.7112     2.5174
        65.     5.7234     2.5547
        65.     5.7326     2.7401
        65.     5.7479     2.8515
        65.      5.751     2.6664
        65.     5.7632     2.9259
        65.     5.7755     2.9261
        65.     5.7847     2.7782
        65.        5.8     2.8155
        65.     5.8123     2.5935
        65.     5.8153     2.7047
        65.     5.8276     2.5938
        65.     5.8368     2.1496
        65.      5.849     2.7424
        65.     5.8582     2.6685
        65.     5.8674     2.5576
        65.     5.8827     2.5579
        65.     5.8888     2.8543
        65.      5.901     2.9286
        65.     5.9102     2.8547
        65.     5.9194      3.003
        65.     5.9286     3.0403
        65.     5.9408     3.0775
        65.      5.953     3.4481
        65.     5.9592     3.0038
        65.     5.9806     3.1894
        65.     5.9928       3.56
        65.     6.0021     3.1528
        90.     4.4913     2.4125
        90.     4.5066     2.4643
        90.     4.5158     2.5419
        90.     4.5249     3.1614
        90.      4.534     3.6002
        90.     4.5431     3.7552
        90.     4.5492     3.8843
        90.     4.5584     3.9618
        90.     4.5738      3.575
        90.     4.5831     3.1106
        90.     4.5954     2.7753
        90.     4.6047     2.3109
        90.      4.617     1.9756
        90.     4.6201     1.5369
        90.     4.6294      1.279
        90.     4.6478     1.2276
        90.     4.6539    0.96962
        90.     4.6631     1.0214
        90.     4.6754    0.94411
        90.     4.6815    0.84097
        90.     4.6968     0.8928
        90.      4.706    0.97035
        90.     4.7183    0.91891
        90.     4.7274    0.97065
        90.     4.7336    0.73847
        90.     4.7489    0.73869
        90.     4.7551    0.63555
        90.     4.7643    0.55826
        90.     4.7735       0.61
        90.     4.7857    0.55856
        90.     4.7888    0.45537
        90.     4.8071    0.66208
        90.     4.8163     0.6106
        90.     4.8255    0.68814
        90.     4.8317    0.48178
        90.      4.847    0.58522
        90.     4.8592    0.61119
        90.     4.8745     0.5856
        90.     4.8868    0.66319
        90.      4.896     0.5859
        90.     4.9051    0.66345
        90.     4.9174    0.66362
        90.     4.9266    0.66375
        90.     4.9357     0.7671
        90.      4.948    0.66405
        90.     4.9572    0.71579
        90.     4.9633    0.76748
        90.     4.9786     0.7677
        90.     4.9909    0.58722
        90.      4.997    0.71634
        90.     5.0062     0.8197
        90.     5.0185    0.66503
        90.     5.0307    0.84584
        90.     5.0338    0.74266
        90.     5.0491    0.71707
        90.     5.0613    0.82046
        90.     5.0736    0.82064
        90.     5.0858     1.0789
        90.      5.098      1.079
        90.     5.1072     1.1308
        90.     5.1286     1.1311
        90.     5.1347     1.1828
        90.      5.147     1.1055
        90.     5.1532    0.95078
        90.     5.1654    0.87353
        90.     5.1807    0.92536
        90.     5.1899    0.82226
        90.     5.1991    0.82239
        90.     5.2083    0.95155
        90.     5.2205     1.0033
        90.     5.2297    0.97765
        90.      5.242    0.97782
        90.     5.2512     1.0554
        90.     5.2604     1.0039
        90.     5.2726     1.1073
        90.     5.2817     1.2622
        90.      5.297     1.3657
        90.     5.3154     1.6498
        90.     5.3214     1.8822
        90.     5.3306     1.9597
        90.     5.3398     1.8824
        90.      5.349     1.7793
        90.     5.3644     1.6763
        90.     5.3705      1.599
        90.     5.3827     1.5733
        90.      5.395     1.5993
        90.      5.395     1.7283
        90.     5.4103     1.4447
        90.     5.4256     1.6514
        90.     5.4318      1.574
        90.      5.444     1.5484
        90.     5.4562      1.626
        90.     5.4623     1.7293
        90.     5.4715     1.8326
        90.     5.4807     1.8328
        90.      5.493     1.8329
        90.     5.5022     1.6008
        90.     5.5175     1.6268
        90.     5.5236     1.5237
        90.     5.5298     1.4722
        90.      5.539     1.5239
        90.     5.5512      1.395
        90.     5.5604     1.4468
        90.     5.5727     1.3437
        90.     5.5819     1.4213
        90.      5.591     1.5762
        90.     5.6032     1.7571
        90.     5.6093     1.8604
        90.     5.6216     1.9638
        90.     5.6338     2.0672
        90.      5.643     2.1189
        90.     5.6491     2.3254
        90.     5.6644     2.2998
        90.     5.6797     2.3517
        90.     5.6828     2.2485
        90.     5.6888      2.455
        90.     5.7041     2.9972
        90.     5.7285     3.2298
        90.     5.7346     3.4621
        90.     5.7469     3.1526
        90.     5.7529     3.5656
        90.     5.7652       3.54
        90.     5.7744     3.3336
        90.     5.7806     3.0757
        90.     5.7959     3.3597
        90.     5.8021     2.9985
        90.     5.8204     2.9988
        90.     5.8235     2.8182
        90.     5.8358     2.7409
        90.      5.848     3.0508
        90.     5.8572     3.0767
        90.     5.8633     3.0252
        90.     5.8725     3.1027
        90.     5.8908     3.3869
        90.     5.8909     3.0256
        90.     5.9062     3.1032
        90.     5.9123     3.0259
        90.     5.9246     3.0261
        90.     5.9337      3.181
        90.      5.949     3.2328
        90.     5.9551     3.3362
        90.     5.9674     3.3105
        90.     5.9765     3.5171
        90.     5.9888     3.2076
        90.      5.998     3.2851
        90.     6.0071     3.5949
       145.     5.0356    0.44855
       145.     5.0447    0.58902
       145.      5.057    0.47224
       145.     5.0662    0.51915
       145.     5.0754    0.56606
       145.     5.0876    0.54284
       145.     5.0968    0.47279
       145.      5.106    0.54309
       145.     5.1182    0.56665
       145.     5.1275    0.42643
       145.     5.1336    0.56687
       145.     5.1458    0.56704
       145.     5.1581     0.5906
       145.     5.1672    0.75446
       145.     5.1794    0.91837
       145.     5.1856     0.8015
       145.     5.1947    0.84841
       145.     5.2131     1.0124
       145.     5.2131    0.84867
       145.     5.2284     1.0126
       145.     5.2376    0.96596
       145.     5.2498     1.1065
       145.      5.262     1.2938
       145.     5.2712     1.2003
       145.     5.2773     1.3408
       145.     5.2895     1.5047
       145.     5.2987     1.6218
       145.     5.3109     1.8091
       145.     5.3232     1.5753
       145.     5.3294     1.3883
       145.     5.3356     1.1545
       145.     5.3479    0.96749
       145.     5.3571    0.89745
       145.     5.3723     1.1316
       145.     5.3724    0.96783
       145.     5.3876      1.085
       145.      5.406     1.0619
       145.      5.409     1.3192
       145.     5.4213     1.3662
       145.     5.4335     1.4131
       145.     5.4396     1.6939
       145.     5.4549     1.7643
       145.      5.464     2.0451
       145.      5.467     2.1855
       145.     5.4854     2.1624
       145.     5.4884     2.2793
       145.     5.5038     2.0924
       145.       5.51     1.8586
       145.     5.5222     1.8822
       145.     5.5344     1.9525
       145.     5.5406     1.6485
       145.     5.5499     1.4147
       145.     5.5621     1.6254
       145.     5.5713     1.6723
       145.     5.5805     1.6023
       145.     5.5927     1.9065
       145.     5.6049     1.8599
       145.     5.6171      2.094
       145.     5.6232     2.3748
       145.     5.6323     2.6556
       145.     5.6445     2.7259
       145.     5.6506     3.0067
       145.     5.6627     3.3578
       145.     5.6719     3.6386
       145.      5.687     4.2236
       145.     5.6962     4.4342
       145.     5.7022     4.7618
       145.     5.7175      4.762
       145.     5.7297     4.9961
       145.     5.7389     4.9728
       145.      5.745     5.1132
       145.     5.7573       5.09
       145.     5.7665     4.8796
       145.     5.7819     4.6459
       145.     5.7881     4.3185
       145.     5.7973      4.038
       145.     5.8065     4.1083
       145.     5.8158     3.8745
       145.      5.828     3.9682
       145.     5.8402     4.2725
       145.     5.8462     4.5533
       145.     5.8585     4.5768
       145.     5.8706     5.0916
       145.     5.8798     5.0449
       145.      5.889     5.0918
       145.      5.892     5.1621
       145.     5.9012     5.0452
       145.     5.9105     4.9284
       145.     5.9197     4.6946
       145.     5.9289     4.4608
       145.     5.9383      3.923
       145.     5.9536     3.8998
       145.     5.9598     3.2917
       145.     5.9691     3.0579
       145.     5.9784      2.754
       145.     5.9876     2.6605
       145.     5.9998     2.5905
       145.     6.0091     2.4503
       165.     4.9345    0.43031
       165.     4.9468    0.50249
       165.      4.953     0.2628
       165.     4.9621    0.35891
       165.     4.9743    0.50304
       165.     4.9866     0.4793
       165.     5.0019    0.50358
       165.     5.0172    0.55185
       165.     5.0264     0.4561
       165.     5.0387    0.45635
       165.     5.0478    0.57644
       165.      5.057    0.67254
       165.     5.0692    0.60084
       165.     5.0785     0.5051
       165.     5.0907    0.52932
       165.      5.106    0.50564
       165.     5.1214    0.33807
       165.     5.1306    0.38622
       165.     5.1367     0.4343
       165.     5.1489    0.53047
       165.     5.1611    0.55469
       165.     5.1672    0.72268
       165.     5.1764    0.81879
       165.     5.1886      0.867
       165.     5.1978    0.69931
       165.      5.207    0.69949
       165.     5.2162    0.69967
       165.     5.2284    0.77186
       165.     5.2407     0.7721
       165.     5.2468    0.82018
       165.      5.259    0.94033
       165.     5.2682     1.1084
       165.     5.2834     1.2286
       165.     5.2895     1.4685
       165.     5.3017     1.5167
       165.     5.3109     1.4929
       165.     5.3232     1.4932
       165.     5.3355     1.2296
       165.     5.3417    0.87002
       165.     5.3479    0.75023
       165.     5.3601    0.87038
       165.     5.3723    0.99053
       165.     5.3815    0.89479
       165.     5.3907     1.0389
       165.     5.4029     1.0391
       165.     5.4121     1.2072
       165.     5.4213     1.1354
       165.     5.4304     1.2315
       165.     5.4426     1.3756
       165.     5.4518     1.5677
       165.      5.464     1.6399
       165.     5.4731     1.9038
       165.     5.4822     2.0959
       165.     5.4945     2.1201
       165.     5.5006     2.0003
       165.      5.513     1.7847
       165.     5.5252      1.665
       165.     5.5375     1.5933
       165.     5.5437     1.4975
       165.     5.5529     1.3298
       165.     5.5651     1.6418
       165.     5.5743     1.4742
       165.     5.5866     1.4504
       165.     5.5957     1.4986
       165.     5.6049     1.5467
       165.      5.614     1.9066
       165.     5.6231     2.1226
       165.     5.6352     2.4586
       165.     5.6474     2.8426
       165.     5.6564     3.3224
       165.     5.6686     3.6104
       165.     5.6715     3.9222
       165.     5.6867     4.4261
       165.     5.6989     4.4743
       165.     5.7079      5.098
       165.     5.7169     5.7217
       165.     5.7292      5.674
       165.     5.7383     5.8181
       165.     5.7507     5.4346
       165.     5.7599     5.3629
       165.     5.7691     5.2671
       165.     5.7723     4.7396
       165.     5.7876     4.7399
       165.     5.7939     4.4282
       165.     5.8061     4.5004
       165.     5.8184     4.3328
       165.     5.8244     4.5967
       165.     5.8397     4.7649
       165.     5.8518     5.2927
       165.     5.8611     5.0531
       165.     5.8701      5.461
       165.     5.8792      5.701
       165.     5.8883      5.893
       165.     5.9007     5.5335
       165.       5.91     5.2939
       165.     5.9193     5.0303
       165.     5.9285     4.7666
       165.      5.941     4.1434
       165.     5.9441     3.8077
       165.     5.9566     3.2084
       165.      5.969     2.8009
       165.     5.9782     2.6572
       165.     5.9875     2.3936
       165.     5.9967     2.4178
       165.     6.0088     2.6818
ENDDATA            440
ENDSUBENT          474
SUBENT        F1053016   20100210   20100518   20100518       F038
BIB                  6         15
REACTION   (8-O-16(D,P)8-O-17,PAR,SIG)
DETECTOR   (SOLST) Four solid state detectors suspended from a
           movable support allowed data to be collected
           simultaneously at four angles. A fifth solid state
           detector was held fixed at 90 degr. to the beam
           direction for use as a monitor during measurement of
           the angular distributions and as a fifth detector
           during the measurement of the yield curves.
SAMPLE     The targets consisted entirely of calcium hydroxide
           [Ca(OH)2], produced by the rapid reaction of calcium
           oxide (CaO) with air borne moisture. The target was
           estimated to be about 3 keV thick.
METHOD     (BCINT)
ERR-ANALYS (DATA-ERR)   Error in cross section definition.
STATUS     (TABLE) Tbl.1
ENDBIB              15
COMMON               1          3
EN
MEV
  5.00
ENDCOMMON            3
DATA                 3          2
E-LVL      DATA       DATA-ERR
MEV        MB         MB
         0.       180.        30.
      0.871       240.        40.
ENDDATA              4
ENDSUBENT           28
SUBENT        F1053017   20100210   20100518   20100518       F038
BIB                  6         13
REACTION   (8-O-16(D,N)9-F-17,PAR,SIG)
METHOD     (TOF)
SAMPLE     A thick oxygen targets prepared by heating a 0.08 cm
           thick molybdenum foil in air. The thickness of the
           resulting layer of molybdenum oxide (MoO2) was
           determined in the subsequent computer analysis of the
           experimental data.
CORRECTION Corrections for the detector efficiency, dead time in
           the detection system, and for neutron scattered in the
           target backing were applied, and the spectra were
           normalized using the count in a monitor detector.
ERR-ANALYS (DATA-ERR)   Error in cross section definition
STATUS     (TABLE) Tbl.1
ENDBIB              13
COMMON               1          3
EN
MEV
  5.00
ENDCOMMON            3
DATA                 3          2
E-LVL      DATA       DATA-ERR
MEV        MB         MB
         0.       180.        30.
        0.5       190.        30.
ENDDATA              4
ENDSUBENT           26
SUBENT        F1053018   20100210   20100518   20100518       F038
BIB                  3          3
REACTION   (8-O-16(D,A)7-N-14,PAR,SIG)
ERR-ANALYS (DATA-ERR)   Error in cross section definition
STATUS     (TABLE) Tbl.1
ENDBIB               3
NOCOMMON             0          0
DATA                 4          1
EN         E-LVL      DATA       DATA-ERR
MEV        MEV        MB         MB
        5.0         0.       120.        20.
ENDDATA              3
ENDSUBENT           11
ENDENTRY            18
