ENTRY            F1068   20100622   20110216   20110112       F039
SUBENT        F1068001   20100622   20110216   20110112       F039
BIB                  9         16
TITLE      Direct and compound nuclear reaction mechanisms in
           Mg-26(p,p)Mg-26.
AUTHOR     (O.Hausser,A.Richter,W.Von Witsch,W.J.Thompson)
INSTITUTE  (2GERMPH,1USAFSU)
REFERENCE  (J,NP/A,109,329,1968)
           #doi:10.1016/0375-9474(68)90597-6
FACILITY   (VDGT,2GERMPH)
DETECTOR   (SIBAR) The surface barrier counters made of n-type
           silicon of resistivity 5-15 k omega*cm were used. The
           depletion depth was enlarged by putting the counters at
           45 degr. to the incident particles.
SAMPLE     The target consisted of an  evaporated 100 mu-g/cm2
           layer of 95% enriched 26Mg on a  thin carbon backing.
ERR-ANALYS (ERR-SYS)    Absolute cross section error
           (ERR-DIG)    Data digitizing error
HISTORY    (20100622C)
ENDBIB              16
COMMON               2          3
EN-RSL     ERR-SYS
KEV        PER-CENT
  6.         10.
ENDCOMMON            3
ENDSUBENT           23
SUBENT        F1068002   20100622   20110216   20110112       F039
BIB                  3          3
REACTION   (12-MG-26(P,EL)12-MG-26,,DA)
ERR-ANALYS (EN-ERR-DIG) Energy digitizing error
STATUS     (CURVE) Fig.3
ENDBIB               3
COMMON               2          3
EN-ERR-DIG ERR-DIG
MEV        MB/SR
 0.0027     0.0128
ENDCOMMON            3
DATA                 3        593
ANG        EN         DATA
ADEG       MEV        MB/SR
        98.     8.3364     7.1776
        98.     8.3639     7.6483
        98.     8.3918     5.0938
        98.     8.4196     3.2452
        98.     8.4637     4.7243
        98.     8.4968     4.8589
        98.     8.5133      5.195
        98.     8.5575     5.0944
        98.      8.585     6.7079
        98.     8.6071      7.313
        98.     8.6458     6.7753
        98.      8.668      5.767
        98.     8.6959     2.7419
        98.     8.7345     3.3471
        98.     8.7567      2.137
        98.     8.7898     2.7086
        98.     8.8284      3.818
        98.     8.8504     4.9609
        98.     8.8835     5.1627
        98.     8.9223     4.3561
        98.     8.9444     3.5831
        98.      8.983     4.3227
        98.     9.0051     4.7597
        98.     9.0438     4.1548
        98.     9.0605     3.3482
        98.     9.0992     3.1466
        98.     9.1213     2.8105
        98.     9.1489     2.4409
        98.      9.182     3.2813
        98.     9.2096      3.752
        98.     9.2427     4.4916
        98.     9.2704     3.3152
        98.     9.2926     2.6431
        98.     9.3312     2.8449
        98.     9.3973     5.5005
        98.     9.4305     4.7276
        98.     9.4527     4.1226
        98.     9.4858     3.7193
        98.     9.5135     3.4841
        98.     9.5466     4.0557
        98.     9.5797     4.2911
        98.     9.6129     3.6525
        98.     9.6351     2.8123
        98.     9.6684     1.6695
        98.     9.6904     2.4763
        98.      9.729     3.0815
        98.     9.7677     3.3169
        98.     9.7897     4.1909
        98.     9.8284     4.0566
        98.      9.845     3.7878
        98.     9.8782     2.8467
        98.     9.9169     2.5443
        98.     9.9388     4.1578
        98.     9.9663     5.7714
        98.     10.005     6.0404
        98.     10.038     3.7548
        98.     10.077     3.6205
        98.     10.099     4.3264
        98.     10.132     3.6879
        98.     10.149      3.419
        98.     10.188     3.4528
        98.     10.221      3.621
        98.     10.259     3.7219
        98.     10.293     2.9489
        98.     10.315     2.3776
        98.     10.337     2.6466
        98.     10.353     3.2517
        98.      10.37     3.6551
        98.     10.386      4.193
        98.     10.408     4.4619
        98.     10.425     4.1259
        98.     10.442     3.3864
        98.     10.469     3.2184
        98.     10.497     2.9496
        98.     10.514      2.748
        98.     10.552     2.7481
        98.     10.574     2.8827
        98.     10.585     3.3533
        98.     10.618     3.1517
        98.     10.646     2.7821
        98.     10.657      3.051
        98.     10.685     3.5553
        98.     10.701     4.4293
        98.     10.712     5.4041
        98.     10.734     6.3454
        98.     10.751      6.648
        98.     10.778     6.4128
        98.      10.79     6.0767
        98.     10.812     5.7742
        98.     10.834     5.4718
        98.      10.85     5.0685
        98.     10.861     4.6315
        98.     10.884     4.0266
        98.       10.9     3.6233
        98.     10.989     3.3547
        98.     11.027     3.7245
        98.     11.055     3.7246
        98.     11.083     3.7583
        98.      11.11     3.7584
        98.     11.143     3.2879
        98.     11.182     2.8511
        98.     11.193     2.6158
        98.     11.232     2.9521
        98.     11.259     2.9522
        98.     11.276     2.6834
        98.     11.293      2.549
        98.     11.309     2.3473
        98.     11.326     2.0785
        98.      11.37     2.1459
        98.     11.381     2.7509
        98.     11.425     2.7175
        98.     11.447     2.6839
        98.     11.475     3.0538
        98.     11.486     3.6925
        98.     11.502     4.0959
        98.     11.524      4.264
        98.     11.547     4.4322
        98.     11.563     4.1297
        98.     11.569     3.9616
        98.     11.596     4.2643
        98.     11.618     4.5332
        98.     11.635     4.8022
        98.     11.663     4.8023
        98.     11.696     4.4663
        98.     11.718     4.3319
        98.     11.734     4.0967
        98.     11.751      3.895
        98.     11.768     3.4917
        98.     11.773     3.2228
        98.     11.784     2.8867
        98.     11.823     2.9205
        98.     11.839     3.3575
        98.      11.85     3.7945
        98.     11.884     3.6266
        98.       11.9     3.3913
        98.      11.95     3.0218
        98.     11.978     3.0555
        98.     12.016     3.2909
        98.     12.044     3.4254
        98.     12.066     3.2911
        98.      12.11     3.1904
        98.     12.121     2.9887
        98.     12.143     1.8459
        98.     12.166     1.7788
        98.     12.182     1.5099
        98.     12.221     1.9807
        98.     12.248     2.3505
        98.     12.276     2.7876
        98.     12.309      3.023
        98.     12.342     2.8886
        98.     12.364       2.25
        98.     12.409     2.0149
        98.     12.436     1.9478
        98.     12.453     1.5781
        98.     12.492     1.5782
        98.      12.53     1.5447
        98.     12.536     1.8136
        98.     12.574     2.2844
        98.     12.608     2.0156
        98.     12.635     1.6459
        98.     12.674     1.6797
        98.     12.707     1.5789
        98.      12.74     1.6799
        98.      12.79      1.949
        98.     12.818      1.781
        98.     12.845     1.5458
        98.     12.878     1.5795
        98.     12.917     1.8485
        98.     12.939     1.9495
        98.     12.978     1.9832
        98.     13.016     2.0506
        98.     13.038     2.3195
        98.     13.077     2.3869
        98.     13.132     2.4207
        98.     13.171     1.8158
        98.     13.204     1.7487
        98.     13.243     1.7488
        98.     13.276     1.5809
        98.     13.309     1.5473
        98.      13.32     1.3457
        98.     13.353     1.6483
        98.     13.387     1.8165
        98.     13.425     2.0183
        98.     13.458     2.1529
        98.     13.486     2.2874
        98.     13.514     2.3884
        98.     13.552      2.086
        98.      13.58     2.0188
        98.     13.635     1.9854
        98.     13.657     1.7838
        98.     13.701      1.784
        98.     13.751     1.8514
        98.     13.779     1.8178
        98.     13.812     1.7507
        98.     13.845       1.65
        98.     13.878     1.8182
        98.     13.906     1.8183
        98.     13.945     1.8184
        98.     13.978     1.8521
        98.     13.994     1.9866
        98.     14.022      2.054
       116.     8.3432     5.1251
       116.     8.3708     4.0314
       116.     8.4039     3.6252
       116.      8.437     3.9064
       116.     8.4591     3.1564
       116.     8.4867     2.6877
       116.     8.5198     3.7502
       116.     8.5585      3.219
       116.     8.5861     3.4377
       116.     8.6136     4.0002
       116.     8.6357      2.719
       116.     8.6633     1.7503
       116.      8.702     1.5003
       116.     8.7351     2.1565
       116.     8.7627     3.3128
       116.     8.7958     2.5628
       116.     8.8234     2.1566
       116.      8.851     2.1566
       116.     8.8786     2.7816
       116.     8.9558     2.0316
       116.     8.9779     2.6879
       116.      9.011     3.6254
       116.     9.0386     2.6567
       116.     9.0772     1.5629
       116.     9.0993     1.6879
       116.     9.1269     1.7192
       116.     9.1545     2.2505
       116.     9.1986     2.5317
       116.     9.2207     2.0942
       116.     9.2483     1.8443
       116.     9.2704      1.563
       116.     9.3035      1.313
       116.     9.3366      2.188
       116.     9.3587     3.5005
       116.     9.3973     1.9693
       116.     9.4139    0.56307
       116.      9.447    0.28183
       116.     9.4856     0.6256
       116.     9.5243    0.75061
       116.     9.5739    0.56313
       116.     9.6071    0.68814
       116.     9.6402     1.1569
       116.     9.6677     2.0007
       116.     9.6953     2.9382
       116.     9.7229     2.4069
       116.      9.756      2.157
       116.     9.7892     2.4695
       116.     9.8223     2.2507
       116.     9.8444     1.4695
       116.      9.872    0.93825
       116.     9.8995     1.1258
       116.     9.9327     1.0945
       116.     9.9603    0.84453
       116.     9.9934    0.53205
       116.     10.026    0.53206
       116.     10.049    0.56332
       116.     10.087    0.53209
       116.      10.12     0.4071
       116.     10.137    0.28211
       116.     10.187    0.43837
       116.     10.192    0.75088
       116.     10.214     1.0009
       116.     10.242     0.6884
       116.     10.269    0.71966
       116.     10.319    0.71968
       116.      10.33    0.84468
       116.     10.352     1.1884
       116.     10.385     1.2197
       116.     10.413     1.0947
       116.     10.429    0.93847
       116.     10.451    0.71973
       116.     10.479    0.81349
       116.     10.507      0.751
       116.     10.534    0.68851
       116.     10.562    0.78227
       116.     10.578    0.96978
       116.     10.595     1.1573
       116.     10.617     1.7198
       116.      10.65     1.9386
       116.     10.694     1.9073
       116.       10.7     1.7198
       116.     10.722     1.5011
       116.     10.749     1.6886
       116.     10.783     1.5949
       116.     10.794     1.3761
       116.     10.816     1.3136
       116.     10.854     1.1261
       116.     10.876     1.2824
       116.     10.887     1.4387
       116.     10.909     1.2199
       116.     10.915     1.0012
       116.     10.937    0.75117
       116.     10.981    0.87619
       116.     11.003     0.9387
       116.     11.036    0.93871
       116.     11.058    0.71997
       116.     11.092    0.75124
       116.      11.13    0.62625
       116.     11.163    0.87626
       116.     11.191      1.095
       116.     11.207     1.2825
       116.     11.235     1.5013
       116.     11.263     1.7201
       116.     11.274     1.9076
       116.      11.29     1.6888
       116.     11.307     1.5326
       116.     11.323     1.3451
       116.     11.329     1.1263
       116.     11.345    0.90759
       116.     11.368     0.7201
       116.     11.401    0.53261
       116.     11.423    0.34512
       116.      11.45    0.56388
       116.       11.5     0.6889
       116.     11.522    0.87641
       116.     11.533     1.0327
       116.     11.561    0.81392
       116.     11.572    0.62643
       116.      11.61    0.56394
       116.     11.643    0.65771
       116.     11.677    0.75147
       116.      11.71    0.62648
       116.     11.737    0.65774
       116.     11.748     1.0015
       116.     11.776    0.97026
       116.     11.809    0.90777
       116.     11.837    0.75153
       116.     11.881    0.93905
       116.      11.93    0.81407
       116.     11.958    0.78283
       116.     11.986    0.90784
       116.      12.03    0.84536
       116.     12.074    0.81413
       116.     12.113    0.87664
       116.     12.157    0.87666
       116.     12.195    0.81418
       116.     12.234    0.81419
       116.     12.262    0.84545
       116.     12.317     1.0017
       116.     12.355      1.033
       116.       12.4     1.3143
       116.      12.46     1.2205
       116.     12.493     1.0955
       116.     12.521    0.84555
       116.     12.554    0.87682
       116.     12.582     1.1268
       116.     12.615     1.2206
       116.     12.648     1.2519
       116.     12.692     1.2831
       116.     12.731     1.3769
       116.     12.764     1.4707
       116.     12.802     1.6269
       116.      12.83     1.8144
       116.     12.863     1.6269
       116.     12.902     1.5332
       116.      12.94     1.4395
       116.     12.985     1.4082
       116.     13.012      1.502
       116.     13.034     1.7833
       116.     13.067     2.3458
       116.       13.1     2.7208
       116.     13.128      2.877
       116.     13.167     2.8771
       116.       13.2     2.6583
       116.     13.222     2.4708
       116.      13.26     2.1896
       116.      13.31     2.0646
       116.     13.349     2.0334
       116.     13.371     1.9084
       116.     13.409     1.8459
       116.     13.432     1.7209
       116.      13.47     1.8772
       116.     13.514     1.8772
       116.     13.558      1.721
       116.     13.597      1.846
       116.     13.625      1.971
       116.     13.652     2.1273
       116.     13.685     2.3148
       116.     13.707      2.471
       116.     13.741     2.5023
       116.     13.801     2.5023
       116.     13.834     2.5023
       116.     13.856     2.3773
       116.     13.884     2.5961
       116.     13.912     2.4399
       116.      13.95     2.5336
       116.        14.     2.5024
       134.     8.3333     5.2506
       134.     8.3774     4.6471
       134.      8.405     5.1164
       134.     8.4327     8.6023
       134.     8.4658     7.5631
       134.     8.4878     7.0603
       134.     8.5151     4.0099
       134.     8.5482     3.7752
       134.     8.5813     4.1774
       134.     8.6144     4.7136
       134.     8.6474     3.9761
       134.     8.6695     4.3783
       134.     8.7027     6.0877
       134.     8.7303     6.3223
       134.     8.7689     7.4619
       134.     8.8018      4.311
       134.     8.8293      3.607
       134.     8.8514     3.0036
       134.     8.8899     3.0035
       134.     8.9175     3.5062
       134.     8.9561      3.238
       134.     9.0058     3.9418
       134.     9.0443     3.7741
       134.     9.0553     2.9361
       134.     9.0608     2.5673
       134.     9.0828     1.7628
       134.     9.1214     1.7627
       134.     9.1545     1.4945
       134.     9.1766     2.5335
       134.     9.2041     2.0642
       134.     9.2317     2.0641
       134.     9.2757     1.2931
       134.     9.3088      2.064
       134.     9.3366     4.6449
       134.     9.3697     5.1476
       134.     9.3916     3.8403
       134.     9.4191     2.2648
       134.     9.4577     2.1642
       134.     9.4853     3.3708
       134.     9.5129     3.9741
       134.     9.5405     3.6388
       134.     9.5735     3.2365
       134.     9.5955     2.5661
       134.     9.6397     3.8397
       134.     9.6785      6.253
       134.     9.7005     6.7558
       134.     9.7225     5.2809
       134.     9.7555      4.711
       134.     9.7886     4.0405
       134.     9.8105     2.3645
       134.     9.8437       3.37
       134.     9.8822     3.4369
       134.     9.9098     3.0346
       134.     9.9318     2.6658
       134.     9.9649     2.2635
       134.     10.003     2.2299
       134.     10.026     2.6321
       134.     10.059     2.1292
       134.     10.092     2.6655
       134.     10.114     3.5369
       134.     10.136     3.3693
       134.     10.152     4.5089
       134.     10.175     5.0452
       134.     10.213     4.7434
       134.     10.263     3.0673
       134.     10.274     2.7321
       134.     10.312     2.7655
       134.     10.356     3.0001
       134.     10.384     3.2011
       134.     10.406     2.9999
       134.     10.422     2.4301
       134.     10.444     2.0948
       134.     10.472     2.1618
       134.     10.511     2.0611
       134.     10.555     3.1337
       134.     10.571     3.4688
       134.     10.593     4.1056
       134.     10.604     4.5749
       134.     10.632     4.8095
       134.      10.66     4.5077
       134.     10.693     4.4741
       134.     10.726     4.3735
       134.     10.753     3.9712
       134.     10.775     3.5354
       134.     10.797     3.1666
       134.     10.819     3.2336
       134.     10.875     4.3396
       134.     10.891     4.5072
       134.     10.913     4.1384
       134.     10.919     3.8702
       134.     10.952     3.3339
       134.     10.985     3.6019
       134.     11.007     4.1047
       134.     11.012     4.4734
       134.      11.04     4.5739
       134.     11.056     4.1381
       134.     11.073     3.8699
       134.     11.112     4.0039
       134.     11.117     4.1715
       134.     11.134     3.9368
       134.     11.156     3.8697
       134.     11.167     4.1713
       134.     11.194     3.9702
       134.     11.194     3.7355
       134.     11.227      3.836
       134.     11.238     3.6013
       134.     11.255     4.5398
       134.     11.266     4.8415
       134.     11.305      4.942
       134.     11.316     4.5062
       134.     11.332      4.305
       134.      11.36     4.4726
       134.     11.398     4.3049
       134.     11.409     4.0032
       134.     11.426     3.6344
       134.     11.448     3.1986
       134.     11.464     2.9639
       134.     11.492     2.8298
       134.     11.514     2.6286
       134.     11.525     2.8632
       134.     11.547     2.6285
       134.     11.575     2.8296
       134.     11.602     3.2653
       134.     11.613     3.3993
       134.     11.635     3.6674
       134.     11.652     4.1032
       134.      11.69     4.0025
       134.     11.712     3.8684
       134.     11.729     3.4996
       134.     11.751     3.6001
       134.     11.773     4.0023
       134.      11.79     4.2369
       134.     11.839     4.2703
       134.     11.867     4.1027
       134.     11.883     3.7674
       134.     11.911     3.6333
       134.     11.938     3.5327
       134.     11.983      3.432
       134.     12.021     3.4319
       134.     12.038     3.2308
       134.      12.06     3.0966
       134.     12.082     2.9625
       134.     12.109     3.0295
       134.      12.12     3.2976
       134.     12.137     3.6998
       134.     12.153     3.4651
       134.     12.181     3.2639
       134.     12.209     2.4594
       134.     12.231     2.2582
       134.     12.258     2.7274
       134.     12.291     2.8279
       134.     12.308     2.6938
       134.     12.319     2.5597
       134.     12.352     1.9563
       134.     12.385     1.7551
       134.     12.412     2.2243
       134.      12.44       2.66
       134.     12.501     3.1291
       134.     12.539     3.1625
       134.     12.561     2.8943
       134.       12.6     2.4585
       134.     12.627     2.3579
       134.     12.655     2.4919
       134.     12.688     2.4583
       134.     12.743      3.028
       134.     12.809     3.0949
       134.     12.832     3.3965
       134.     12.876     3.5305
       134.     12.914     3.5304
       134.     12.953     3.3627
       134.     12.986     3.2956
       134.     13.041     3.1949
       134.     13.069     3.7982
       134.     13.129     4.4684
       134.     13.151     4.4349
       134.     13.173     4.4683
       134.     13.206     4.6358
       134.     13.223     4.8704
       134.     13.245     4.8033
       134.     13.262     4.7363
       134.     13.284     4.3005
       134.     13.311     4.3004
       134.     13.339     4.4009
       134.     13.344     4.7026
       134.     13.383     4.6019
       134.     13.416     4.7694
       134.     13.444     4.5682
       134.     13.471     4.6687
       134.     13.499     4.3335
       134.     13.532     4.1323
       134.     13.554     3.1937
       134.     13.592     3.2271
       134.     13.609     2.9589
       134.     13.653     2.9588
       134.      13.68     2.7912
       134.     13.714     2.6905
       134.     13.741      2.791
       134.     13.774     2.4222
       134.     13.818     2.2545
       134.     13.857     2.0533
       134.     13.895     2.0532
       134.     13.917     1.9191
       134.      13.95     1.7849
       134.     13.978     1.7178
       134.     14.006     1.6507
ENDDATA            595
ENDSUBENT          607
SUBENT        F1068003   20100622   20110216   20110112       F039
BIB                  3          3
REACTION   (12-MG-26(P,INL)12-MG-26,PAR,DA)
ERR-ANALYS (EN-ERR-DIG) Energy digitizing error
STATUS     (CURVE) Fig.4
ENDBIB               3
COMMON               4          3
E-LVL      ANG        EN-ERR-DIG ERR-DIG
MEV        ADEG       MEV        MB/SR
  2.938      170.      0.0027     0.0128
ENDCOMMON            3
DATA                 2        209
EN         DATA
MEV        MB/SR
     8.3315     1.6469
     8.3591     1.3233
     8.3923    0.70567
     8.4144    0.99978
      8.442      1.088
     8.4752     1.1762
     8.5138     1.0586
     8.5415      1.235
     8.5691    0.82323
     8.5967     1.9703
     8.6299     1.9703
     8.6575     1.9702
     8.7017     2.0584
     8.7183     3.9408
      8.757     3.9996
     8.7846     4.4113
     8.8122     3.0584
     8.8509     2.4701
     8.8674    0.94071
     8.9006     1.9407
     8.9393     2.3819
     8.9724     1.9407
      8.989    0.85241
     9.0221     1.1465
     9.0718     1.2053
     9.0829     1.6759
     9.1161     2.2935
     9.1492       2.97
     9.1824     2.2935
       9.21     1.7641
     9.2321     1.9993
     9.2542     2.4699
     9.2763     3.4405
      9.315     3.1758
     9.3592     4.7346
     9.3868     3.1169
     9.4089     1.9992
      9.442     1.9698
     9.4696     1.4404
     9.4973    0.96979
     9.5194    0.85213
     9.5691    0.91093
     9.6022    0.76385
     9.6243     1.9697
     9.6851      3.205
     9.7183     2.8226
     9.7514     3.2344
     9.7791     2.8814
     9.8011     1.7637
     9.8453     1.6461
     9.8619     1.2931
     9.8895    0.82252
     9.9282     0.8225
     9.9558    0.46954
      9.989    0.99894
     10.022    0.85186
     10.077     1.7342
     10.099      2.293
     10.133     2.7047
     10.166     3.0871
     10.182     2.7635
     10.193     2.1753
     10.227     1.6753
     10.232     2.0282
     10.238     1.1459
      10.26    0.82232
     10.271    0.61643
     10.298    0.41054
     10.315    0.55759
     10.332    0.82228
     10.337     1.0576
      10.37      1.234
     10.387     1.8223
     10.409     2.1164
      10.42     2.2928
     10.442     2.4105
     10.464     2.6457
      10.47     2.4399
     10.492     2.5281
     10.514      3.381
      10.53     4.3516
     10.542     4.7339
     10.564     4.3516
     10.591      3.528
     10.597     2.7633
     10.613     2.4398
     10.646     2.4103
      10.68      2.528
     10.702     3.2044
     10.713     3.8515
     10.729     3.7044
     10.757     2.0573
     10.774      2.822
      10.79     1.8514
     10.823     1.7338
     10.851     1.8808
     10.867     2.1161
     10.884     2.6749
     10.928     2.7337
     10.945     2.1455
     10.956     1.6455
     10.967     1.4396
        11.     1.0278
     11.011    0.82192
     11.033     1.0866
      11.05     1.4984
     11.061     1.8513
     11.088     1.7336
     11.127     1.4395
     11.133     1.0571
     11.155    0.85126
     11.182    0.76301
     11.204     0.5277
     11.232    0.38063
     11.271    0.26296
     11.287     0.3806
     11.304    0.55706
     11.326     1.0276
     11.348     1.2335
     11.365     1.3511
     11.381     1.5276
     11.409     1.1746
      11.42    0.90994
     11.436     1.0864
     11.459     1.4393
     11.486     1.4687
     11.508     1.3217
     11.541     1.5275
     11.564     1.9687
     11.608     1.9687
     11.624     1.7922
     11.652     1.5275
     11.669     1.2627
     11.691     1.0569
     11.707    0.88037
      11.74     0.7333
     11.757    0.88035
     11.779     1.2627
     11.796     1.4391
     11.845     1.3215
     11.901     1.7038
     11.917     2.1156
     11.939     2.7626
        12.     2.7332
     12.017      1.939
     12.061     1.2331
     12.094     1.3508
     12.133     1.3801
     12.149     1.1743
     12.177      1.086
     12.204     1.0272
     12.215     0.8801
     12.254    0.79184
     12.282    0.82124
     12.315     1.0565
     12.348     1.0859
     12.376       1.38
     12.392     1.6153
     12.436     1.5565
     12.481     1.5564
     12.519     1.5564
     12.541      1.027
      12.58     1.1446
     12.608     1.4093
     12.635     1.7622
     12.674     1.4681
     12.691      1.174
     12.718    0.82101
     12.762     0.6151
     12.785    0.99744
     12.823    0.87977
     12.851    0.87976
     12.873    0.96798
     12.912     1.1738
      12.95     1.2915
     12.972     1.4091
     13.006     1.4091
     13.033     1.3797
     13.061     1.0267
     13.094    0.79139
     13.122    0.79138
     13.144     1.1443
     13.182     1.2031
     13.215    0.87957
     13.243    0.67367
     13.271    0.58542
     13.304    0.52658
     13.337    0.55597
     13.365    0.70302
      13.42     1.2324
     13.464     1.2324
     13.486     1.1735
     13.525     1.2029
     13.558     1.3206
      13.58     1.4676
     13.602     1.7323
     13.635     2.0558
     13.669     1.9381
     13.702     1.8499
     13.729     1.4087
     13.757     1.2028
      13.79      1.291
     13.812     1.2028
     13.851     1.1733
     13.884     1.1439
     13.912     1.0263
     13.945    0.87918
     13.967     0.7321
     13.994    0.64385
ENDDATA            211
ENDSUBENT          223
SUBENT        F1068004   20100622   20110216   20110112       F039
BIB                  3          3
REACTION   (12-MG-26(P,EL)12-MG-26,,DA)
ERR-ANALYS (EN-ERR-DIG) Energy digitizing error
STATUS     (CURVE) Fig.3
ENDBIB               3
COMMON               3          3
ANG        EN-ERR-DIG ERR-DIG
ADEG       MEV        MB/SR
  152.      0.0029     0.0282
ENDCOMMON            3
DATA                 2        207
EN         DATA
MEV        MB/SR
     8.3221     5.5685
     8.3552      6.581
     8.3939     10.378
     8.4049      9.872
      8.449     9.6187
     8.4821     10.821
     8.5096     6.8337
      8.537     3.8589
     8.5647     6.3905
     8.5977     5.8207
     8.6309     8.5421
     8.6694     7.3395
     8.6915     8.2888
     8.7247     11.263
     8.7522     10.251
     8.7686     4.6809
     8.8127     4.3643
     8.8403     5.8199
     8.8844     5.9463
      8.901     7.0855
     8.9395     7.1487
     8.9671      5.946
     8.9946       4.87
     9.0332     5.3129
     9.0553      5.123
     9.0828     3.7305
     9.1159     4.3633
     9.1379     3.7303
      9.171     2.5909
     9.1985     2.1478
     9.2536     1.0717
     9.2922     1.8943
     9.3254     5.8182
     9.3585     7.1472
     9.3806      8.856
     9.4192     8.3496
     9.4357     6.8938
     9.4687     6.3241
     9.5018     6.5771
     9.5349     5.3112
     9.5624     4.9314
       9.59     4.1085
     9.6176      5.754
     9.6507     8.7918
     9.6893     8.2854
     9.7168     6.8296
     9.7554     7.2092
     9.7774     5.5002
      9.805     6.0698
     9.8381     4.8671
     9.8711     5.4999
     9.8987     3.7277
     9.9207     3.0314
     9.9593     2.5882
     9.9814      3.854
     10.014     3.7273
     10.048     3.6639
     10.086       4.36
     10.114      5.689
      10.13     6.5117
     10.141     7.0813
     10.163     7.7141
     10.202     7.3342
     10.241      7.524
     10.257     7.2075
     10.301     7.2706
     10.307     6.3845
     10.323     5.4984
     10.351     4.4856
     10.384     5.1817
     10.417     4.9917
     10.428     4.6752
      10.45     4.7385
     10.466     3.9156
     10.483     3.2194
     10.516     3.2825
     10.522     3.9154
     10.549     4.6748
     10.577     5.0545
     10.604     4.6746
     10.621     5.1176
     10.659     4.4846
     10.676     4.9909
     10.693     5.6237
     10.715     6.0034
     10.731     6.8261
     10.742     7.6489
      10.77     7.6488
     10.803     7.2056
     10.858     7.5852
      10.88     7.3952
     10.897     6.8888
     10.924     6.8887
     10.935     6.0659
     10.946     5.3697
     10.985     5.4328
     10.996     5.8126
     11.007     6.3188
     11.029     6.7618
     11.062     6.9516
     11.089     6.7616
     11.106     6.4451
     11.117     5.3691
     11.134     4.5463
     11.161     4.9259
     11.194     4.6726
     11.216     5.0523
     11.249     5.1788
     11.271     4.7357
     11.293     4.8622
     11.321     4.2925
      11.36     4.6721
     11.387     5.1783
     11.415     5.1149
      11.42     4.7352
     11.437     4.1655
      11.47     4.0388
     11.486     4.2919
     11.503     4.6716
     11.536     4.1019
     11.569     4.3549
     11.591     5.1143
     11.613     5.7472
      11.63     6.4433
     11.652     6.7597
      11.69     6.7596
     11.723     6.8227
     11.745     6.1265
     11.751     6.5062
     11.756     5.6201
      11.79     5.6833
     11.806     6.4427
     11.828     6.8857
     11.839     7.2021
     11.856     7.5185
       11.9     7.1386
       11.9     6.8221
     11.938     7.7081
     11.966     7.5181
     11.977      7.075
     12.016     7.0749
     12.043     6.6951
     12.049      6.252
     12.065     5.9355
     12.093     5.1759
     12.104     5.6189
     12.126      5.872
     12.159     6.3149
     12.186     5.1756
     12.225     4.6691
     12.264      4.669
     12.286     5.1752
     12.308     5.3018
     12.346     4.3523
     12.374     3.7825
     12.401     3.2128
      12.44     3.2127
     12.495     4.3517
     12.517     4.7947
     12.561     5.3009
     12.578     4.7312
     12.616     4.0982
     12.644     3.7183
     12.672     3.4651
     12.705     3.5915
     12.738      3.718
     12.765     4.0977
     12.793     3.4647
     12.831     3.4645
     12.864     3.5277
     12.909     4.1605
     12.936     3.9705
     12.964     3.8438
     12.991     3.7171
     13.002     3.4639
     13.035      3.717
     13.063     3.9068
     13.091     4.6029
     13.118     4.9825
     13.151     5.0457
     13.184     5.0456
     13.217     5.2354
     13.245      5.172
     13.272     5.0453
     13.306      4.349
     13.339      4.602
     13.366     4.8551
     13.388     5.2348
     13.427     5.5511
     13.454     5.8042
     13.487     6.2471
     13.515     5.7407
     13.548     5.2975
     13.576     5.0443
     13.609     4.9176
     13.647     4.8542
     13.669     4.6009
     13.697     3.8413
      13.73     3.7779
     13.763     3.7778
     13.818     3.4612
     13.846     3.4611
     13.873     3.3977
     13.906     2.9545
      13.95     2.6379
     13.978      2.448
     14.006     2.0681
ENDDATA            209
ENDSUBENT          221
SUBENT        F1068005   20100622   20110216   20110112       F039
BIB                  3          3
REACTION   (12-MG-26(P,EL)12-MG-26,,DA)
ERR-ANALYS (EN-ERR-DIG) Energy digitizing error
STATUS     (CURVE) Fig.3
ENDBIB               3
COMMON               3          3
ANG        EN-ERR-DIG ERR-DIG
ADEG       MEV        MB/SR
  170.      0.0027     0.0137
ENDCOMMON            3
DATA                 2        211
EN         DATA
MEV        MB/SR
     8.3234     6.0465
     8.3509     8.9535
     8.3729     13.488
     8.4059      10.93
     8.4334     9.3023
     8.4664     13.605
     8.4939     6.7442
      8.527     3.8372
      8.549     5.9302
     8.5545     8.0233
     8.5875     5.9302
     8.6205     8.8372
     8.6535     9.8837
       8.67      14.98
     8.7085     14.651
     8.7415     10.581
      8.769     3.2558
      8.802     5.1163
      8.835     9.6512
     8.8625     10.581
       8.89     11.977
     8.9285     13.023
      8.956     9.4186
      8.989     6.1628
     9.0165     7.4419
      9.044     8.6047
     9.0715     7.5581
      9.099     9.6512
     9.1155     8.7209
      9.132     7.3256
     9.1595     3.8372
     9.1925     2.6744
       9.22     1.9767
      9.253    0.69767
      9.275     1.9767
     9.3135     7.2093
     9.3355      10.02
     9.3685     17.442
     9.4015     19.535
       9.44     16.047
     9.4565     12.674
     9.5006     11.279
     9.5226     7.6744
     9.5556     7.3256
     9.5831     6.3953
     9.6161     10.465
     9.6381     13.023
     9.6656     11.395
     9.7041     9.0698
     9.7316      10.93
     9.7646     6.8605
     9.7921     7.5581
     9.8306     6.6279
     9.8581     7.5581
     9.8856     4.8837
     9.9076     2.3256
     9.9406      2.093
     9.9791     4.5349
     10.001     4.5349
     10.045     4.3023
     10.073     4.6512
       10.1     6.2791
     10.111     6.8605
     10.133      7.093
      10.21     9.6512
     10.221     11.279
     10.238     11.744
     10.265     14.302
     10.276     14.767
     10.293     13.023
     10.304     10.233
     10.331     7.4419
     10.348     6.5116
      10.37     7.6744
     10.381     8.2558
     10.403     8.7209
     10.419      7.907
     10.441     7.6744
     10.447     6.8605
      10.48     4.6512
     10.502     7.7907
     10.502      5.814
     10.535     7.5581
     10.551      5.814
     10.573     4.6512
     10.579     3.7209
     10.623     3.7208
     10.639     2.7907
     10.672     3.0233
     10.683     3.6047
     10.705     3.8372
     10.716     5.2326
     10.727      7.907
     10.749     9.4186
     10.771     10.116
     10.793      10.93
     10.821     11.047
     10.826     10.349
     10.848     9.7674
     10.859     8.7209
     10.881     9.5349
     10.898     10.465
     10.914     9.5349
     10.942     8.6047
     10.975     8.6048
     11.008     7.6744
     11.024     8.8372
     11.041     11.047
     11.068     11.163
     11.085     10.581
      11.09     8.9535
     11.096     7.3256
     11.112     5.6977
     11.134     4.4186
     11.167     4.3023
     11.184     5.9302
       11.2     6.9767
     11.211     7.7907
     11.239     7.4419
     11.261     6.1628
     11.272     4.8837
     11.299     3.3721
     11.354     3.3723
     11.382     3.8372
     11.415     3.7209
      11.42     3.0233
     11.448      2.907
      11.47     3.9535
     11.492     4.4186
     11.503     3.9535
     11.536     4.3023
     11.569     4.7674
     11.585     6.1628
     11.613     6.9767
     11.657     6.9767
     11.679     7.4419
     11.712     7.6744
     11.745     6.3953
     11.783     6.6279
     11.816     7.5581
     11.822     8.6047
     11.849     9.8837
     11.882     10.698
      11.91     11.395
     11.965     10.814
     12.009     10.581
     12.031     9.7674
     12.047     8.7209
     12.069     7.7907
     12.108     6.9767
     12.135     7.6744
     12.163      9.186
     12.201     8.1395
     12.245     7.2093
     12.289     6.5116
     12.322     6.7442
      12.35     7.5581
     12.377     6.1628
     12.416     5.9302
     12.449      5.814
     12.465     6.6279
     12.509     7.6744
     12.537     8.9535
     12.564     9.6512
     12.597     8.9535
     12.619     7.6744
     12.647     6.5116
     12.685     6.5118
     12.707     6.9767
      12.74     6.8605
     12.773     5.3488
     12.801     4.7674
     12.834     4.5349
     12.861     5.4651
     12.889     5.9302
     12.922     5.6977
     12.949      4.998
     12.982      5.012
      13.01      5.814
     13.037     6.5116
     13.065     6.5116
     13.087     6.1628
     13.103     5.6977
     13.125     6.3953
     13.158     6.7442
     13.191     5.9302
     13.224     5.5814
     13.263      5.814
     13.285     5.9302
     13.312     5.5814
     13.345     4.7674
     13.378     4.7674
     13.428     5.6977
     13.455     6.2791
     13.499      7.093
     13.521     7.5581
     13.554     7.5581
     13.582     7.6744
     13.609     8.3721
     13.642     8.6047
      13.67     8.0233
     13.697     7.6744
      13.73     7.3256
     13.758     6.7442
     13.791     6.6279
     13.829     6.6279
     13.862     6.5116
      13.89     6.2791
     13.906     5.3488
      13.95     4.0698
     13.967      2.907
ENDDATA            213
ENDSUBENT          225
SUBENT        F1068006   20100622   20110216   20110112       F039
BIB                  3          3
REACTION   (12-MG-26(P,INL)12-MG-26,PAR,DA)
ERR-ANALYS (EN-ERR-DIG) Energy digitizing error
STATUS     (CURVE) Fig.4-5
ENDBIB               3
COMMON               2          3
EN-ERR-DIG ERR-DIG
MEV        MB/SR
 0.0029     0.0071
ENDCOMMON            3
DATA                 4       1749
E-LVL      ANG        EN         DATA
MEV        ADEG       MEV        MB/SR
      2.938        98.     8.3358      1.289
      2.938        98.     8.3635     1.0127
      2.938        98.     8.3967    0.94681
      2.938        98.     8.4188     1.0126
      2.938        98.     8.4854     1.3414
      2.938        98.      8.513     1.0914
      2.938        98.     8.5295    0.78874
      2.938        98.     8.5738    0.80184
      2.938        98.     8.6348     1.1965
      2.938        98.     8.6403    0.98595
      2.938        98.     8.6679    0.65697
      2.938        98.     8.7067    0.69639
      2.938        98.     8.7288    0.73583
      2.938        98.     8.7565    0.63053
      2.938        98.     8.7897    0.61733
      2.938        98.     8.8506    0.60409
      2.938        98.     8.8783    0.74879
      2.938        98.     8.9171    0.59084
      2.938        98.     8.9558    0.65657
      2.938        98.     8.9725    0.88024
      2.938        98.     9.0113    0.88018
      2.938        98.     9.0445    0.82751
      2.938        98.     9.0666    0.88011
      2.938        98.     9.1054    0.94584
      2.938        98.     9.1276     1.0642
      2.938        98.     9.1608     1.1563
      2.938        98.     9.1885      1.222
      2.938        98.     9.2106     0.9457
      2.938        98.     9.2438    0.87986
      2.938        98.     9.2715    0.84035
      2.938        98.     9.3103    0.80083
      2.938        98.      9.338    0.89289
      2.938        98.     9.3713     1.3271
      2.938        98.     9.3934     1.3533
      2.938        98.     9.4321     1.0901
      2.938        98.     9.4598    0.85325
      2.938        98.     9.4874    0.70848
      2.938        98.     9.5206    0.73475
      2.938        98.     9.5429    0.99788
      2.938        98.     9.5872     1.0636
      2.938        98.     9.6093      0.932
      2.938        98.      9.637     1.1293
      2.938        98.     9.6593      1.603
      2.938        98.     9.7036      1.695
      2.938        98.     9.7313     1.5371
      2.938        98.     9.7534     1.3792
      2.938        98.      9.781     1.3002
      2.938        98.     9.8143     1.3265
      2.938        98.      9.853     1.1685
      2.938        98.     9.8807     1.1816
      2.938        98.     9.9084     1.2737
      2.938        98.      9.936    0.98418
      2.938        98.     9.9692     1.0499
      2.938        98.     9.9859     1.1683
      2.938        98.      9.997     1.2604
      2.938        98.     10.025     1.4183
      2.938        98.     10.058     1.6945
      2.938        98.     10.091     1.3129
      2.938        98.     10.119     1.1418
      2.938        98.     10.141     1.0365
      2.938        98.     10.163    0.85229
      2.938        98.     10.191     1.0233
      2.938        98.     10.213     1.1812
      2.938        98.      10.23     1.2864
      2.938        98.     10.241     1.2074
      2.938        98.     10.263     1.1285
      2.938        98.     10.274     1.2469
      2.938        98.     10.307     1.3784
      2.938        98.     10.324     1.2731
      2.938        98.     10.346     1.1547
      2.938        98.     10.379     1.1546
      2.938        98.     10.396     1.3125
      2.938        98.     10.429     1.3388
      2.938        98.      10.44     1.2203
      2.938        98.     10.451     1.0756
      2.938        98.     10.473    0.95713
      2.938        98.     10.495    0.85183
      2.938        98.     10.517    0.94391
      2.938        98.     10.545     1.0623
      2.938        98.     10.567     1.0228
      2.938        98.     10.589    0.94381
      2.938        98.     10.606    0.89116
      2.938        98.     10.617     1.0227
      2.938        98.      10.65     0.9832
      2.938        98.     10.661     0.9174
      2.938        98.     10.667    0.73318
      2.938        98.     10.694    0.66735
      2.938        98.     10.728    0.58836
      2.938        98.     10.739    0.49624
      2.938        98.     10.761    0.41726
      2.938        98.     10.789    0.41722
      2.938        98.     10.794    0.49616
      2.938        98.     10.827    0.53559
      2.938        98.     10.849    0.49609
      2.938        98.     10.883    0.48288
      2.938        98.     10.982    0.83801
      2.938        98.     10.999     1.0222
      2.938        98.     11.016     1.1143
      2.938        98.     11.049     1.0616
      2.938        98.     11.082    0.81156
      2.938        98.     11.093    0.71944
      2.938        98.     11.137    0.57464
      2.938        98.     11.176     0.6009
      2.938        98.     11.215    0.70611
      2.938        98.     11.248    0.69291
      2.938        98.     11.276    0.77182
      2.938        98.     11.304    0.86388
      2.938        98.     11.331    0.92964
      2.938        98.     11.365    0.92959
      2.938        98.     11.387     1.0217
      2.938        98.     11.414     1.0479
      2.938        98.     11.431       1.14
      2.938        98.     11.448      1.219
      2.938        98.     11.475     1.1531
      2.938        98.     11.492     1.1005
      2.938        98.     11.509    0.98202
      2.938        98.     11.531    0.95568
      2.938        98.     11.536    0.79778
      2.938        98.     11.564    0.77142
      2.938        98.     11.586    0.85034
      2.938        98.     11.608    0.77136
      2.938        98.     11.652    0.73183
      2.938        98.     11.664    0.90286
      2.938        98.      11.68    0.98179
      2.938        98.     11.713    0.98174
      2.938        98.     11.724    0.91594
      2.938        98.     11.741    0.85013
      2.938        98.     11.785     0.9027
      2.938        98.     11.796    0.98163
      2.938        98.     11.819     1.0342
      2.938        98.     11.841      1.102
      2.938        98.     11.874     1.1263
      2.938        98.     11.896     1.2183
      2.938        98.      11.94     1.0735
      2.938        98.     11.968     1.0603
      2.938        98.      11.99    0.99452
      2.938        98.     12.001    0.92872
      2.938        98.     12.018    0.86291
      2.938        98.     12.023    0.79711
      2.938        98.     12.051    0.79707
      2.938        98.     12.101    0.88911
      2.938        98.     12.123    0.83645
      2.938        98.     12.134    0.56011
      2.938        98.     12.167    0.50744
      2.938        98.     12.206    0.59949
      2.938        98.     12.239    0.59944
      2.938        98.     12.261    0.50731
      2.938        98.     12.295    0.67832
      2.938        98.     12.328    0.74406
      2.938        98.     12.356    0.67823
      2.938        98.     12.401    0.65186
      2.938        98.     12.433    0.61234
      2.938        98.     12.472    0.61228
      2.938        98.     12.505     0.6254
      2.938        98.     12.538    0.63851
      2.938        98.     12.572    0.73057
      2.938        98.     12.616    0.84893
      2.938        98.     12.655    0.83572
      2.938        98.     12.677    0.74358
      2.938        98.     12.716    0.79616
      2.938        98.     12.749    0.84875
      2.938        98.     12.793    0.84869
      2.938        98.     12.804    0.73025
      2.938        98.     12.837    0.58547
      2.938        98.     12.882    0.57225
      2.938        98.     12.915    0.54589
      2.938        98.     12.959    0.61162
      2.938        98.     12.998    0.63788
      2.938        98.     13.026    0.59837
      2.938        98.     13.059    0.55885
      2.938        98.     13.086    0.45355
      2.938        98.     13.125    0.55876
      2.938        98.     13.153    0.57188
      2.938        98.     13.192     0.6113
      2.938        98.     13.225     0.5323
      2.938        98.     13.258    0.47963
      2.938        98.     13.286    0.44012
      2.938        98.     13.341    0.40057
      2.938        98.     13.385    0.45314
      2.938        98.     13.408    0.53205
      2.938        98.     13.452    0.47936
      2.938        98.     13.485    0.46616
      2.938        98.     13.502    0.54508
      2.938        98.     13.552    0.53186
      2.938        98.     13.585    0.51865
      2.938        98.     13.624    0.54492
      2.938        98.     13.651    0.61067
      2.938        98.      13.69    0.62377
      2.938        98.     13.729     0.5974
      2.938        98.     13.756    0.58421
      2.938        98.      13.79    0.54469
      2.938        98.      13.84    0.53146
      2.938        98.     13.867    0.46563
      2.938        98.     13.895    0.41296
      2.938        98.     13.928    0.37345
      2.938        98.     13.961    0.32077
      2.938        98.     14.006    0.29439
      2.938       116.     8.3362     1.6751
      2.938       116.     8.3804     1.5127
      2.938       116.     8.4191     1.6127
      2.938       116.     8.4634     1.7002
      2.938       116.     8.4854     2.5002
      2.938       116.     8.5241     2.4627
      2.938       116.     8.5464     1.3752
      2.938       116.     8.5851     1.3002
      2.938       116.     8.6182     1.6877
      2.938       116.     8.6403     2.1003
      2.938       116.      8.668     1.2878
      2.938       116.     8.7068     1.1753
      2.938       116.     8.7344     1.3003
      2.938       116.     8.7676     1.1128
      2.938       116.     8.7897     1.3753
      2.938       116.     8.8229     1.4503
      2.938       116.     8.8561    0.92534
      2.938       116.     8.8893     1.0754
      2.938       116.     8.9446     1.1629
      2.938       116.     8.9778     1.2504
      2.938       116.     9.0054     1.1379
      2.938       116.     9.0331     1.2254
      2.938       116.     9.0663     1.3379
      2.938       116.     9.0939     1.2754
      2.938       116.     9.1326      1.788
      2.938       116.     9.1547     2.2755
      2.938       116.     9.1989     2.1505
      2.938       116.     9.2101     1.1507
      2.938       116.     9.2378     1.0506
      2.938       116.      9.282    0.90051
      2.938       116.     9.3096     1.1005
      2.938       116.     9.3317     1.5255
      2.938       116.     9.3648     2.6005
      2.938       116.      9.398     2.6256
      2.938       116.     9.4312     2.2506
      2.938       116.     9.4811     1.7756
      2.938       116.     9.5142     1.8256
      2.938       116.     9.5364     1.6006
      2.938       116.     9.5807     1.2631
      2.938       116.     9.6083    0.98814
      2.938       116.      9.636     1.2257
      2.938       116.     9.6691     1.6882
      2.938       116.     9.7023     1.7507
      2.938       116.       9.73     1.6007
      2.938       116.     9.7576     1.2632
      2.938       116.     9.7908     1.3382
      2.938       116.     9.8462     1.0132
      2.938       116.     9.8793     1.2383
      2.938       116.      9.907     1.4258
      2.938       116.     9.9402     1.0758
      2.938       116.     9.9844     1.1508
      2.938       116.     10.001     1.5383
      2.938       116.     10.034     1.8258
      2.938       116.     10.056     1.9008
      2.938       116.     10.095     1.5258
      2.938       116.     10.117     1.3008
      2.938       116.      10.15     1.1509
      2.938       116.     10.178     1.0134
      2.938       116.     10.189     1.1884
      2.938       116.     10.206     1.2509
      2.938       116.      10.25     0.9884
      2.938       116.     10.272    0.92591
      2.938       116.     10.289     1.1259
      2.938       116.     10.305     1.3259
      2.938       116.     10.322     1.2384
      2.938       116.     10.344     1.1259
      2.938       116.     10.366     1.0259
      2.938       116.     10.377    0.93845
      2.938       116.     10.416    0.96347
      2.938       116.     10.438    0.88848
      2.938       116.     10.466    0.82599
      2.938       116.     10.493     0.7635
      2.938       116.     10.532    0.88851
      2.938       116.     10.532    0.78851
      2.938       116.     10.549     1.0385
      2.938       116.     10.582      1.151
      2.938       116.     10.598     1.2135
      2.938       116.     10.626     1.1636
      2.938       116.     10.632     1.0261
      2.938       116.     10.654    0.82606
      2.938       116.     10.659    0.66356
      2.938       116.     10.676    0.57607
      2.938       116.     10.715    0.67609
      2.938       116.     10.726    0.85109
      2.938       116.     10.748     0.7261
      2.938       116.     10.759     0.5761
      2.938       116.      10.77    0.46361
      2.938       116.     10.786    0.53862
      2.938       116.     10.825    0.51363
      2.938       116.     10.847    0.43864
      2.938       116.      10.88    0.48865
      2.938       116.     10.914    0.45117
      2.938       116.     10.947    0.36368
      2.938       116.     10.958    0.45118
      2.938       116.     10.969    0.51369
      2.938       116.     10.975    0.62619
      2.938       116.     10.991     0.6762
      2.938       116.     11.024    0.70121
      2.938       116.     11.057    0.60122
      2.938       116.     11.074    0.41373
      2.938       116.     11.113    0.45125
      2.938       116.     11.157    0.51376
      2.938       116.     11.157    0.43876
      2.938       116.     11.179    0.56377
      2.938       116.     11.218    0.50129
      2.938       116.     11.251     0.5263
      2.938       116.     11.262    0.61381
      2.938       116.     11.279    0.72631
      2.938       116.     11.301    0.80132
      2.938       116.     11.317    0.87633
      2.938       116.     11.328    0.97632
      2.938       116.     11.351     1.0388
      2.938       116.     11.378     1.1264
      2.938       116.     11.411     1.0014
      2.938       116.     11.428    0.95137
      2.938       116.     11.445    0.88888
      2.938       116.     11.478    0.81389
      2.938       116.     11.494     0.7764
      2.938       116.     11.511     0.7014
      2.938       116.     11.539    0.56392
      2.938       116.     11.566    0.50143
      2.938       116.     11.605    0.46394
      2.938       116.     11.622    0.36395
      2.938       116.     11.655    0.40146
      2.938       116.     11.677    0.45147
      2.938       116.     11.694    0.58898
      2.938       116.     11.721    0.60149
      2.938       116.     11.732    0.67649
      2.938       116.     11.776    0.72651
      2.938       116.     11.799    0.68902
      2.938       116.     11.837    0.72654
      2.938       116.     11.859    0.82654
      2.938       116.     11.882    0.90155
      2.938       116.     11.898    0.82656
      2.938       116.     11.926    0.87657
      2.938       116.     11.965    0.82659
      2.938       116.     11.998     0.7141
      2.938       116.     12.048    0.71412
      2.938       116.     12.081    0.77663
      2.938       116.     12.114    0.76415
      2.938       116.     12.147    0.76416
      2.938       116.     12.169    0.62667
      2.938       116.     12.186    0.55167
      2.938       116.     12.197    0.46418
      2.938       116.     12.263    0.50171
      2.938       116.     12.307    0.51422
      2.938       116.     12.357    0.52674
      2.938       116.     12.374    0.46425
      2.938       116.     12.418    0.45177
      2.938       116.     12.451    0.42678
      2.938       116.     12.496     0.4518
      2.938       116.     12.529    0.55181
      2.938       116.     12.556    0.67682
      2.938       116.      12.59    0.63934
      2.938       116.     12.617    0.70185
      2.938       116.      12.65    0.68936
      2.938       116.     12.678    0.61437
      2.938       116.     12.722    0.61439
      2.938       116.      12.75     0.6394
      2.938       116.     12.827    0.55193
      2.938       116.     12.855    0.60194
      2.938       116.     12.894    0.53946
      2.938       116.     12.927    0.57697
      2.938       116.     12.966    0.51449
      2.938       116.     12.993      0.477
      2.938       116.     13.032    0.47701
      2.938       116.     13.049    0.38952
      2.938       116.     13.087    0.35204
      2.938       116.     13.115    0.40205
      2.938       116.     13.148    0.45206
      2.938       116.     13.198    0.55208
      2.938       116.     13.231    0.51459
      2.938       116.     13.248     0.3646
      2.938       116.     13.298    0.32712
      2.938       116.      13.32    0.25213
      2.938       116.     13.353    0.23964
      2.938       116.     13.386    0.26465
      2.938       116.     13.436    0.28967
      2.938       116.     13.469    0.27719
      2.938       116.     13.519    0.26471
      2.938       116.     13.557    0.30222
      2.938       116.     13.624    0.30225
      2.938       116.     13.646    0.31476
      2.938       116.     13.674    0.33977
      2.938       116.     13.712    0.28979
      2.938       116.     13.746     0.3148
      2.938       116.     13.779    0.35231
      2.938       116.     13.801    0.40232
      2.938       116.      13.84    0.36484
      2.938       116.     13.878    0.33985
      2.938       116.     13.895    0.27736
      2.938       116.     13.934    0.27737
      2.938       116.     13.972    0.26489
      2.938       116.     14.011     0.2149
      2.938       134.     8.3424     1.5506
      2.938       134.     8.3755     1.5506
      2.938       134.     8.4032     1.4835
      2.938       134.     8.4252     1.6177
      2.938       134.     8.4639     1.5775
      2.938       134.     8.4804     2.6245
      2.938       134.      8.519     2.8527
      2.938       134.     8.5523     1.6447
      2.938       134.     8.5855     1.2554
      2.938       134.     8.6131     1.7387
      2.938       134.     8.6407      2.034
      2.938       134.     8.6738     1.7387
      2.938       134.     8.7015     1.5239
      2.938       134.      8.729     2.1951
      2.938       134.     8.7567     2.0609
      2.938       134.     8.7842     2.6515
      2.938       134.     8.8285     2.4368
      2.938       134.     8.8451     1.5106
      2.938       134.     8.8893     1.5106
      2.938       134.      8.917      1.108
      2.938       134.     8.9556     1.6718
      2.938       134.     9.0164     1.2288
      2.938       134.     9.0496    0.70538
      2.938       134.     9.0606     1.4973
      2.938       134.     9.0882     1.4168
      2.938       134.     9.1323     2.2893
      2.938       134.     9.1544     2.8397
      2.938       134.     9.1876     2.4773
      2.938       134.     9.2099    0.87998
      2.938       134.      9.243     1.3095
      2.938       134.     9.2595     1.1887
      2.938       134.     9.2982     1.6317
      2.938       134.     9.3423      2.021
      2.938       134.     9.3643     3.1083
      2.938       134.     9.3975     2.8935
      2.938       134.     9.4252       2.37
      2.938       134.     9.4583     2.6251
      2.938       134.     9.4859     2.2493
      2.938       134.     9.5191      2.048
      2.938       134.     9.5413     1.4842
      2.938       134.       9.58     1.0279
      2.938       134.     9.6132     1.0145
      2.938       134.     9.6352     1.3769
      2.938       134.     9.6628     1.6185
      2.938       134.     9.7015     1.4575
      2.938       134.     9.7236     1.5783
      2.938       134.     9.7568     1.2964
      2.938       134.     9.7844     1.4978
      2.938       134.     9.8175     1.3502
      2.938       134.     9.8562     1.2294
      2.938       134.     9.8728     1.4576
      2.938       134.      9.917     1.4173
      2.938       134.     9.9391     1.2429
      2.938       134.     9.9723     1.1087
      2.938       134.     9.9999     1.3637
      2.938       134.     10.033     1.3906
      2.938       134.     10.061     1.2161
      2.938       134.     10.094     1.1222
      2.938       134.     10.144     1.0417
      2.938       134.     10.149     1.2296
      2.938       134.     10.155     1.3772
      2.938       134.     10.177     1.5517
      2.938       134.      10.21     1.3102
      2.938       134.     10.254    0.45112
      2.938       134.     10.293    0.57195
      2.938       134.     10.293    0.45115
      2.938       134.      10.32    0.58539
      2.938       134.     10.354     0.6928
      2.938       134.     10.376    0.59885
      2.938       134.     10.403    0.49149
      2.938       134.     10.409    0.62572
      2.938       134.     10.425    0.75996
      2.938       134.     10.453    0.81367
      2.938       134.     10.475    0.94791
      2.938       134.     10.475     1.1358
      2.938       134.     10.508     1.0956
      2.938       134.     10.536    0.96137
      2.938       134.     10.558     1.1359
      2.938       134.     10.574     1.4043
      2.938       134.     10.597     1.5654
      2.938       134.     10.613     1.3775
      2.938       134.      10.63     1.1896
      2.938       134.     10.652     1.0688
      2.938       134.     10.668    0.89434
      2.938       134.     10.696    0.86751
      2.938       134.     10.702    0.93463
      2.938       134.     10.724     1.2702
      2.938       134.     10.735     1.1226
      2.938       134.     10.762     1.0957
      2.938       134.     10.773    0.88099
      2.938       134.     10.812    0.85417
      2.938       134.     10.867    0.98843
      2.938       134.       10.9     1.0153
      2.938       134.     10.912     0.8945
      2.938       134.     10.923    0.72001
      2.938       134.     10.939    0.45156
      2.938       134.     10.972    0.45158
      2.938       134.     10.994    0.34422
      2.938       134.     11.011    0.26369
      2.938       134.     11.044     0.3174
      2.938       134.     11.083    0.31743
      2.938       134.      11.11    0.37114
      2.938       134.     11.133    0.49196
      2.938       134.      11.16    0.58593
      2.938       134.     11.182    0.51883
      2.938       134.     11.204    0.43831
      2.938       134.     11.232    0.41148
      2.938       134.      11.26    0.46519
      2.938       134.     11.282    0.55917
      2.938       134.     11.298    0.62629
      2.938       134.     11.326     0.8545
      2.938       134.     11.348    0.98874
      2.938       134.     11.359     1.1498
      2.938       134.     11.381     1.2975
      2.938       134.     11.414     1.2035
      2.938       134.     11.425      1.123
      2.938       134.     11.436    0.97537
      2.938       134.     11.464    0.78747
      2.938       134.     11.481    0.70695
      2.938       134.     11.508    0.65327
      2.938       134.     11.525     0.5459
      2.938       134.     11.552    0.49223
      2.938       134.     11.575    0.54593
      2.938       134.     11.602    0.49226
      2.938       134.     11.641     0.5594
      2.938       134.     11.652    0.46545
      2.938       134.     11.674    0.41177
      2.938       134.     11.696    0.45205
      2.938       134.     11.713    0.51918
      2.938       134.     11.735    0.65342
      2.938       134.     11.746    0.89504
      2.938       134.     11.779    0.93533
      2.938       134.     11.807    0.89508
      2.938       134.     11.829    0.77429
      2.938       134.     11.851    0.70719
      2.938       134.     11.878     0.7072
      2.938       134.     11.895    0.66695
      2.938       134.     11.934    0.69382
      2.938       134.      11.95    0.80121
      2.938       134.     11.978    0.81465
      2.938       134.     12.016    0.81468
      2.938       134.     12.039    0.69388
      2.938       134.     12.077    0.61337
      2.938       134.     12.094    0.69392
      2.938       134.     12.116    0.84159
      2.938       134.      12.16     0.7745
      2.938       134.     12.166    0.66712
      2.938       134.     12.204    0.49265
      2.938       134.     12.232    0.43898
      2.938       134.      12.26     0.3853
      2.938       134.     12.282    0.34505
      2.938       134.     12.315    0.41218
      2.938       134.     12.348    0.55986
      2.938       134.     12.365    0.65383
      2.938       134.     12.403    0.73439
      2.938       134.     12.436    0.70756
      2.938       134.     12.492    0.66733
      2.938       134.      12.53    0.78816
      2.938       134.     12.558    0.86872
      2.938       134.     12.591    0.76136
      2.938       134.     12.619    0.74795
      2.938       134.     12.646    0.77481
      2.938       134.     12.685    0.80168
      2.938       134.     12.729    0.60037
      2.938       134.     12.773    0.54671
      2.938       134.     12.807    0.53331
      2.938       134.     12.823    0.57359
      2.938       134.     12.867    0.64073
      2.938       134.     12.923    0.66761
      2.938       134.     12.961    0.64079
      2.938       134.     12.978    0.51999
      2.938       134.     13.011    0.41263
      2.938       134.     13.055    0.33213
      2.938       134.     13.066    0.46636
      2.938       134.     13.121    0.50666
      2.938       134.     13.155     0.5738
      2.938       134.     13.199    0.66779
      2.938       134.     13.226    0.57385
      2.938       134.     13.249    0.41279
      2.938       134.     13.276    0.27858
      2.938       134.     13.326    0.22492
      2.938       134.      13.37    0.31891
      2.938       134.     13.403    0.31893
      2.938       134.     13.442    0.33237
      2.938       134.     13.459     0.3995
      2.938       134.     13.492    0.34583
      2.938       134.     13.536    0.34586
      2.938       134.     13.558    0.37272
      2.938       134.     13.591    0.43985
      2.938       134.     13.646    0.35935
      2.938       134.     13.685    0.34595
      2.938       134.     13.707    0.38624
      2.938       134.      13.74    0.38626
      2.938       134.     13.768     0.3997
      2.938       134.     13.823    0.46685
      2.938       134.     13.878    0.48031
      2.938       134.     13.923    0.44007
      2.938       134.      13.95    0.34613
      2.938       134.     13.983    0.35957
      2.938       134.     14.017    0.31932
      2.938       152.     8.3427     1.3383
      2.938       152.     8.3759      1.306
      2.938       152.     8.3979     0.9189
      2.938       152.     8.4256     1.2414
      2.938       152.     8.4587     1.1124
      2.938       152.     8.4809     1.8059
      2.938       152.     8.5141     1.9188
      2.938       152.     8.5582     1.3381
      2.938       152.     8.5802    0.91869
      2.938       152.     8.6024     1.5638
      2.938       152.     8.6301     2.0961
      2.938       152.     8.6743     1.7734
      2.938       152.     8.7074     1.7895
      2.938       152.     8.7241     2.8379
      2.938       152.     8.7628     2.7733
      2.938       152.     8.8016     3.3378
      2.938       152.     8.8236      2.741
      2.938       152.     8.8566     1.8861
      2.938       152.     8.8896     1.0151
      2.938       152.     8.9118     1.3699
      2.938       152.     8.9395      1.886
      2.938       152.     8.9782     1.9505
      2.938       152.     9.0112     1.0795
      2.938       152.     9.0333     1.2569
      2.938       152.     9.0775     1.2568
      2.938       152.     9.0831      1.402
      2.938       152.     9.1162     1.5632
      2.938       152.     9.1496     2.8213
      2.938       152.     9.1826     2.2406
      2.938       152.     9.2157     1.5309
      2.938       152.     9.2488     1.6437
      2.938       152.     9.2765     1.5953
      2.938       152.     9.3042     2.2727
      2.938       152.     9.3373     2.3372
      2.938       152.     9.3596     3.2565
      2.938       152.     9.3926     2.6274
      2.938       152.     9.4202     2.0306
      2.938       152.     9.4533     2.1435
      2.938       152.     9.4864      1.708
      2.938       152.     9.5084    0.96601
      2.938       152.     9.5416     1.1109
      2.938       152.     9.5802    0.85302
      2.938       152.     9.6023    0.98203
      2.938       152.     9.6356     1.6272
      2.938       152.     9.6577     1.9336
      2.938       152.     9.7075     1.9819
      2.938       152.     9.7517     2.0141
      2.938       152.     9.7903     1.6915
      2.938       152.     9.8068     1.5141
      2.938       152.     9.8455     1.5947
      2.938       152.     9.8676     1.4333
      2.938       152.     9.9007     1.1268
      2.938       152.     9.9394     1.0462
      2.938       152.      9.967    0.82032
      2.938       152.     9.9891     1.0622
      2.938       152.     10.039     1.0138
      2.938       152.     10.066      1.046
      2.938       152.     10.094     1.1428
      2.938       152.     10.116     1.3363
      2.938       152.     10.133     1.7556
      2.938       152.     10.149      1.933
      2.938       152.     10.172     2.0459
      2.938       152.     10.188     1.9652
      2.938       152.     10.216     1.8523
      2.938       152.     10.227     1.0458
      2.938       152.     10.243    0.69097
      2.938       152.     10.265    0.46514
      2.938       152.     10.276    0.30383
      2.938       152.     10.309     0.3038
      2.938       152.     10.332    0.59409
      2.938       152.     10.365    0.62631
      2.938       152.     10.381    0.72307
      2.938       152.     10.398    0.83595
      2.938       152.     10.403    0.98111
      2.938       152.     10.426     1.1746
      2.938       152.     10.437     1.3359
      2.938       152.     10.464      1.481
      2.938       152.     10.481     1.5617
      2.938       152.     10.497     1.6262
      2.938       152.     10.514     1.4971
      2.938       152.     10.536     1.7229
      2.938       152.     10.547     1.9971
      2.938       152.     10.569     2.1745
      2.938       152.     10.591      1.997
      2.938       152.     10.602     1.7712
      2.938       152.     10.619      1.626
      2.938       152.     10.641      1.497
      2.938       152.     10.663     1.2711
      2.938       152.     10.685      1.384
      2.938       152.     10.691     1.7872
      2.938       152.     10.713     2.1582
      2.938       152.     10.741     2.0936
      2.938       152.     10.752     1.7388
      2.938       152.     10.774     1.3194
      2.938       152.     10.796     1.2065
      2.938       152.     10.862     1.5451
      2.938       152.     10.884     1.7064
      2.938       152.     10.912     1.6902
      2.938       152.     10.923     1.5128
      2.938       152.     10.939     1.0934
      2.938       152.     10.956    0.93208
      2.938       152.     10.972    0.75465
      2.938       152.     10.995     0.5772
      2.938       152.     11.017    0.44814
      2.938       152.     11.028     0.5449
      2.938       152.     11.039    0.72231
      2.938       152.     11.061    0.65777
      2.938       152.     11.083    0.83516
      2.938       152.     11.111    0.85126
      2.938       152.     11.138    0.80284
      2.938       152.      11.16    0.72217
      2.938       152.     11.171    0.64151
      2.938       152.     11.188    0.57698
      2.938       152.     11.199    0.48019
      2.938       152.     11.227    0.41564
      2.938       152.     11.271    0.36721
      2.938       152.     11.293    0.31879
      2.938       152.     11.315    0.38328
      2.938       152.     11.337    0.75423
      2.938       152.     11.354    0.99614
      2.938       152.     11.359     1.2219
      2.938       152.     11.376     1.3348
      2.938       152.     11.403     1.2542
      2.938       152.     11.431     1.1251
      2.938       152.     11.453     1.0767
      2.938       152.     11.475     1.0444
      2.938       152.     11.492    0.99598
      2.938       152.     11.503    0.93145
      2.938       152.     11.531    0.89916
      2.938       152.     11.553    0.97978
      2.938       152.     11.586      1.141
      2.938       152.     11.591     1.2217
      2.938       152.      11.63     1.1571
      2.938       152.     11.647    0.99581
      2.938       152.     11.663    0.75385
      2.938       152.     11.685    0.78608
      2.938       152.     11.713    0.75379
      2.938       152.     11.746    0.73763
      2.938       152.     11.774     1.3344
      2.938       152.     11.774     1.0763
      2.938       152.     11.812     1.3505
      2.938       152.     11.829     1.2214
      2.938       152.     11.845      1.044
      2.938       152.     11.879     1.0278
      2.938       152.     11.912     1.0279
      2.938       152.     11.923     1.1729
      2.938       152.     11.945     1.4148
      2.938       152.     11.945     1.5277
      2.938       152.     11.973     1.6083
      2.938       152.     11.995     1.4954
      2.938       152.     12.011      1.318
      2.938       152.     12.022     1.1889
      2.938       152.     12.039     1.0276
      2.938       152.     12.055    0.88243
      2.938       152.     12.094    0.97916
      2.938       152.     12.111     1.0598
      2.938       152.     12.155     1.0275
      2.938       152.     12.171    0.89843
      2.938       152.     12.199    0.73711
      2.938       152.     12.216     0.6887
      2.938       152.     12.254    0.60801
      2.938       152.     12.287    0.54346
      2.938       152.     12.321    0.64019
      2.938       152.     12.337    0.80146
      2.938       152.     12.376     1.0756
      2.938       152.     12.409     1.1723
      2.938       152.     12.437     1.1562
      2.938       152.     12.481      1.269
      2.938       152.     12.514     1.2851
      2.938       152.     12.547     1.0754
      2.938       152.     12.586     1.0431
      2.938       152.     12.619     1.0431
      2.938       152.     12.641     1.2366
      2.938       152.     12.674     1.2043
      2.938       152.     12.702     1.1398
      2.938       152.     12.735    0.84939
      2.938       152.     12.763    0.68807
      2.938       152.     12.801    0.65577
      2.938       152.     12.818    0.76865
      2.938       152.     12.851    0.76861
      2.938       152.     12.917    0.94596
      2.938       152.      12.95    0.99431
      2.938       152.     12.989    0.99426
      2.938       152.     13.011    0.89746
      2.938       152.     13.044    0.94581
      2.938       152.     13.055    0.76838
      2.938       152.     13.101    0.68768
      2.938       152.     13.122    0.73604
      2.938       152.     13.149    0.88117
      2.938       152.     13.182    0.96178
      2.938       152.     13.205    0.60692
      2.938       152.     13.232    0.51011
      2.938       152.     13.282    0.41328
      2.938       152.     13.304    0.34874
      2.938       152.     13.332    0.44548
      2.938       152.     13.365    0.57447
      2.938       152.     13.398    0.68734
      2.938       152.     13.437    0.75181
      2.938       152.      13.47    0.78403
      2.938       152.     13.514    0.76785
      2.938       152.     13.553    0.76781
      2.938       152.     13.569     0.8323
      2.938       152.     13.608    0.99355
      2.938       152.     13.641     1.0903
      2.938       152.     13.691     1.0257
      2.938       152.     13.729    0.78373
      2.938       152.     13.763    0.73531
      2.938       152.     13.823    0.75137
      2.938       152.     13.856    0.78359
      2.938       152.      13.89    0.71903
      2.938       152.     13.923    0.71899
      2.938       152.      13.95    0.60606
      2.938       152.     13.972      0.477
       3.94        98.     8.3856     3.1555
       3.94        98.     8.4116     1.6263
       3.94        98.     8.4428     1.6264
       3.94        98.     8.4739     4.0438
       3.94        98.     8.5051     3.3157
       3.94        98.     8.5311     2.0924
       3.94        98.     8.5622     3.0536
       3.94        98.     8.5934     1.7284
       3.94        98.     8.6246     1.3643
       3.94        98.     8.6557     1.9614
       3.94        98.     8.6869     2.1944
       3.94        98.     8.7128     3.1556
       3.94        98.      8.744     2.8061
       3.94        98.     8.7699     3.5342
       3.94        98.     8.8114      4.408
       3.94        98.     8.8427     2.7915
       3.94        98.     8.8739     2.0197
       3.94        98.     8.8946     1.5537
       3.94        98.     8.9258     1.9615
       3.94        98.     8.9621     2.6168
       3.94        98.     8.9881     2.1654
       3.94        98.     9.0244     2.5732
       3.94        98.     9.0556     2.9664
       3.94        98.     9.0815     3.6508
       3.94        98.     9.1179     3.3596
       3.94        98.     9.1387     2.6606
       3.94        98.     9.1699     2.0781
       3.94        98.      9.201      2.515
       3.94        98.     9.2374     2.3111
       3.94        98.     9.2582     2.5732
       3.94        98.     9.2841     2.3111
       3.94        98.     9.3205     2.3113
       3.94        98.     9.3516     3.0975
       3.94        98.      9.388     3.0975
       3.94        98.      9.414     2.0199
       3.94        98.       9.44      1.918
       3.94        98.     9.4763     2.1218
       3.94        98.     9.5075     2.4568
       3.94        98.     9.5334     2.3258
       3.94        98.     9.5594     2.0199
       3.94        98.     9.5905     2.7481
       3.94        98.     9.6269     2.2675
       3.94        98.      9.658     2.9666
       3.94        98.     9.6839     4.4375
       3.94        98.     9.7151      3.986
       3.94        98.     9.7463      3.054
       3.94        98.     9.7724     1.8161
       3.94        98.     9.8087     1.9618
       3.94        98.     9.8346     2.5006
       3.94        98.     9.8658     2.5589
       3.94        98.     9.8918     2.3259
       3.94        98.     9.9281     2.4278
       3.94        98.     9.9489     2.6754
       3.94        98.     9.9852     3.2579
       3.94        98.     10.011     3.0686
       3.94        98.     10.048     2.9667
       3.94        98.     10.079     3.2434
       3.94        98.      10.11     3.1415
       3.94        98.     10.141     2.8502
       3.94        98.     10.162     2.3696
       3.94        98.     10.198     2.5299
       3.94        98.     10.224     2.6027
       3.94        98.     10.255     2.5736
       3.94        98.     10.286      2.559
       3.94        98.     10.318     2.7192
       3.94        98.     10.344     3.1416
       3.94        98.      10.38     3.2726
       3.94        98.     10.401     2.7484
       3.94        98.     10.432     2.6464
       3.94        98.     10.463     2.7047
       3.94        98.     10.489     2.9086
       3.94        98.      10.52     2.4571
       3.94        98.     10.551     2.1659
       3.94        98.     10.583     1.5543
       3.94        98.     10.619     1.6125
       3.94        98.     10.645      1.729
       3.94        98.     10.681     2.1223
       3.94        98.     10.707     2.4863
       3.94        98.     10.733     2.2388
       3.94        98.      10.77     1.9184
       3.94        98.     10.795     1.7873
       3.94        98.     10.821     1.4961
       3.94        98.     10.858     1.6854
       3.94        98.     10.879     1.9621
       3.94        98.     10.915     1.8019
       3.94        98.     10.946      2.399
       3.94        98.     10.962     2.2825
       3.94        98.     11.003     2.2243
       3.94        98.     11.034     2.1952
       3.94        98.      11.06     2.1224
       3.94        98.     11.092     1.7437
       3.94        98.     11.123     2.0496
       3.94        98.     11.149     2.2098
       3.94        98.     11.185     2.1807
       3.94        98.     11.206     2.2389
       3.94        98.     11.242     2.2389
       3.94        98.     11.268      2.603
       3.94        98.      11.31     2.5885
       3.94        98.      11.33     2.7341
       3.94        98.     11.362     2.6759
       3.94        98.     11.419     2.9817
       3.94        98.      11.45      2.938
       3.94        98.     11.486       3.04
       3.94        98.     11.507     3.1274
       3.94        98.     11.543     3.1274
       3.94        98.     11.569     2.5886
       3.94        98.       11.6     2.3993
       3.94        98.     11.621     2.2828
       3.94        98.     11.652     2.2536
       3.94        98.     11.689     2.5304
       3.94        98.     11.704     2.4139
       3.94        98.     11.746     2.2682
       3.94        98.     11.782     2.8799
       3.94        98.     11.808     3.2294
       3.94        98.     11.839     2.9964
       3.94        98.     11.871     2.0353
       3.94        98.     11.891     2.4285
       3.94        98.     11.928     2.3265
       3.94        98.     11.959     2.6761
       3.94        98.     11.985       2.88
       3.94        98.     12.021      3.011
       3.94        98.     12.047     2.8654
       3.94        98.     12.083     2.9237
       3.94        98.     12.109     3.6227
       3.94        98.     12.135     4.0014
       3.94        98.     12.172     3.5645
       3.94        98.     12.198     3.3315
       3.94        98.     12.229     2.3703
       3.94        98.      12.26     2.7344
       3.94        98.     12.286      2.181
       3.94        98.     12.328     2.4286
       3.94        98.     12.354     2.4287
       3.94        98.     12.374     2.8364
       3.94        98.     12.411     2.8801
       3.94        98.     12.437     2.4287
       3.94        98.     12.468     1.9918
       3.94        98.     12.509     2.0937
       3.94        98.      12.53     2.1374
       3.94        98.     12.561     2.3268
       3.94        98.     12.587     2.2831
       3.94        98.     12.618     2.2248
       3.94        98.     12.644     1.9773
       3.94        98.     12.681     2.1957
       3.94        98.     12.707     2.3851
       3.94        98.     12.743     2.3705
       3.94        98.     12.769     2.9094
       3.94        98.     12.805     2.8802
       3.94        98.     12.831      2.822
       3.94        98.     12.862     2.8657
       3.94        98.     12.888     2.7346
       3.94        98.      12.92      2.589
       3.94        98.     12.951     2.7783
       3.94        98.     12.982     2.8075
       3.94        98.     13.013     2.6327
       3.94        98.     13.039     2.4726
       3.94        98.     13.065     2.2687
       3.94        98.     13.096     2.2832
       3.94        98.     13.133     2.2833
       3.94        98.     13.169     2.0794
       3.94        98.      13.19     2.1522
       3.94        98.     13.226     2.8221
       3.94        98.     13.252     3.2153
       3.94        98.     13.283      1.992
       3.94        98.     13.314     1.9921
       3.94        98.     13.346     2.1231
       3.94        98.     13.371     2.2979
       3.94        98.     13.403     2.4581
       3.94        98.     13.439     2.4872
       3.94        98.     13.465     2.4144
       3.94        98.     13.496      3.128
       3.94        98.     13.527     2.7494
       3.94        98.     13.553     2.6475
       3.94        98.      13.59     2.8368
       3.94        98.     13.621     2.8223
       3.94        98.     13.647     2.2834
       3.94        98.     13.678     2.1524
       3.94        98.     13.709     2.3708
       3.94        98.     13.735     2.6184
       3.94        98.     13.771     2.4874
       3.94        98.     13.797     2.2544
       3.94        98.     13.823     1.7738
       3.94        98.     13.865     1.7738
       3.94        98.     13.891     1.8321
       3.94        98.     13.917     2.5748
       3.94        98.     13.948     2.6913
       3.94        98.     13.974     3.2156
       3.94        98.      14.01     3.3175
       3.94        98.     14.041     3.0845
       3.94        98.     14.073      2.837
       3.94       116.     8.3749     3.0697
       3.94       116.     8.4013     1.4146
       3.94       116.     8.4327    0.92701
       3.94       116.     8.4634     2.8335
       3.94       116.     8.4895     2.4641
       3.94       116.     8.5209     1.6218
       3.94       116.     8.5622     2.9076
       3.94       116.     8.5832     2.3608
       3.94       116.     8.6146     1.5333
       3.94       116.     8.6405     2.1097
       3.94       116.     8.6769     2.1098
       3.94       116.     8.7078     3.3217
       3.94       116.     8.7391      2.967
       3.94       116.     8.7649     3.9277
       3.94       116.      8.796     4.3268
       3.94       116.     8.8276     2.6421
       3.94       116.     8.8589     2.3614
       3.94       116.     8.8903     1.8885
       3.94       116.     8.9162     2.2728
       3.94       116.     8.9474     2.1694
       3.94       116.     8.9891     2.1252
       3.94       116.      9.015     2.4208
       3.94       116.     9.0409     2.7608
       3.94       116.     9.0667     3.5736
       3.94       116.     9.0981     2.9678
       3.94       116.     9.1347     2.4211
       3.94       116.     9.1659     2.2142
       3.94       116.     9.1866      2.968
       3.94       116.     9.2178     3.0715
       3.94       116.     9.2542     2.8499
       3.94       116.     9.2803     2.6135
       3.94       116.     9.3166     2.9682
       3.94       116.     9.3424     3.8698
       3.94       116.     9.3685      3.589
       3.94       116.     9.4051     2.7615
       3.94       116.     9.4311     2.9241
       3.94       116.     9.4621     3.6779
       3.94       116.     9.4881     3.9735
       3.94       116.     9.5194     3.4415
       3.94       116.     9.5562     2.2446
       3.94       116.      9.582     2.7323
       3.94       116.     9.6134     2.2743
       3.94       116.     9.6391      3.427
       3.94       116.     9.6753     4.2103
       3.94       116.     9.7015     3.7227
       3.94       116.     9.7329     2.9691
       3.94       116.     9.7643     2.3041
       3.94       116.     9.8059     2.2746
       3.94       116.     9.8475     2.2747
       3.94       116.      9.884     1.9792
       3.94       116.     9.9204      1.935
       3.94       116.     9.9411     2.6296
       3.94       116.     9.9775     2.5558
       3.94       116.     10.004     2.6149
       3.94       116.     10.035     2.9254
       3.94       116.     10.071     2.8663
       3.94       116.     10.092     2.5265
       3.94       116.     10.128     2.3935
       3.94       116.      10.16     2.3788
       3.94       116.     10.186     2.3641
       3.94       116.     10.212     2.4233
       3.94       116.     10.248     2.3199
       3.94       116.     10.279     2.4677
       3.94       116.       10.3     2.5712
       3.94       116.     10.331      2.926
       3.94       116.     10.357     2.3792
       3.94       116.     10.394     2.2758
       3.94       116.      10.42      2.202
       3.94       116.     10.451     2.2612
       3.94       116.     10.477     2.2612
       3.94       116.     10.513     2.5717
       3.94       116.      10.54     2.2761
       3.94       116.     10.571     1.6851
       3.94       116.     10.602      1.493
       3.94       116.     10.633     1.8921
       3.94       116.     10.664     1.8774
       3.94       116.      10.69     2.3799
       3.94       116.     10.727     2.2322
       3.94       116.     10.753     1.7889
       3.94       116.     10.779     2.0845
       3.94       116.     10.815     1.5378
       3.94       116.     10.841     1.8334
       3.94       116.     10.873     2.0256
       3.94       116.     10.904     1.9222
       3.94       116.     10.935     2.2031
       3.94       116.     10.961     2.5874
       3.94       116.     10.992     2.4249
       3.94       116.     11.018     2.4249
       3.94       116.     11.049     2.5432
       3.94       116.     11.081     2.3955
       3.94       116.     11.112      2.632
       3.94       116.     11.143     2.5729
       3.94       116.     11.169       2.44
       3.94       116.     11.195     2.2479
       3.94       116.     11.221     2.2184
       3.94       116.     11.263      2.322
       3.94       116.     11.289     2.3811
       3.94       116.     11.315     2.3812
       3.94       116.     11.351     3.4305
       3.94       116.     11.377     2.8394
       3.94       116.     11.419     2.7952
       3.94       116.     11.445     2.7509
       3.94       116.     11.471     2.6179
       3.94       116.     11.502     2.4259
       3.94       116.     11.528     2.6181
       3.94       116.     11.559     1.9531
       3.94       116.     11.585     1.7906
       3.94       116.     11.622     1.7907
       3.94       116.     11.653     2.0124
       3.94       116.     11.674     2.2785
       3.94       116.      11.71     2.2785
       3.94       116.     11.736     2.5742
       3.94       116.     11.762     2.8698
       3.94       116.     11.793     3.6235
       3.94       116.     11.824      3.062
       3.94       116.     11.856      3.136
       3.94       116.     11.882     2.7814
       3.94       116.     11.913     2.5893
       3.94       116.     11.944     2.5894
       3.94       116.     11.975     3.1658
       3.94       116.     12.012     2.9146
       3.94       116.     12.038     2.6339
       3.94       116.     12.069     2.5157
       3.94       116.      12.09     2.7818
       3.94       116.     12.121      3.373
       3.94       116.     12.157     3.6686
       3.94       116.     12.189     3.4174
       3.94       116.     12.215     2.8707
       3.94       116.     12.256     2.4422
       3.94       116.     12.282     2.3388
       3.94       116.     12.334     2.3833
       3.94       116.     12.371     2.8267
       3.94       116.     12.402     2.7529
       3.94       116.     12.428     1.7775
       3.94       116.      12.47     1.8367
       3.94       116.     12.491     1.7925
       3.94       116.     12.522     1.8812
       3.94       116.     12.548     2.1177
       3.94       116.     12.579     2.4577
       3.94       116.      12.61     2.3838
       3.94       116.     12.642     2.1918
       3.94       116.     12.668     2.2214
       3.94       116.     12.704     2.4727
       3.94       116.      12.73     2.9752
       3.94       116.      12.75     3.6255
       3.94       116.     12.782     3.8768
       3.94       116.     12.813     3.6847
       3.94       116.     12.844     3.3301
       3.94       116.     12.875     3.1381
       3.94       116.     12.907     3.1381
       3.94       116.     12.943       3.02
       3.94       116.     12.974     2.7393
       3.94       116.        13.     2.8132
       3.94       116.     13.032     2.7246
       3.94       116.     13.063     2.5916
       3.94       116.     13.094      2.503
       3.94       116.      13.12     2.2371
       3.94       116.     13.151     1.8973
       3.94       116.     13.183     1.8973
       3.94       116.     13.214     2.2373
       3.94       116.      13.24     2.5772
       3.94       116.     13.281      2.533
       3.94       116.     13.302     2.2818
       3.94       116.     13.339     2.2819
       3.94       116.     13.365     2.4445
       3.94       116.     13.401      2.548
       3.94       116.     13.432     2.5924
       3.94       116.     13.463     2.5925
       3.94       116.     13.484      2.696
       3.94       116.     13.515     2.9473
       3.94       116.     13.547     3.0803
       3.94       116.     13.573     3.3464
       3.94       116.     13.604     3.4056
       3.94       116.     13.635     3.0805
       3.94       116.     13.672     2.4747
       3.94       116.     13.703      2.593
       3.94       116.     13.729     2.8442
       3.94       116.     13.765     2.8443
       3.94       116.     13.791     2.4749
       3.94       116.     13.823     2.0464
       3.94       116.     13.849     1.6474
       3.94       116.      13.88     1.6475
       3.94       116.     13.916      1.884
       3.94       116.     13.937      2.091
       3.94       116.     13.973     2.3866
       3.94       116.     14.005     2.4901
       3.94       116.     14.057     2.5493
       3.94       134.     8.3876     3.6463
       3.94       134.     8.4143     1.8286
       3.94       134.     8.4407      0.809
       3.94       134.     8.4818     2.9667
       3.94       134.     8.5029     2.4052
       3.94       134.     8.5344     1.7846
       3.94       134.     8.5656     2.2576
       3.94       134.      8.597     2.2577
       3.94       134.     8.6233     1.6814
       3.94       134.     8.6544     2.3613
       3.94       134.     8.6962     2.3614
       3.94       134.     8.7168     3.2481
       3.94       134.     8.7587     3.1152
       3.94       134.     8.7848     3.1596
       3.94       134.     8.8211      3.943
       3.94       134.     8.8423     3.1893
       3.94       134.     8.8739     2.4061
       3.94       134.     8.9002     1.8151
       3.94       134.     8.9314     2.1551
       3.94       134.     8.9627     2.2143
       3.94       134.     8.9941     2.1109
       3.94       134.     9.0202     2.2292
       3.94       134.     9.0515     2.4509
       3.94       134.     9.0878     3.1604
       3.94       134.     9.1141     2.7467
       3.94       134.     9.1404     2.1112
       3.94       134.     9.1718     2.0079
       3.94       134.      9.203     2.3183
       3.94       134.      9.229     2.6583
       3.94       134.     9.2708     2.8505
       3.94       134.     9.2919      2.156
       3.94       134.     9.3282     3.1314
       3.94       134.     9.3594     3.6635
       3.94       134.     9.3908     3.3976
       3.94       134.     9.4171     2.8804
       3.94       134.     9.4532     4.2253
       3.94       134.     9.4793     4.4027
       3.94       134.     9.5106     4.4915
       3.94       134.     9.5371     3.3684
       3.94       134.     9.5689     1.8315
       3.94       134.     9.5949     2.2602
       3.94       134.     9.6314     2.6002
       3.94       134.     9.6624     3.6495
       3.94       134.     9.6882     4.5363
       3.94       134.     9.7197     4.1964
       3.94       134.     9.7461     3.3985
       3.94       134.     9.7775     3.1621
       3.94       134.     9.8089      2.911
       3.94       134.     9.8352     2.4529
       3.94       134.     9.8716     2.9111
       3.94       134.     9.8928     1.9801
       3.94       134.     9.9294     1.8324
       3.94       134.     9.9503     1.8177
       3.94       134.     9.9712     1.8325
       3.94       134.     9.9921     1.9804
       3.94       134.     10.018     2.2169
       3.94       134.     10.049     2.9559
       3.94       134.     10.086     3.0594
       3.94       134.     10.107     2.4536
       3.94       134.     10.138      2.365
       3.94       134.      10.17     1.7739
       3.94       134.     10.196     2.2321
       3.94       134.     10.227     2.0253
       3.94       134.     10.264     2.2619
       3.94       134.     10.295     2.3063
       3.94       134.     10.316     2.5132
       3.94       134.     10.347     2.8532
       3.94       134.     10.374     1.6267
       3.94       134.     10.405     1.8189
       3.94       134.     10.436     1.8042
       3.94       134.     10.468     1.9225
       3.94       134.     10.494     2.1146
       3.94       134.      10.52     2.3068
       3.94       134.     10.551     2.2626
       3.94       134.     10.588     1.4203
       3.94       134.     10.619     1.4352
       3.94       134.     10.645     2.0559
       3.94       134.     10.676     2.3072
       3.94       134.     10.702     2.4699
       3.94       134.     10.739     2.6177
       3.94       134.     10.765     2.1153
       3.94       134.     10.797     2.0711
       3.94       134.     10.812     2.0416
       3.94       134.     10.828     1.9973
       3.94       134.     10.854     1.9678
       3.94       134.      10.88     2.2191
       3.94       134.     10.912     2.2191
       3.94       134.     10.943     3.0173
       3.94       134.     10.974      3.771
       3.94       134.        11.     3.6676
       3.94       134.     11.031     3.7564
       3.94       134.     11.063      3.919
       3.94       134.     11.089     3.6383
       3.94       134.      11.12     3.2542
       3.94       134.     11.157      3.402
       3.94       134.     11.183     2.9587
       3.94       134.      11.22     2.3381
       3.94       134.     11.241     2.2643
       3.94       134.     11.272     2.2496
       3.94       134.     11.303     2.3827
       3.94       134.     11.335     2.5897
       3.94       134.     11.361      2.708
       3.94       134.     11.392      2.575
       3.94       134.     11.423     2.8116
       3.94       134.      11.45     2.6638
       3.94       134.     11.476     2.2797
       3.94       134.     11.507      1.866
       3.94       134.     11.539     1.9252
       3.94       134.     11.565      1.674
       3.94       134.     11.601     1.6297
       3.94       134.     11.622     1.5855
       3.94       134.     11.659     1.7777
       3.94       134.     11.685     1.5265
       3.94       134.     11.716     2.5167
       3.94       134.     11.747     2.1621
       3.94       134.     11.774     2.0735
       3.94       134.     11.805     2.4726
       3.94       134.     11.831     2.7683
       3.94       134.     11.862     3.0196
       3.94       134.     11.894     2.4581
       3.94       134.      11.92     2.2365
       3.94       134.     11.951      2.473
       3.94       134.     11.982     3.1676
       3.94       134.     12.014     2.6653
       3.94       134.      12.04     2.3845
       3.94       134.     12.066     2.1925
       3.94       134.     12.103     2.1778
       3.94       134.     12.129     2.8133
       3.94       134.     12.165     3.5671
       3.94       134.     12.191     3.7298
       3.94       134.     12.223     3.4343
       3.94       134.     12.243     3.2718
       3.94       134.      12.28     3.3605
       3.94       134.     12.306     3.4197
       3.94       134.     12.338     3.1981
       3.94       134.     12.369     3.4642
       3.94       134.       12.4     2.6219
       3.94       134.     12.427     2.0899
       3.94       134.     12.463     1.8388
       3.94       134.      12.49     1.5433
       3.94       134.     12.521     1.4547
       3.94       134.     12.558     1.4844
       3.94       134.     12.578     1.8834
       3.94       134.     12.615     1.8983
       3.94       134.     12.646     1.7506
       3.94       134.     12.667     1.9871
       3.94       134.     12.698     2.4896
       3.94       134.     12.729     3.2878
       3.94       134.     12.755     3.8642
       3.94       134.     12.787     4.1746
       3.94       134.     12.818     4.0417
       3.94       134.     12.855     3.4211
       3.94       134.     12.876      3.096
       3.94       134.     12.907     2.9187
       3.94       134.     12.939     2.8301
       3.94       134.     12.965     2.6677
       3.94       134.     13.001     2.5791
       3.94       134.     13.027       2.52
       3.94       134.     13.064     3.0669
       3.94       134.     13.095     3.0227
       3.94       134.     13.122     2.4168
       3.94       134.     13.153     1.9883
       3.94       134.      13.19     1.9293
       3.94       134.     13.216     2.0476
       3.94       134.     13.247     2.6388
       3.94       134.     13.273     2.7867
       3.94       134.      13.31     2.4321
       3.94       134.     13.341     2.7425
       3.94       134.     13.367     3.2746
       3.94       134.     13.398     3.8658
       3.94       134.     13.429     3.4816
       3.94       134.     13.456     2.8906
       3.94       134.     13.482     2.5359
       3.94       134.     13.513     2.4917
       3.94       134.     13.555     2.4327
       3.94       134.     13.587     2.3441
       3.94       134.     13.607     2.3885
       3.94       134.     13.639      2.492
       3.94       134.     13.665     2.6694
       3.94       134.     13.701     2.7877
       3.94       134.     13.733     2.9799
       3.94       134.     13.764     2.9209
       3.94       134.     13.785     2.8471
       3.94       134.     13.821      2.788
       3.94       134.     13.853     2.2413
       3.94       134.     13.874     2.0049
       3.94       134.     13.911     1.9016
       3.94       134.     13.942      1.946
       3.94       134.     13.968     2.0199
       3.94       134.     14.005     1.9905
       3.94       134.     14.062     2.2862
       3.94       152.     8.3809      2.455
       3.94       152.     8.4176      1.465
       3.94       152.     8.4386      0.475
       3.94       152.     8.4701       1.81
       3.94       152.     8.5121       1.75
       3.94       152.     8.5331       1.57
       3.94       152.     8.5645       1.62
       3.94       152.      8.596      1.705
       3.94       152.     8.6222       1.45
       3.94       152.     8.6537       2.35
       3.94       152.     8.6905       2.26
       3.94       152.     8.7219      3.115
       3.94       152.     8.7482      2.515
       3.94       152.     8.7744       1.78
       3.94       152.     8.8111       1.72
       3.94       152.     8.8426      3.025
       3.94       152.     8.8741      1.855
       3.94       152.     8.9003      1.165
       3.94       152.     8.9265      1.345
       3.94       152.      8.958       1.66
       3.94       152.     8.9895      1.315
       3.94       152.     9.0157       1.12
       3.94       152.     9.0472       1.15
       3.94       152.     9.0787       1.45
       3.94       152.     9.1049      1.165
       3.94       152.     9.1417      1.165
       3.94       152.     9.1679       1.12
       3.94       152.     9.2046      1.165
       3.94       152.     9.2256      1.375
       3.94       152.     9.2571       1.72
       3.94       152.     9.2886       1.63
       3.94       152.       9.32      1.945
       3.94       152.     9.3515       1.96
       3.94       152.      9.383      1.855
       3.94       152.     9.4092      1.705
       3.94       152.      9.446      2.905
       3.94       152.     9.4722      2.455
       3.94       152.     9.5037      2.905
       3.94       152.     9.5352      2.155
       3.94       152.     9.5614       0.91
       3.94       152.     9.5929      1.255
       3.94       152.     9.6191      2.005
       3.94       152.     9.6558      1.975
       3.94       152.     9.6925       3.31
       3.94       152.     9.7188      3.355
       3.94       152.     9.7503       3.16
       3.94       152.     9.7765      3.955
       3.94       152.      9.808      2.995
       3.94       152.     9.8342       1.72
       3.94       152.     9.8709      1.915
       3.94       152.     9.8919       1.42
       3.94       152.     9.9286      1.105
       3.94       152.     9.9549       1.12
       3.94       152.     9.9811       1.06
       3.94       152.     10.013      0.955
       3.94       152.     10.044      1.615
       3.94       152.     10.076       1.66
       3.94       152.     10.107      1.495
       3.94       152.     10.139      1.315
       3.94       152.      10.16      1.105
       3.94       152.     10.191      0.955
       3.94       152.     10.222      1.465
       3.94       152.     10.249       1.15
       3.94       152.     10.291      1.165
       3.94       152.     10.312      1.495
       3.94       152.     10.343        1.6
       3.94       152.     10.375      1.002
       3.94       152.     10.401      0.895
       3.94       152.     10.432      0.865
       3.94       152.     10.459       1.27
       3.94       152.     10.495      1.405
       3.94       152.     10.527      1.525
       3.94       152.     10.553      1.615
       3.94       152.     10.579      1.045
       3.94       152.     10.611      1.255
       3.94       152.     10.642       1.72
       3.94       152.     10.668      2.185
       3.94       152.       10.7       1.96
       3.94       152.     10.731      1.645
       3.94       152.     10.758      1.255
       3.94       152.     10.794      1.315
       3.94       152.     10.821      1.765
       3.94       152.     10.847      1.465
       3.94       152.     10.884      1.435
       3.94       152.     10.915       1.57
       3.94       152.     10.936      2.155
       3.94       152.     10.973      3.104
       3.94       152.     11.004       3.07
       3.94       152.     11.036       3.16
       3.94       152.     11.067       3.49
       3.94       152.     11.093       3.04
       3.94       152.      11.12      2.815
       3.94       152.     11.151      2.575
       3.94       152.     11.188       2.68
       3.94       152.     11.209      2.005
       3.94       152.      11.24       1.84
       3.94       152.     11.267      1.615
       3.94       152.     11.298       2.17
       3.94       152.     11.329      2.275
       3.94       152.     11.366      1.705
       3.94       152.     11.392      2.725
       3.94       152.     11.419      2.455
       3.94       152.     11.445       1.89
       3.94       152.     11.466      1.555
       3.94       152.     11.503       1.42
       3.94       152.     11.534       1.27
       3.94       152.     11.566      1.375
       3.94       152.     11.592      1.405
       3.94       152.     11.623      1.675
       3.94       152.     11.655      1.855
       3.94       152.     11.686      2.065
       3.94       152.     11.712      1.855
       3.94       152.     11.739      1.375
       3.94       152.     11.781       1.06
       3.94       152.     11.807       1.09
       3.94       152.     11.833       1.27
       3.94       152.     11.859       0.85
       3.94       152.     11.896       1.12
       3.94       152.     11.928      1.165
       3.94       152.     11.959      1.525
       3.94       152.      11.98      1.975
       3.94       152.     12.017      1.285
       3.94       152.     12.043       1.12
       3.94       152.     12.075      1.195
       3.94       152.     12.106       1.33
       3.94       152.     12.137      1.615
       3.94       152.     12.164      2.005
       3.94       152.     12.195       2.02
       3.94       152.     12.227      2.125
       3.94       152.     12.253      2.365
       3.94       152.     12.279      2.515
       3.94       152.     12.316      2.501
       3.94       152.     12.347      2.198
       3.94       152.     12.374       1.96
       3.94       152.     12.405      1.615
       3.94       152.     12.442       1.32
       3.94       152.     12.463       1.06
       3.94       152.     12.499      0.805
       3.94       152.     12.531       0.79
       3.94       152.     12.552      0.955
       3.94       152.     12.583      1.105
       3.94       152.     12.615      1.315
       3.94       152.     12.652       1.21
       3.94       152.     12.678       1.33
       3.94       152.     12.704      1.885
       3.94       152.     12.725       2.23
       3.94       152.     12.762       2.53
       3.94       152.     12.793      2.815
       3.94       152.     12.825      2.755
       3.94       152.     12.851      2.275
       3.94       152.     12.877      1.765
       3.94       152.     12.914      1.765
       3.94       152.     12.945      1.661
       3.94       152.     12.972       1.42
       3.94       152.     13.014      1.423
       3.94       152.      13.04       1.78
       3.94       152.     13.066     1.8701
       3.94       152.     13.119      1.795
       3.94       152.     13.129       1.69
       3.94       152.     13.155      1.255
       3.94       152.     13.187      1.135
       3.94       152.     13.218      1.332
       3.94       152.     13.244      1.735
       3.94       152.     13.281       1.93
       3.94       152.     13.307      1.585
       3.94       152.     13.339       1.78
       3.94       152.     13.376       2.77
       3.94       152.     13.397      3.132
       3.94       152.     13.444      3.129
       3.94       152.      13.47      2.485
       3.94       152.     13.491      1.975
       3.94       152.     13.523       1.63
       3.94       152.     13.549      1.435
       3.94       152.     13.586      1.375
       3.94       152.     13.622       1.45
       3.94       152.     13.654       1.42
       3.94       152.      13.68      1.555
       3.94       152.     13.706       1.78
       3.94       152.     13.738      1.825
       3.94       152.     13.764      1.735
       3.94       152.     13.801       1.63
       3.94       152.     13.827      1.675
       3.94       152.     13.864       1.78
       3.94       152.      13.89       1.72
       3.94       152.     13.911      1.602
       3.94       152.     13.953      1.525
       3.94       152.     13.979      1.435
       3.94       152.     14.031      1.345
       3.94       152.     14.058       1.33
       3.94       170.     8.3812     2.3228
       3.94       170.     8.4127      2.338
       3.94       170.     8.4492     0.5737
       3.94       170.     8.4756     1.8056
       3.94       170.      8.507     1.9273
       3.94       170.     8.5333     1.8512
       3.94       170.     8.5595     1.7903
       3.94       170.     8.5962     1.7903
       3.94       170.     8.6277     1.6382
       3.94       170.     8.6593     2.5811
       3.94       170.     8.6908      2.794
       3.94       170.     8.7276     3.5848
       3.94       170.     8.7485     2.6723
       3.94       170.     8.7851     1.4859
       3.94       170.     8.8167     3.0828
       3.94       170.      8.843     3.4326
       3.94       170.     8.8691     2.0334
       3.94       170.     8.9057      1.136
       3.94       170.      8.932     1.4249
       3.94       170.     8.9582     1.8356
       3.94       170.     8.9897     1.2272
       3.94       170.     9.0263    0.63397
       3.94       170.     9.0526    0.77083
       3.94       170.     9.0841    0.90768
       3.94       170.     9.1103    0.84682
       3.94       170.     9.1418    0.81637
       3.94       170.     9.1785    0.98363
       3.94       170.     9.1995     1.0901
       3.94       170.     9.2362     1.0748
       3.94       170.     9.2677    0.98354
       3.94       170.     9.2939     1.1204
       3.94       170.     9.3202     1.6375
       3.94       170.      9.357     1.6222
       3.94       170.     9.3779     1.2572
       3.94       170.     9.4199     1.1811
       3.94       170.     9.4462     2.2001
       3.94       170.     9.4776     1.6373
       3.94       170.     9.5092     2.3369
       3.94       170.     9.5301     1.8806
       3.94       170.     9.5615    0.83116
       3.94       170.      9.593     1.3026
       3.94       170.     9.6246     1.9566
       3.94       170.     9.6509     3.1429
       3.94       170.     9.6825     3.3862
       3.94       170.     9.7192      3.736
       3.94       170.     9.7507     3.9945
       3.94       170.     9.7823     4.6332
       3.94       170.     9.8031     3.5077
       3.94       170.     9.8292     1.9412
       3.94       170.     9.8659     1.9868
       3.94       170.     9.8973     1.3936
       3.94       170.     9.9235     1.0894
       3.94       170.      9.955    0.93724
       3.94       170.     9.9865    0.98284
       3.94       170.     10.018     0.8003
       3.94       170.     10.049     1.0132
       3.94       170.      10.07     1.2261
       3.94       170.     10.112     1.2413
       3.94       170.     10.128     1.0435
       3.94       170.     10.165    0.81536
       3.94       170.     10.191    0.93701
       3.94       170.     10.228     1.2868
       3.94       170.     10.259     1.0738
       3.94       170.      10.28     1.2563
       3.94       170.     10.312     1.4996
       3.94       170.     10.349     1.3779
       3.94       170.      10.38     1.2714
       3.94       170.     10.401     0.9368
       3.94       170.     10.443    0.87592
       3.94       170.     10.464     1.2866
       3.94       170.     10.495     1.6363
       3.94       170.     10.527     1.6363
       3.94       170.     10.553     2.3359
       3.94       170.     10.579     1.9252
       3.94       170.     10.616     2.1077
       3.94       170.     10.637     2.3966
       3.94       170.     10.669     3.2027
       3.94       170.      10.72     2.1989
       3.94       170.     10.726     1.6209
       3.94       170.     10.758     1.3015
       3.94       170.     10.794      1.195
       3.94       170.     10.821     1.8946
       3.94       170.     10.852     1.6208
       3.94       170.     10.878     1.2557
       3.94       170.      10.91     1.1796
       3.94       170.     10.931     2.3507
       3.94       170.     10.973     2.8526
       3.94       170.     10.999     2.5028
       3.94       170.     11.026     2.9438
       3.94       170.     11.062      2.959
       3.94       170.     11.083     2.8677
       3.94       170.     11.115     2.8068
       3.94       170.     11.146     2.5939
       3.94       170.     11.178     2.8676
       3.94       170.     11.214     2.1223
       3.94       170.     11.235     2.0158
       3.94       170.     11.267     1.6964
       3.94       170.     11.298     2.8675
       3.94       170.      11.33     3.1108
       3.94       170.     11.393     3.1107
       3.94       170.     11.414     3.3084
       3.94       170.      11.45     2.0156
       3.94       170.     11.477     1.9548
       3.94       170.     11.503     1.6505
       3.94       170.      11.54      1.468
       3.94       170.     11.566     1.8938
       3.94       170.     11.597     2.2892
       3.94       170.     11.624     2.7151
       3.94       170.     11.655     2.7607
       3.94       170.     11.687     2.6238
       3.94       170.     11.713     2.4412
       3.94       170.     11.739     1.6047
       3.94       170.      11.77     1.0571
       3.94       170.     11.802     1.1788
       3.94       170.     11.833     1.0266
       3.94       170.     11.854      0.981
       3.94       170.     11.896    0.76803
       3.94       170.     11.928    0.99614
       3.94       170.     11.949     1.2699
       3.94       170.     11.986     1.6957
       3.94       170.     12.006    0.93522
       3.94       170.     12.043    0.81351
       3.94       170.     12.075     1.1177
       3.94       170.     12.096     1.2393
       3.94       170.     12.127     1.4066
       3.94       170.     12.174     1.1632
       3.94       170.     12.195     1.0871
       3.94       170.     12.222     2.0909
       3.94       170.     12.253     2.4255
       3.94       170.     12.279     2.6992
       3.94       170.     12.316      2.684
       3.94       170.     12.342     2.4102
       3.94       170.     12.369     1.9995
       3.94       170.      12.41     1.3151
       3.94       170.     12.431     1.0717
       3.94       170.     12.463    0.75226
       3.94       170.     12.494    0.70661
       3.94       170.     12.526    0.56969
       3.94       170.     12.557    0.67613
       3.94       170.     12.578     1.2084
       3.94       170.      12.61     1.7103
       3.94       170.     12.647     1.6494
       3.94       170.     12.678     1.8623
       3.94       170.     12.694      2.273
       3.94       170.     12.731     2.3642
       3.94       170.     12.762     2.6227
       3.94       170.     12.794     3.0941
       3.94       170.      12.82     3.3527
       3.94       170.     12.846     2.9724
       3.94       170.     12.877     1.5123
       3.94       170.     12.914     1.4667
       3.94       170.     12.946     1.2537
       3.94       170.     12.972     1.1776
       3.94       170.     13.003     1.3145
       3.94       170.      13.03     1.3601
       3.94       170.     13.066     1.2232
       3.94       170.     13.098     1.0102
       3.94       170.     13.124    0.82766
       3.94       170.      13.15    0.78201
       3.94       170.     13.187    0.87323
       3.94       170.     13.213     1.0101
       3.94       170.     13.239     1.5576
       3.94       170.     13.276     1.8769
       3.94       170.     13.308      2.029
       3.94       170.     13.334      2.318
       3.94       170.      13.36     3.5499
       3.94       170.     13.392     3.6411
       3.94       170.     13.429     3.5498
       3.94       170.     13.455     3.2608
       3.94       170.     13.486     2.7132
       3.94       170.     13.518     2.1961
       3.94       170.     13.549      1.679
       3.94       170.      13.58     1.6789
       3.94       170.     13.612      1.907
       3.94       170.     13.643     1.7701
       3.94       170.     13.664     1.2986
       3.94       170.     13.701     1.0248
       3.94       170.     13.733    0.96394
       3.94       170.     13.759     1.0401
       3.94       170.      13.79     1.1616
       3.94       170.     13.822     1.5722
       3.94       170.     13.848     2.0589
       3.94       170.     13.874     2.4543
       3.94       170.     13.895     2.4999
       3.94       170.     13.932     2.5607
       3.94       170.     13.958     2.2413
       3.94       170.      14.01      1.861
       3.94       170.     14.026     1.3743
       3.94       170.     14.053     1.0701
ENDDATA           1751
ENDSUBENT         1763
SUBENT        F1068007   20100622   20110216   20110112       F039
BIB                  3          4
REACTION   (12-MG-26(P,EL)12-MG-26,,DA)
ERR-ANALYS (ANG-ERR-D)  Angle digitizing error
           (DATA-ERR)   Error from the graphic bars
STATUS     (CURVE) Fig.10
ENDBIB               4
COMMON               2          3
ANG-ERR-D  ERR-DIG
ADEG       MB/SR
 0.301      0.0362
ENDCOMMON            3
DATA                 4         10
EN         ANG-CM     DATA-CM    DATA-ERR
MEV        ADEG       MB/SR      MB/SR
       9.72     99.938     4.1122    0.44333
       9.72     117.62     1.7122     0.1995
       9.72     135.15     3.9242    0.37648
       9.72     152.94      6.424    0.62102
       9.72     170.33     7.7936    0.84233
      12.57     99.506     2.9876    0.22359
      12.57     117.16     1.5758    0.33613
      12.57     134.87     3.9482    0.35822
      12.57     152.55     6.0295    0.60449
      12.57      168.8     7.6201     0.7836
ENDDATA             12
ENDSUBENT           25
ENDENTRY             7
