ENTRY            10674   20160804   20170504   20161113       1421
SUBENT        10674001   20160804   20170504   20161113       1421
BIB                 11         30
TITLE      Measurement of the Uranium-238 Subthreshold Fission
           Cross Section for Incident Neutron Energies Between
           0.6 and 100 keV
AUTHOR     (F.C.Difilippo,R.B.Perez,G.de Saussure,D.K.Olsen,
           R.W.Ingle)
REFERENCE  (J,NSE,63,153,1977)
INSTITUTE  (1USAORL)
FACILITY   (LINAC,1USAORL) Orela
METHOD     (TOF) Time-of-flight over 25 meter flight path.
DETECTOR   (FISCH) Two-section fission chamber, one containing
           238U and the other containing 235U.
INC-SPECT  Resolution width Delta (eV) as a function of energy E
            (eV): Delta**2 = aE + bE**2 + cE**3; a = 4kT/A, where
           k Boltzmann constant, T absolute temperature, A
           atomic number; b = 2/3 (lm**2 + ld**2))/(L**2), where
           ld detector length, lm source moderator thickness,
            L flight path length; c = 2/3 (d**2 +
            (delta t)**2 + (delta tc)**2)/(mu**2 L**2), where d
           pulse width, delta t channel width, delta tc time
           resolution of electronic system, mu = 72.3 (eV)**0.5
           micros/m. Numerical values for this experiment are
           listed in the article.
MONITOR    Resonance energies calibrated to U-235 resonances.
STATUS     (APRVD) Approved by R.B.Perez, 1977/11/21
HISTORY    (19770719C)
           (19831121U) BIB update.
           (20080830A) Formats updated. BIB updates.
           (20131105A) BP: Updated subentries, added resolution
           function, digitized  Figs. 5-10 to remove UNOBT status.
           (20160716U) OS. Minor typing corr. in sub.1.
ENDBIB              30
NOCOMMON             0          0
ENDSUBENT           33
SUBENT        10674002   20080830   20081219   20081211       1350
BIB                  6         15
REACTION  1(92-U-238(N,0),,EN)
          2(92-U-238(N,F),,ARE)
          3(92-U-238(N,F),,WID)
ANALYSIS  2Fission areas determined by Gaussian line fit to data
          3Fission widths determined from areas under clusters.
ASSUMED   3(ASSUM,92-U-238(N,G),,WID) Assumed capture width used
           in calculation of fission widths
           Assumed neutron widths and total widths taken from
           BNL-325, VOL.I(1973).
ERR-ANALYS1(ERR-SYS) Systematic uncertainty in resonance energy.
          2(ERR-S) Statistical uncertainty in fission areas.
          3(DATA-ERR) Errors given for fission widths include only
            errors in the measured areas.
COMMENT    Unresolved clusters
STATUS     (TABLE) Taken from Tables IV and VIII in reference.
ENDBIB              15
COMMON               2          3
ERR-SYS   1ASSUM     3
PER-CENT   MILLI-EV
 0.15       7.6
ENDCOMMON            3
DATA                 5         26
DATA      1DATA      2ERR-S     2DATA      3DATA-ERR  3
KEV        B*EV       B*EV       MILLI-EV   MILLI-EV
  5.715     0.0186     0.0016     0.0299     0.0026
  7.090     0.0530     0.0027     0.104      0.005
  7.430     0.1345     0.0059     0.276      0.012
  7.804     0.1331     0.0056     0.286      0.012
  9.358     0.0353     0.0031     0.0903     0.0079
 11.43      0.276      0.028      0.854      0.087
 14.48      0.0417     0.0037     0.161      0.014
 15.23      0.2970     0.0080     1.206      0.022
 15.56      0.2520     0.0070     1.044      0.029
 18.12      0.0540     0.0030     0.259      0.014
 23.07      0.0390     0.0040     0.236      0.024
 25.03      0.0270     0.0040     0.177      0.026
 26.13      0.0152     0.0030     0.104      0.020
 27.33      0.0939     0.0080     0.669      0.057
 28.23      0.258      0.015      1.90       0.11
 30.93      0.0113     0.0025     0.091      0.020
 32.27      0.1291     0.0098     1.08       0.08
 35.67      0.0604     0.0062     0.557      0.057
 45.56      0.207      0.014      2.43       0.16
 47.27      0.177      0.014      2.15       0.17
 50.53      0.0428     0.0064     0.554      0.082
 51.03      0.070      0.012      0.91       0.16
 52.93      0.103      0.010      1.39       0.13
 55.29      0.189      0.014      2.67       0.20
 56.40      0.0654     0.0060     0.942      0.087
 57.40      0.0471     0.0070     0.69       0.10
ENDDATA             28
ENDSUBENT           52
SUBENT        10674003   20080830   20081219   20081211       1350
BIB                  6         14
REACTION  1(92-U-238(N,0),,EN)
          2(92-U-238(N,F),,ARE)
          3(92-U-238(N,F),,WID)
ANALYSIS  3(AREA) Area analysis used to determine fission widths
ASSUMED   3(ASSUM,92-U-238(N,G),,WID) Assumed neutron widths and
            capture widths (where not given) taken from BNL-325,
            Vol.I (1973).
ERR-ANALYS1(ERR-SYS) Systematic uncertainty in resonance energy.
          2(ERR-S) Errors on fission areas are statistical
          3(DATA-ERR) Errors on fission widths are a combination
            of statistical error and errors of the input partial
            widths needed to fit the data.
FLAG       (1.) Two unresolved levels.
STATUS     (TABLE) Data taken from Table V in reference.
ENDBIB              14
NOCOMMON             0          0
DATA                 8          9
DATA      1ERR-SYS   1DATA      2ERR-S     2DATA      3DATA-ERR  3
ASSUM     3FLAG
EV         EV         B*EV       B*EV       NANO-EV    NANO-EV
MILLI-EV   NO-DIM
  708.5     0.9        0.0686     0.0047       24.2E+03    3.1E+03

  722.1     0.9        0.408      0.012        14.2E+05    0.3E+06
  23.
  730.6     0.9        0.0191     0.0010       11.6E+04    3.2E+04
  23.
  765.7     0.9        0.0096     0.0011      610.0E+01  120.0E+01

  845.0     1.0        0.0077     0.0010      110.0E+01   20.0E+01
            1.
 1138.3     1.7        0.0048     0.0008      136.0E+01   28.0E+01

 1168.3     1.7        0.0307     0.0030     1110.0E+01  140.0E+01
  23.
 1212.6     1.8        0.2522     0.0136       31.2E+04    2.8E+04

 1270.0     1.9        0.0073     0.0009      420.0E+01   70.0E+01

ENDDATA             22
ENDSUBENT           41
SUBENT        10674004   20080830   20081219   20081211       1350
BIB                  3          3
REACTION   (92-U-238(N,F),,SIG,,AV)
ERR-ANALYS (ERR-S) Data errors given are statistical errors only
STATUS     (TABLE) Data taken from Table VI in reference.
ENDBIB               3
NOCOMMON             0          0
DATA                 4          3
EN-MIN     EN-MAX     DATA       ERR-S
KEV        KEV        MICRO-B    MICRO-B
  1.65       30.       61.0       1.3
 10.         30.       67.7       1.7
 30.        100.       37.3       0.6
ENDDATA              5
ENDSUBENT           13
SUBENT        10674005   20131105   20140331   20140304       1395
BIB                  4          7
REACTION   (92-U-238(N,F),,SIG)
ANALYSIS   The 238U fission cross section was calculated from
           the background-subtracted count rate in the 238U
           detector section divided by the neutron spectrum.
ERR-ANALYS (DATA-ERR) This combined error is based on covariance
           matrix calculations for 235U.
STATUS     (CURVE) Data given in Figs. 5-10 in reference.
ENDBIB               7
COMMON               1          3
DATA-ERR
PER-CENT
9.0
ENDCOMMON            3
DATA                 2       1492
EN         DATA
KEV        MB
    0.70033      0.564
    0.70096      1.102
    0.70171      0.653
    0.70247      0.653
    0.70284      0.653
     0.7031      1.191
     0.7036      0.653
    0.70435      1.281
     0.7046      1.640
    0.70586      8.274
    0.70624      5.764
    0.70787     11.322
    0.70825     12.129
    0.70838     13.922
    0.70875     11.860
    0.70963     12.488
    0.70963     11.053
    0.71014     13.115
    0.71051     12.846
     0.7114      8.812
    0.71177      7.647
    0.71253      2.715
    0.71303      1.460
    0.71429      0.743
    0.71466      0.922
    0.71492      1.640
    0.71529      0.384
    0.71554      1.371
    0.71605      1.640
    0.71655      1.371
    0.71693      4.240
    0.71756      8.633
    0.71819     14.371
    0.71894     28.536
    0.71932     35.529
    0.72032     55.164
     0.7207     61.708
    0.72095     58.839
     0.7212     60.812
    0.72171     64.936
    0.72221     65.115
    0.72259     68.343
    0.72309     72.736
    0.72334     67.715
    0.72347     64.308
    0.72384     62.963
     0.7241     52.474
     0.7246     45.212
     0.7256     21.095
    0.72598     13.026
    0.72623      7.467
    0.72649      6.033
    0.72699      3.253
    0.72749      2.895
    0.72787      3.522
    0.72812      4.329
    0.72862      4.778
    0.72887      3.522
    0.72975      5.943
    0.73063      6.571
    0.73101      5.047
    0.73227      5.047
    0.73265      4.509
     0.7329      3.522
    0.73353      2.895
    0.73378      2.357
    0.73428      1.729
    0.73478      1.281
    0.73491      0.743
    0.73579      0.743
    0.73604      1.012
    0.73642      0.922
    0.73692      0.653
    0.73755      0.922
    0.73843      1.012
    0.73881      1.998
    0.73919      1.102
    0.73944      1.998
    0.74007      1.012
    0.74107      0.922
     0.7417      0.922
     0.7422      0.833
    0.74296      0.743
    0.74359      0.922
    0.74422      1.191
    0.74459      0.743
     0.7451      0.474
    0.74572      0.922
     0.7461      0.653
     0.7466      1.102
    0.74711      0.743
    0.74749      1.102
    0.74799      0.743
    0.74874      0.743
    0.74925      0.922
    0.74962      1.281
       0.75      0.922
    0.75038      0.833
    0.75113      1.012
    0.75189      1.102
    0.75201      0.743
    0.75264      0.833
     0.7534      1.012
     0.7539      0.564
    0.75428      0.922
    0.75478      0.833
    0.75528      0.833
    0.75604      0.833
    0.75666      0.743
    0.75692      1.640
    0.75717      0.743
    0.75767      0.653
     0.7583      0.743
     0.7588      1.102
    0.75918      0.833
    0.75993      0.833
    0.76044      1.012
    0.76094      0.922
    0.76132      1.191
    0.76195      1.371
    0.76257      1.550
    0.76308      1.729
     0.7632      2.178
    0.76346      1.371
    0.76383      1.729
    0.76408      2.088
    0.76459      2.447
    0.76496      1.998
    0.76547      2.805
    0.76547      2.267
     0.7661      3.164
     0.7661      2.447
     0.7666      1.550
    0.76672      2.357
    0.76723      2.088
    0.76748      2.447
    0.76773      1.998
    0.76811      1.729
    0.76836      2.267
    0.76861      1.012
    0.76874      1.550
    0.76924      1.281
    0.76974      1.102
    0.77037      0.833
    0.77113      0.833
    0.77175      0.653
    0.77238      0.743
    0.77289      1.191
    0.77351      1.819
    0.77389      0.295
    0.77427      1.281
    0.77477      0.922
    0.77515      1.371
    0.77565      1.012
    0.77628      0.653
    0.77691      0.833
    0.77766      1.281
    0.77829      0.743
    0.77867      0.922
    0.77917      1.371
    0.78018      1.371
    0.78056      1.102
    0.78106      1.012
    0.78156      1.281
    0.78207      1.012
    0.78269      0.833
    0.78307      1.012
     0.7837      0.743
     0.7842      1.012
    0.78471      0.922
    0.78496      0.474
    0.78534      0.205
    0.78546      0.833
    0.78584      1.012
    0.78647      0.384
    0.78684      0.833
     0.7876      1.281
    0.78798      0.474
    0.78823      1.102
    0.78873      0.743
    0.78898      1.460
    0.79011      0.384
    0.79062      1.460
    0.79125      1.102
    0.79187      0.833
     0.7925      0.743
    0.79288      1.640
    0.79326      1.012
    0.79376      0.564
    0.79414      1.102
    0.79439      1.371
    0.79477      0.922
    0.79527      0.384
    0.79565      1.281
    0.79615      1.102
    0.79678      1.191
    0.79728      0.474
    0.79778      0.833
    0.79841      1.102
    0.79904      1.102
    0.79967      1.102
     0.8003      1.012
    0.80118      0.474
     0.8013      1.102
    0.80168      1.012
    0.80206      0.743
    0.80256      1.102
    0.80332      1.102
    0.80395      0.922
     0.8042      1.460
    0.80634      1.012
    0.80684      1.281
    0.80722      0.922
    0.80772      1.281
    0.80797      0.743
    0.80923      0.743
    0.81023      0.833
    0.81111      0.653
    0.81137      1.371
    0.81237      0.653
    0.81287      0.833
    0.81363      0.743
    0.81451      0.743
    0.81501      0.833
    0.81564      0.564
    0.81602      0.922
     0.8164      1.371
    0.81677      1.012
    0.81715      0.564
     0.8179      0.833
    0.81841      1.281
    0.81916      1.012
    0.81916      1.012
    0.81916      1.012
    0.81992      1.371
    0.82092      1.729
    0.82155      1.550
    0.82205      1.819
    0.82243      1.012
    0.82281      1.729
    0.82319      1.012
    0.82381      1.102
    0.82407      1.550
    0.82457      1.012
    0.82495      0.833
    0.82532      1.191
    0.82583      1.012
    0.82633      0.743
    0.82683      1.012
    0.82721      1.102
    0.82784      0.564
    0.82809      1.191
    0.82859      0.922
    0.82922      0.922
    0.82985      0.833
    0.83048      1.012
    0.83111      0.653
    0.83136      1.191
    0.83174      0.743
    0.83237      1.281
    0.83287      1.281
    0.83325      0.833
    0.83387      0.833
    0.83475      0.743
    0.83538      0.653
    0.83626      0.564
    0.83677      0.922
    0.83765      0.833
    0.83815      0.922
     0.8384      0.474
     0.8389      1.281
    0.83928      0.474
    0.83991      0.474
    0.84079      1.012
    0.84117      0.295
    0.84192      0.653
    0.84255      1.102
    0.84318      0.384
    0.84368      0.653
    0.84419      0.833
    0.84507      0.743
    0.84582      0.922
    0.84683      0.833
    0.84746      1.012
    0.84783      0.564
    0.84834      1.102
    0.84859      1.729
    0.84922      0.833
    0.84947      2.088
     0.8511      1.729
    0.85148      2.357
    0.85223      1.550
    0.85286      2.447
    0.85337      1.102
    0.85374      2.267
    0.85412      1.909
    0.85462      1.909
    0.85487      1.191
    0.85538      0.564
    0.85588      1.729
    0.85626      2.357
    0.85663      1.640
    0.85714      1.909
    0.85726      1.102
    0.85814      1.012
     0.8584      1.729
    0.85928      1.191
    0.86003      0.922
    0.86066      0.205
    0.86129      0.743
    0.86242      0.833
    0.86305      1.102
    0.86368      0.653
    0.86393      1.102
    0.86468      1.191
    0.86493      0.384
    0.86531      0.743
    0.86581      0.474
    0.86632      0.833
    0.86669      0.295
     0.8672      0.743
     1.1067      0.119
     1.1105      0.273
     1.1105      0.010
     1.1115      0.124
     1.1136      0.351
     1.1156      0.165
     1.1181      0.018
     1.1199      0.057
     1.1204      0.170
     1.1229      0.322
     1.1239      0.211
     1.1257      0.025
     1.1269      0.064
      1.131      0.217
     1.1327      0.519
     1.1338      0.295
     1.1345      0.033
     1.1348      0.596
      1.136      0.260
     1.1365      0.785
     1.1375      0.261
     1.1391      0.375
     1.1395      0.600
       1.14      1.013
     1.1416      0.715
     1.1421      0.453
     1.1436      0.679
     1.1438      0.529
     1.1446      0.418
     1.1479      0.421
     1.1479      0.121
     1.1497      0.123
      1.153      0.014
     1.1555      0.128
     1.1565      0.317
     1.1575      0.093
     1.1585      0.244
     1.1595      0.057
     1.1608      0.621
     1.1615      1.221
     1.1628      0.360
      1.163      1.447
      1.164      1.898
     1.1662      3.174
     1.1662      2.911
     1.1677      2.913
     1.1684      4.187
     1.1695      3.851
     1.1708      2.316
     1.1715      2.767
     1.1718      1.718
     1.1726      1.007
     1.1747      0.147
     1.1757      0.223
     1.1767      0.036
     1.1785      0.338
     1.1802      0.002
     1.1807      0.377
     1.1817      0.154
     1.1835      0.268
     1.1845      0.044
     1.1855      0.007
      1.186      0.308
     1.1875      0.384
     1.1876      0.084
     1.1888      0.048
     1.1898      0.761
     1.1908      0.462
     1.1916      0.200
     1.1926      0.426
     1.1946      0.278
     1.1954      0.242
     1.1964      0.243
     1.1976      0.618
     1.1989      0.470
     1.1999      0.658
     1.1999      0.246
     1.2024      0.511
     1.2026      1.485
     1.2037      1.149
     1.2056      8.719
     1.2064     13.403
     1.2071     20.223
     1.2073     17.113
     1.2102     25.546
     1.2114     21.651
     1.2122     26.148
     1.2142     20.792
      1.215     18.807
     1.2166     12.589
     1.2166     11.502
     1.2176      6.557
     1.2187      3.748
     1.2191      1.276
     1.2193      0.639
     1.2209      0.341
     1.2216      0.192
     1.2226      0.305
     1.2239      0.007
     1.2247      0.382
     1.2259      0.233
     1.2269      0.047
     1.2287      0.124
     1.2315      0.239
     1.2325      0.052
     1.2327      0.277
     1.2345      0.129
     1.2358      0.243
     1.2376      0.057
     1.2398      0.546
     1.2418      0.473
     1.2428      0.287
     1.2449      0.027
     1.2456      0.477
     1.2476      0.442
     1.2504      0.144
     1.2517      0.221
     1.2537      0.035
     1.2567      0.638
     1.2598      0.453
     1.2605      0.154
      1.262      0.455
     1.2638      0.232
     1.2651      0.496
     1.2651      0.196
     1.2658      1.171
     1.2668      0.460
     1.2681      0.574
     1.2696      0.313
     1.2709      0.764
     1.2716      0.689
     1.2729      0.166
     1.2759      0.693
     1.2767      0.469
      1.278      0.096
     1.2787      0.584
     1.2792      0.060
     1.2817      0.025
      1.283      0.288
      1.284      0.589
     1.2896      0.257
     1.2908      0.108
     1.2928      0.335
     1.2949      0.262
     1.2956      0.113
     1.2969      0.526
     1.2987      0.191
      5.522      0.014
      5.529      0.048
      5.536      0.080
      5.608      0.079
      5.618      0.040
      5.619      0.169
      5.638      0.016
      5.646      0.113
      5.654      0.200
      5.665      0.015
      5.672      0.050
      5.681      0.144
      5.686      0.015
      5.692      0.266
      5.699      0.228
      5.702      0.196
      5.706      0.259
      5.720      0.294
      5.722      0.447
      5.736      0.231
      5.741      0.346
      5.742      0.440
      5.744      0.060
      5.768      0.049
      5.785      0.038
      5.797      0.132
      5.799      0.076
      5.812      0.017
      5.820      0.111
      5.826      0.006
      5.827      0.079
      5.845      0.135
      5.854      0.103
      5.861      0.069
      5.874      0.047
      5.893      0.208
      5.895      0.065
      5.902      0.078
      5.903      0.138
      5.915      0.029
      5.917      0.207
      5.926      0.113
      5.929      0.050
      5.937      0.176
      5.939      0.015
      5.950      0.106
      5.957      0.074
      5.964      0.133
      5.984      0.098
      5.997      0.011
      6.017      0.018
      6.021      0.042
      6.031      0.042
      6.083      0.073
      6.094      0.125
      6.100      0.076
      6.108      0.187
      6.134      0.013
      6.134      0.068
      6.158      0.072
      6.194      0.158
      6.207      0.123
      6.244      0.074
      6.260      0.039
      6.269      0.154
      6.274      0.046
      6.287      0.011
      6.309      0.097
      6.309      0.097
      6.346      0.038
      6.347      0.149
      6.373      0.016
      6.374      0.065
      6.380      0.016
      6.381      0.103
      6.385      0.177
      6.394      0.068
      6.414      0.044
      6.458      0.012
      6.469      0.008
      6.483      0.043
      6.483      0.099
      6.507      0.043
      6.520      0.007
      6.540      0.007
      6.548      0.035
      6.552      0.094
      6.589      0.090
      6.607      0.118
      6.616      0.062
      6.627      0.065
      6.630      0.044
      6.668      0.093
      6.670      0.016
      6.679      0.117
      6.692      0.065
      6.712      0.040
      6.726      0.064
      6.736      0.095
      6.757      0.116
      6.764      0.088
      6.780      0.060
      6.794      0.011
      6.797      0.042
      6.801      0.091
      6.805      0.147
      6.813      0.171
      6.819      0.147
      6.831      0.038
      6.845      0.017
      6.852      0.062
      6.862      0.034
      6.885      0.205
      6.886      0.013
      6.893      0.037
      6.907      0.041
      6.929      0.142
      6.941      0.012
      6.951      0.040
      6.965      0.040
      6.995      0.008
      7.004      0.175
      7.016      0.011
      7.024      0.112
      7.053      0.018
      7.057      0.063
      7.062      0.168
      7.075      0.346
      7.075      0.632
      7.080      0.478
      7.087      0.788
      7.091      0.834
      7.100      0.977
      7.127      0.934
      7.127      0.425
      7.127      0.729
      7.134      0.191
      7.157      0.083
      7.173      0.041
      7.180      0.006
      7.197      0.040
      7.229      0.106
      7.238      0.036
      7.241      0.008
      7.263      0.060
      7.273      0.036
      7.290      0.039
      7.290      0.057
      7.311      0.084
      7.315      0.140
      7.337      0.007
      7.339      0.157
      7.345      0.059
      7.355      0.035
      7.365      0.084
      7.370      0.178
      7.375      0.310
      7.379      0.087
      7.394      0.212
      7.397      0.411
      7.415      1.262
      7.425      1.558
      7.436      1.904
      7.450      2.158
      7.457      1.875
      7.470      1.345
      7.476      0.951
      7.477      0.483
      7.495      0.036
      7.501      0.012
      7.534      0.182
      7.546      0.011
      7.567      0.032
      7.573      0.011
      7.587      0.060
      7.626      0.108
      7.638      0.028
      7.662      0.031
      7.663      0.087
      7.688      0.156
      7.688      0.180
      7.689      0.229
      7.696      0.030
      7.706      0.006
      7.711      0.131
      7.721      0.086
      7.737      0.236
      7.748      0.037
      7.750      0.204
      7.762      0.368
      7.770      0.682
      7.777      0.992
      7.783      1.428
      7.790      1.738
      7.803      1.665
      7.803      1.982
      7.812      1.857
      7.817      2.021
      7.837      1.399
      7.840      1.672
      7.846      1.040
      7.849      0.726
      7.850      0.293
      7.854      0.084
      7.905      0.038
      7.919      0.076
      7.929      0.010
      7.968      0.131
      7.978      0.103
      8.003      0.197
      8.007      0.005
      8.021      0.026
      8.053      0.078
      8.055      0.012
      8.076      0.036
      8.096      0.015
      8.107      0.049
      8.121      0.101
      8.125      0.147
      8.168      0.010
      8.172      0.034
      8.185      0.034
      8.219      0.236
      8.227      0.079
      8.258      0.100
      8.271      0.079
      8.277      0.012
      8.298      0.008
      8.305      0.050
      8.334      0.130
      8.387      0.032
      8.405      0.059
      8.418      0.059
      8.425      0.031
      8.436      0.076
      8.440      0.146
      8.456      0.034
      8.501      0.082
      8.535      0.113
      8.551      0.029
      8.592      0.032
      8.595      0.004
      8.613      0.011
      8.643      0.011
      8.660      0.014
      8.666      0.192
      8.668      0.056
      8.681      0.014
      8.682      0.118
      8.715      0.013
      8.767      0.055
      8.777      0.023
      8.787      0.009
      8.812      0.117
      8.815      0.078
      8.825      0.057
      8.842      0.012
      8.890      0.077
      8.900      0.011
      8.911      0.049
      8.941      0.031
      8.945      0.101
      8.952      0.052
      8.959      0.076
      8.979      0.076
      8.982      0.006
      8.993      0.052
      9.030      0.037
      9.038      0.121
      9.057      0.012
      9.058      0.120
      9.081      0.015
      9.091      0.008
      9.098      0.026
      9.112      0.008
      9.123      0.050
      9.132      0.011
      9.141      0.179
      9.167      0.046
      9.178      0.077
      9.187      0.011
      9.198      0.070
      9.206      0.139
      9.222      0.076
      9.280      0.104
      9.290      0.016
      9.334      0.263
      9.358      0.319
      9.373      0.378
      9.389      0.263
      9.396      0.018
      9.444      0.049
      9.468      0.028
      9.468      0.098
      9.485      0.069
      9.488      0.048
      9.503      0.097
      9.512      0.055
      9.522      0.027
      9.530      0.090
      9.543      0.013
      9.577      0.012
      9.581      0.051
      9.601      0.050
      9.629      0.095
      9.683      0.004
      9.714      0.045
      9.727      0.007
      9.735      0.098
      9.759      0.108
      9.782      0.006
      9.800      0.051
      9.805      0.194
      9.844      0.012
      9.861      0.019
      9.882      0.057
      9.893      0.134
      9.905      0.036
      9.909      0.092
      9.988      0.087
     10.088      0.056
     10.130      0.056
     10.180      0.004
     10.189      0.035
     10.239      0.014
     10.290      0.003
     10.307      0.029
     10.334      0.096
     10.349      0.003
     10.367      0.044
     10.385      0.095
     10.400      0.007
     10.452      0.053
     10.476      0.012
     10.594      0.006
     10.596      0.078
     10.621      0.042
     10.629      0.068
     10.647      0.088
     10.654      0.005
     10.664      0.114
     10.671      0.016
     10.704      0.005
     10.706      0.067
     10.724      0.155
     10.756      0.030
     10.773      0.051
     10.781      0.010
     10.817      0.113
     10.823      0.004
     10.882      0.014
     10.900      0.050
     10.917      0.076
     10.933      0.034
     10.960      0.080
     10.993      0.039
     11.044      0.044
     11.068      0.012
     11.102      0.017
     11.137      0.074
     11.145      0.038
     11.161      0.017
     11.197      0.120
     11.229      0.011
     11.281      0.052
     11.299      0.104
     11.341      0.088
     11.357      0.052
     11.359      0.160
     11.397      1.157
     11.437      1.890
     11.438      2.324
     11.442      2.117
     11.465      2.840
     11.471      2.680
     11.497      2.308
     11.503      0.960
     11.505      1.889
     11.531      0.272
     11.542      0.024
     11.594      0.076
     11.627      0.013
     11.645      0.080
     11.670      0.049
     11.670      0.075
     11.703      0.008
     11.713      0.085
     11.745      0.023
     11.763      0.069
     11.788      0.059
     11.805      0.022
     11.831      0.089
     11.856      0.068
     11.906      0.016
     11.932      0.063
     11.933      0.094
     11.965      0.011
     12.058      0.020
     12.059      0.046
     12.092      0.005
     12.093      0.067
     12.120      0.118
     12.135      0.035
     12.135      0.056
     12.194      0.030
     12.253      0.014
     12.262      0.034
     12.297      0.111
     12.312      0.013
     12.354      0.013
     12.389      0.038
     12.405      0.007
     12.407      0.116
     12.423      0.048
     12.439      0.033
     12.475      0.105
     12.490      0.043
     12.508      0.074
     12.526      0.125
     12.549      0.022
     12.559      0.084
     12.618      0.062
     12.677      0.077
     12.703      0.119
     12.779      0.108
     12.795      0.040
     12.821      0.097
     12.830      0.118
     12.837      0.025
     12.872      0.086
     12.922      0.060
     12.964      0.065
     12.981      0.034
     13.040      0.039
     13.065      0.012
     13.117      0.064
     13.133      0.048
     13.184      0.022
     13.209      0.037
     13.218      0.063
     13.244      0.089
     13.251      0.011
     13.277      0.026
     13.286      0.047
     13.320      0.083
     13.327      0.016
     13.370      0.036
     13.396      0.072
     13.420      0.010
     13.447      0.082
     13.505      0.009
     13.532      0.092
     13.557      0.071
     13.583      0.112
     13.589      0.008
     13.624      0.044
     13.626      0.148
     13.670      0.235
     13.675      0.039
     13.701      0.080
     13.767      0.002
     13.768      0.038
     13.810      0.027
     13.819      0.074
     13.852      0.037
     13.879      0.104
     13.911      0.011
     13.929      0.052
     13.987      0.005
     14.022      0.041
     14.049      0.134
     14.056      0.077
     14.115      0.061
     14.140      0.035
     14.165      0.004
     14.224      0.009
     14.275      0.024
     14.326      0.049
     14.342      0.003
     14.360      0.033
     14.379      0.131
     14.428      0.048
     14.464      0.162
     14.471      0.110
     14.487      0.456
     14.495      0.430
     14.512      0.456
     14.551      0.270
     14.576      0.249
     14.639      0.057
     14.681      0.005
     14.690      0.057
     14.716      0.057
     14.732      0.010
     14.774      0.010
     14.791      0.030
     14.793      0.108
     14.850      0.019
     14.868      0.081
     14.886      0.133
     14.994      0.023
     15.019      0.003
     15.045      0.023
     15.063      0.090
     15.079      0.054
     15.098      0.147
     15.127      0.306
     15.130      0.064
     15.160      0.270
     15.180      0.404
     15.197      0.817
     15.224      1.328
     15.261      1.855
     15.270      1.891
     15.319      1.818
     15.323      1.999
     15.332      1.209
     15.334      1.312
     15.349      0.424
     15.367      0.475
     15.405      0.237
     15.432      0.320
     15.438      0.221
     15.455      0.614
     15.490      0.696
     15.494      0.877
     15.518      0.810
     15.531      1.042
     15.572      0.985
     15.592      1.134
     15.621      0.881
     15.635      1.144
     15.641      1.015
     15.665      0.984
     15.694      0.328
     15.731      0.074
     15.736      0.307
     15.765      0.054
     15.772      0.002
     15.798      0.033
     15.816      0.069
     15.841      0.053
     15.865      0.022
     15.917      0.047
     15.934      0.078
     15.976      0.026
     16.027      0.083
     16.077      0.046
     16.104      0.113
     16.136      0.020
     16.154      0.061
     16.187      0.004
     16.196      0.030
     16.221      0.045
     16.297      0.013
     16.324      0.080
     16.356      0.028
     16.391      0.064
     16.415      0.018
     16.442      0.105
     16.458      0.053
     16.475      0.022
     16.510      0.079
     16.544      0.089
     16.551      0.016
     16.551      0.058
     16.601      0.001
     16.652      0.005
     16.687      0.046
     16.694      0.000
     16.781      0.108
     16.799      0.164
     16.832      0.133
     16.840      0.102
     16.863      0.009
     16.876      0.190
     16.909      0.169
     16.916      0.091
     16.966      0.049
     16.968      0.137
     17.016      0.018
     17.058      0.018
     17.067      0.043
     17.109      0.022
     17.187      0.084
     17.194      0.027
     17.245      0.063
     17.304      0.021
     17.312      0.011
     17.372      0.036
     17.405      0.015
     17.515      0.014
     17.676      0.049
     17.726      0.007
     17.794      0.007
     17.853      0.006
     17.922      0.068
     17.930      0.052
     17.998      0.047
     18.025      0.108
     18.035      0.212
     18.059      0.144
     18.096      0.283
     18.114      0.345
     18.173      0.319
     18.186      0.117
     18.212      0.190
     18.227      0.055
     18.268      0.019
     18.352      0.008
     18.412      0.028
     18.473      0.105
     18.547      0.011
     18.565      0.047
     18.640      0.000
     18.734      0.031
     18.810      0.045
     18.869      0.030
     18.920      0.045
     18.963      0.060
     18.970      0.029
     19.031      0.095
     19.082      0.126
     19.100      0.152
     19.124      0.074
     19.140      0.033
     19.173      0.001
     19.192      0.089
     19.207      0.017
     19.242      0.063
     19.588      0.045
     19.613      0.013
     19.698      0.023
     19.732      0.049
     19.783      0.022
     19.817      0.069
     19.850      0.032
     19.961      0.052
     19.986      0.021
     20.119      0.024
     20.259      0.055
     20.259      0.024
     20.439      0.037
     20.519      0.021
     20.619      0.009
     20.698      0.110
     20.759      0.009
     20.858      0.031
     20.978      0.006
     20.998      0.022
     21.038      0.018
     21.178      0.031
     21.318      0.034
     21.338      0.058
     21.418      0.006
     21.438      0.043
     21.478      0.028
     21.598      0.006
     21.638      0.019
     21.757      0.061
     21.778      0.009
     21.797      0.031
     21.977      0.003
     22.037      0.025
     22.077      0.074
     22.137      0.064
     22.197      0.034
     22.277      0.009
     22.337      0.034
     22.357      0.052
     22.436      0.067
     22.457      0.003
     22.517      0.025
     22.537      0.049
     22.557      0.010
     22.616      0.064
     22.696      0.028
     22.716      0.083
     22.737      0.000
     22.857      0.000
     22.876      0.028
     22.896      0.003
     22.955      0.165
     23.036      0.028
     23.075      0.254
     23.155      0.193
     23.195      0.147
     23.216      0.040
     23.236      0.013
     23.436      0.055
     23.496      0.010
     23.735      0.043
     23.756      0.001
     23.855      0.104
     24.075      0.037
     24.135      0.025
     24.255      0.040
     24.335      0.019
     24.575      0.025
     24.694      0.056
     24.734      0.037
     24.814      0.022
     24.834      0.010
     24.914      0.056
     24.953      0.184
     24.953      0.162
     25.073      0.147
     25.154      0.065
     25.214      0.031
     25.234      0.007
     25.394      0.034
     25.473      0.068
     25.494      0.025
     25.634      0.025
     25.693      0.050
     25.713      0.028
     25.853      0.004
     25.973      0.019
     26.053      0.044
     26.113      0.092
     26.132      0.114
     26.213      0.096
     26.213      0.068
     26.253      0.001
     26.613      0.001
     26.653      0.013
     26.713      0.001
     26.792      0.028
     26.892      0.013
     27.012      0.044
     27.052      0.032
     27.152      0.032
     27.231      0.129
     27.232      0.065
     27.290      0.242
     27.309      0.422
     27.369      0.428
     27.390      0.334
     27.470      0.361
     27.511      0.206
     27.531      0.120
     27.552      0.038
     27.652      0.016
     27.732      0.007
     27.831      0.050
     27.871      0.020
     27.951      0.053
     27.991      0.087
     28.030      0.227
     28.088      0.456
     28.147      0.715
     28.225      0.944
     28.304      1.127
     28.344      1.002
     28.367      0.590
     28.386      0.703
     28.389      0.328
     28.470      0.132
     28.511      0.035
     28.750      0.081
     28.870      0.081
     29.030      0.017
     29.170      0.004
     29.310      0.004
     29.490      0.001
     29.569      0.056
     29.809      0.020
     30.149      0.014
     30.309      0.014
     30.349      0.053
     30.549      0.032
     30.748      0.029
     30.828      0.038
     30.888      0.069
     30.908      0.023
     30.967      0.182
     31.028      0.032
     31.108      0.047
     31.148      0.035
     31.148      0.005
     31.288      0.041
     31.328      0.072
     31.388      0.026
     31.428      0.017
     31.468      0.044
     31.568      0.023
     31.568      0.002
     31.628      0.023
     31.787      0.023
     31.907      0.035
     31.927      0.008
     32.047      0.075
     32.106      0.136
     32.225      0.374
     32.364      0.398
     32.365      0.362
     32.405      0.322
     32.445      0.234
     32.506      0.063
     32.607      0.005
     32.706      0.035
     32.986      0.008
     33.086      0.011
     33.106      0.042
     33.306      0.039
     33.326      0.075
     33.445      0.069
     33.466      0.033
     33.506      0.014
     33.606      0.030
     33.745      0.091
     33.785      0.033
     33.905      0.008
     34.065      0.036
     34.225      0.036
     34.285      0.002
     34.525      0.033
     34.624      0.039
     34.685      0.005
     34.924      0.011
     35.024      0.027
     35.084      0.069
     35.124      0.094
     35.204      0.005
     35.224      0.051
     35.304      0.018
     35.404      0.027
     35.523      0.127
     35.583      0.143
     35.622      0.320
     35.763      0.127
     35.803      0.042
     35.883      0.063
     36.043      0.045
     36.083      0.015
     36.263      0.027
     36.323      0.060
     36.403      0.057
     36.483      0.009
     36.702      0.036
     36.762      0.018
     36.802      0.042
     36.902      0.070
     37.162      0.058
     37.302      0.018
     37.422      0.048
     37.482      0.012
     37.541      0.082
     37.582      0.042
     37.662      0.006
     37.762      0.006
     37.801      0.039
     37.841      0.070
     37.901      0.052
     38.001      0.049
     38.061      0.015
     38.141      0.061
     38.201      0.012
     38.261      0.024
     38.660      0.033
     38.780      0.030
     38.860      0.039
     38.900      0.000
     39.140      0.018
     39.220      0.018
     39.300      0.037
     39.360      0.021
     39.420      0.052
     39.500      0.037
     39.559      0.049
     39.679      0.049
     39.819      0.009
     40.865      0.005
     41.005      0.038
     41.094      0.014
     41.235      0.014
     41.306      0.062
     41.359      0.014
     41.589      0.012
     41.713      0.000
     41.819      0.011
     41.960      0.028
     42.190      0.006
     42.260      0.014
     42.331      0.006
     42.419      0.045
     42.560      0.035
     42.649      0.011
     42.667      0.006
     42.737      0.003
     42.773      0.014
     42.843      0.000
     43.250      0.012
     43.479      0.034
     43.567      0.026
     43.797      0.012
     43.886      0.011
     43.956      0.006
     44.204      0.018
     44.345      0.034
     44.433      0.018
     44.522      0.010
     44.610      0.004
     44.769      0.011
     44.857      0.019
     44.928      0.025
     45.016      0.019
     45.175      0.047
     45.385      0.205
     45.438      0.257
     45.647      0.506
     45.718      0.419
     45.791      0.284
     45.792      0.177
     45.917      0.033
     46.111      0.056
     46.200      0.000
     46.288      0.046
     46.376      0.119
     46.464      0.088
     46.518      0.037
     46.641      0.096
     46.730      0.009
     46.818      0.025
     46.977      0.097
     47.065      0.066
     47.152      0.214
     47.257      0.311
     47.344      0.365
     47.468      0.384
     47.523      0.199
     47.629      0.189
     47.683      0.100
     47.755      0.003
     47.949      0.033
     48.036      0.107
     48.125      0.058
     48.232      0.038
     48.320      0.070
     48.408      0.045
     48.496      0.073
     48.585      0.045
     48.779      0.025
     48.974      0.018
     49.062      0.023
     49.168      0.015
     49.256      0.085
     49.327      0.064
     49.433      0.022
     49.539      0.022
     49.910      0.015
     50.193      0.037
     50.299      0.057
     50.404      0.081
     50.493      0.054
     50.598      0.095
     50.705      0.049
     50.758      0.087
     50.864      0.071
     50.986      0.169
     51.058      0.108
     51.198      0.188
     51.287      0.112
     51.359      0.030
     51.465      0.041
     51.589      0.010
     51.783      0.022
     51.854      0.010
     52.066      0.021
     52.207      0.033
     52.313      0.055
     52.613      0.053
     52.719      0.099
     52.824      0.174
     52.930      0.118
     53.035      0.219
     53.124      0.139
     53.213      0.084
     53.320      0.035
     53.426      0.004
     53.532      0.004
     53.621      0.021
     53.744      0.033
     53.850      0.043
     54.062      0.040
     54.203      0.053
     54.308      0.129
     54.380      0.079
     54.521      0.036
     54.592      0.016
     54.716      0.008
     54.839      0.057
     54.962      0.114
     55.067      0.235
     55.190      0.244
     55.278      0.347
     55.349      0.306
     55.403      0.213
     55.616      0.090
     55.740      0.068
     55.864      0.015
     55.899      0.047
     56.058      0.070
     56.164      0.039
     56.411      0.129
     56.500      0.076
     56.659      0.072
     56.748      0.028
     56.836      0.040
     57.084      0.011
     57.260      0.052
     57.329      0.144
     57.471      0.087
     57.595      0.099
     57.949      0.033
     58.055      0.051
     58.108      0.008
     58.302      0.051
     58.391      0.000
     58.532      0.003
     58.638      0.003
     58.886      0.003
     59.133      0.004
     59.274      0.011
ENDDATA           1494
ENDSUBENT         1510
ENDENTRY             5
