ENTRY            10687   20080928   20081219   20081211       1350
SUBENT        10687001   20080928   20081219   20081211       1350
BIB                  6         13
INSTITUTE  (1USABNL,1USARPI,2JPNKTO)
REFERENCE  (J,NSE,67,326,197809)
           (J,PL/B,71,311,197711)
           (C,77NBS,,255,197703)
AUTHOR     (H.I.Liou,R.E.Chrien,R.C.Block,K.Kobayashi)
TITLE      The Total Neutron Cross Section of Scandium from 0.005
           to 22 keV.
STATUS     (APRVD) Approved by H.Liou, 78/6/6.
HISTORY    (19780123C)
           (19781002U) REFERENCE updated.
           (19781212A) REFERENCE update. BIB correction.
           (19931227A) INSTITUTE corrected
           (20080928A) Formats updated. BIB updates.
ENDBIB              13
NOCOMMON             0          0
ENDSUBENT           16
SUBENT        10687002   20080928   20081219   20081211       1350
BIB                  8         11
REACTION   (21-SC-45(N,TOT),,SIG)
FACILITY   (LINAC,1USARPI) RPI electron linac.
INC-SOURCE (EVAP). H2O-cooled Ta target.
SAMPLE     First measurement used 10.2 cm Sc sample. 15.2 and 30.5
            cm samples cycled into the beam to obtain accurate
            data near minima.
METHOD     (TOF). 28.32-m flight path.
DETECTOR   (NAICR) 10B-NaI detector.
CORRECTION Corrected for dead-time, background and air
            displacement by sample.
ERR-ANALYS (DATA-ERR) No informationon source of uncertainties.
ENDBIB              11
NOCOMMON             0          0
DATA                 3        872
EN         DATA       DATA-ERR
EV         B          B
      412.2      6.877       .222
      416.8      6.133       .221
      421.5      6.224       .218
      426.3      6.284       .219
      431.2      5.707       .220
      436.2      6.553       .216
      441.2      6.381       .214
      446.4      6.036       .214
      451.6      5.973       .213
      454.6      6.200       .638
      455.1      6.035       .639
      455.7      5.855       .640
      456.3      6.244       .623
      456.9      6.122       .626
      457.5      6.751       .627
      458.1      7.094       .629
      458.7      8.695       .665
      459.3      9.869       .702
      459.9     11.527       .726
      460.5     13.000       .781
      461.1     11.944       .763
      461.7      9.666       .709
      462.3      8.464       .682
      463.0      7.685       .647
      463.6      6.409       .655
      464.2      6.991       .632
      464.8      6.094       .634
      467.9      5.941       .211
      473.5      5.697       .208
      479.2      5.891       .207
      485.0      5.321       .207
      490.9      5.519       .204
      497.0      5.666       .204
      503.1      5.567       .201
      507.8      4.993       .281
      511.0      5.299       .285
      514.1      5.570       .281
      517.4      5.002       .280
      520.6      4.774       .280
      523.9      5.083       .280
      527.2      4.896       .279
      530.5      4.696       .276
      533.9      4.840       .276
      537.3      4.889       .278
      540.8      5.248       .276
      544.2      4.978       .275
      547.7      5.205       .274
      551.3      5.305       .273
      554.9      5.191       .271
      558.5      4.898       .274
      562.1      4.979       .271
      565.8      4.482       .271
      569.5      5.093       .268
      573.3      4.313       .270
      577.1      4.791       .269
      580.9      4.639       .268
      584.8      4.812       .267
      588.7      4.689       .268
      592.6      4.260       .264
      596.6      4.981       .263
      600.6      4.829       .262
      604.7      4.411       .261
      608.8      4.612       .259
      612.9      4.472       .258
      617.1      4.837       .256
      621.4      4.501       .256
      625.6      3.954       .257
      630.0      4.063       .258
      634.3      4.483       .253
      638.8      3.754       .254
      643.2      3.556       .252
      647.7      4.412       .252
      652.3      4.006       .253
      656.9      4.395       .250
      661.5      4.379       .249
      666.2      4.179       .252
      671.0      3.972       .250
      675.8      3.507       .250
      680.6      3.634       .248
      685.5      4.029       .248
      690.5      3.727       .246
      695.5      3.936       .246
      700.6      3.531       .244
      705.7      4.072       .241
      710.9      3.848       .243
      716.1      3.557       .242
      721.4      3.442       .243
      726.8      3.774       .241
      732.2      4.030       .242
      737.7      3.453       .241
      743.2      3.082       .240
      748.8      2.953       .239
      754.5      3.714       .237
      760.2      3.341       .238
      766.0      3.541       .236
      771.9      3.467       .235
      777.8      3.292       .234
      783.8      3.048       .234
      789.8      2.768       .232
      796.0      2.862       .235
      802.2      2.994       .235
      814.6      3.361       .139
      821.0      3.146       .129
      827.5      3.037       .121
      834.1      2.773       .112
      840.8      2.778       .113
      847.5      3.152       .125
      854.4      3.013       .116
      861.3      2.788       .111
      868.3      2.751       .107
      875.4      2.752       .106
      882.5      2.826       .110
      889.8      2.803       .106
      897.1      2.474       .096
      904.6      2.623       .100
      912.1      2.547       .097
      919.7      2.616       .098
      927.4      2.457       .093
      935.3      2.395       .091
      943.2      2.530       .093
      951.2      2.423       .089
      959.3      2.434       .090
      967.6      2.464       .090
      975.9      2.420       .087
      984.3      2.324       .084
      992.9      2.421       .085
     1001.5      2.239       .080
     1010.3      2.349       .082
     1019.2      2.157       .078
     1028.2      2.237       .078
     1037.4      2.192       .078
     1046.6      2.236       .077
     1056.0      2.465       .092
     1057.1      3.250       .660
     1058.1      3.675       .654
     1059.2      4.499       .670
     1060.2      5.632       .652
     1061.3      4.802       .664
     1062.3      3.788       .659
     1063.4      3.887       .639
     1064.5      3.311       .634
     1075.1      2.129       .073
     1084.9      1.994       .071
     1094.8      1.959       .071
     1104.8      1.913       .068
     1115.0      1.868       .068
     1125.3      1.828       .066
     1135.8      1.765       .064
     1146.4      1.849       .065
     1157.1      1.749       .063
     1168.0      1.854       .064
     1179.1      1.660       .061
     1190.3      1.739       .061
     1201.7      1.636       .059
     1213.2      1.590       .058
     1225.0      1.601       .057
     1236.8      1.478       .056
     1248.9      1.582       .056
     1261.1      1.399       .055
     1273.5      1.480       .054
     1286.1      1.462       .054
     1298.9      1.424       .053
     1311.9      1.298       .052
     1325.1      1.416       .052
     1338.4      1.343       .051
     1352.0      1.413       .051
     1365.8      1.330       .050
     1379.8      1.271       .049
     1394.0      1.181       .049
     1408.4      1.263       .048
     1423.1      1.164       .047
     1438.0      1.207       .047
     1453.1      1.229       .047
     1468.4      1.084       .045
     1484.1      1.096       .045
     1499.9      1.030       .045
     1516.0      1.129       .044
     1532.4      1.049       .043
     1549.0      1.037       .043
     1565.9       .994       .043
     1583.1       .964       .042
     1600.6      1.000       .041
     1618.4       .930       .023
     1636.4       .911       .023
     1654.8       .896       .022
     1673.5       .892       .022
     1692.5       .832       .022
     1711.8       .860       .021
     1731.4       .880       .021
     1751.4       .776       .020
     1771.8       .802       .021
     1792.5       .800       .020
     1813.5       .799       .020
     1835.0       .812       .020
     1856.8       .760       .020
     1879.0       .760       .020
     1901.6       .736       .019
     1924.6       .747       .020
     1948.1       .744       .020
     1971.9       .730       .019
     1996.3       .704       .020
     2021.0       .728       .020
     2046.3       .699       .020
     2072.0       .725       .020
     2098.2       .727       .019
     2124.8       .748       .020
     2152.1       .761       .020
     2179.8       .752       .019
     2208.1       .732       .019
     2236.9       .786       .020
     2266.3       .823       .020
     2296.3       .865       .020
     2326.8       .899       .021
     2358.0       .930       .021
     2379.2       .913       .066
     2389.8       .922       .066
     2400.6       .993       .066
     2411.4      1.023       .066
     2422.3       .994       .068
     2433.3      1.051       .068
     2444.3      1.117       .069
     2455.4      1.132       .071
     2466.6      1.137       .070
     2477.9      1.158       .072
     2489.3      1.249       .073
     2500.7      1.222       .074
     2512.2      1.284       .075
     2523.8      1.456       .078
     2535.5      1.484       .085
     2547.2      1.440       .084
     2559.0      1.370       .080
     2570.9      1.439       .079
     2582.9      1.319       .079
     2595.0      1.434       .080
     2607.2      1.659       .084
     2619.4      1.597       .083
     2631.8      1.668       .087
     2644.2      1.755       .088
     2656.7      1.675       .090
     2669.3      1.886       .092
     2682.0      1.699       .092
     2694.8      2.034       .100
     2707.7      2.281       .108
     2720.6      2.229       .114
     2733.7      2.379       .116
     2746.9      2.407       .120
     2760.1      2.310       .115
     2773.5      2.585       .124
     2786.9      2.704       .129
     2796.9      3.061       .292
     2810.5      3.500       .290
     2824.2      2.880       .291
     2838.0      3.367       .288
     2851.9      3.590       .288
     2865.9      3.574       .291
     2880.0      4.253       .292
     2894.2      3.953       .292
     2908.5      3.880       .289
     2922.9      4.751       .298
     2937.5      4.895       .298
     2952.1      5.172       .299
     2966.8      5.172       .304
     2981.7      6.035       .303
     2996.7      6.524       .308
     3011.8      6.836       .314
     3027.0      8.132       .320
     3042.3      8.787       .326
     3057.7     10.153       .345
     3073.3     10.589       .348
     3088.9     12.475       .371
     3104.7     13.697       .389
     3115.3     17.191      2.188
     3120.6     18.138      2.228
     3125.9     15.277      2.223
     3131.3     21.279      2.258
     3136.6     19.761      2.281
     3142.0     22.849      2.294
     3147.4     21.904      2.312
     3152.8     22.669      2.322
     3158.2     26.030      2.359
     3163.6     24.833      2.414
     3169.1     27.181      2.400
     3174.5     33.708      2.435
     3180.0     33.563      2.459
     3185.5     33.844      2.530
     3191.0     40.067      2.625
     3196.5     40.978      2.551
     3202.0     38.859      2.650
     3207.6     54.092      2.825
     3213.1     51.715      2.893
     3218.7     64.742      3.170
     3224.3     78.397      7.913
     3229.9     85.871      7.960
     3235.5     95.648      8.210
     3241.1    111.531      8.351
     3246.8    104.844      8.561
     3252.4    138.612      9.397
     3258.1    159.886     10.082
     3263.8    160.981     10.310
     3269.5    204.325     11.723
     3275.2    220.492     12.855
     3280.9    230.734     13.498
     3286.7    257.448     15.388
     3292.4    299.286     17.780
     3298.2    299.485     18.519
     3304.0    286.494     17.169
     3309.8    297.287     18.180
     3315.6    279.328     16.435
     3321.5    288.496     16.641
     3327.3    238.796     13.886
     3333.2    216.280     12.705
     3339.1    194.250     11.765
     3345.0    138.991      9.126
     3350.9    134.391      8.526
     3356.8    109.916      5.742
     3362.8    100.336      5.021
     3368.7     89.565      4.319
     3374.7     85.400      4.109
     3380.7     77.880      3.704
     3386.7     68.329      3.349
     3392.7     64.008      3.116
     3398.8     57.728      2.951
     3404.8     47.321      2.775
     3410.9     51.823      2.758
     3417.0     47.682      2.654
     3423.1     40.283      2.586
     3429.2     37.128      2.489
     3435.4     36.737      2.479
     3441.5     34.876      2.402
     3447.7     34.953      2.452
     3453.9     38.979      2.430
     3460.1     31.705      2.362
     3466.3     31.911      2.398
     3472.6     27.116      2.330
     3478.8     27.946      2.306
     3485.1     24.816      1.328
     3504.0     23.031      1.298
     3523.1     21.481      1.295
     3542.3     18.983      1.277
     3561.7     19.902      1.279
     3581.3     20.317      1.261
     3601.0     21.593      1.275
     3620.9     18.017      1.259
     3640.9     17.102      1.260
     3661.1     20.581      1.259
     3681.5     20.975      1.261
     3702.1     23.597      1.274
     3722.8     21.722      1.271
     3743.7     21.146      1.270
     3764.7     27.006      1.298
     3786.0     28.024      1.309
     3807.4     26.721      1.314
     3829.0     28.581      1.333
     3850.8     32.233      1.359
     3872.8     33.985      1.365
     3895.0     35.603      1.400
     3917.4     41.851      1.462
     3939.9     45.215      1.506
     3962.7     50.065      1.551
     3985.6     54.284      1.626
     4001.0     82.465      7.398
     4008.8     85.322      7.440
     4016.5     81.021      7.519
     4024.3     71.844      7.337
     4032.1     78.497      7.601
     4040.0     86.806      7.604
     4047.8     95.048      7.626
     4055.7     93.635      7.889
     4063.6     93.557      7.985
     4071.5     93.385      7.826
     4079.5     90.011      7.919
     4087.4    116.844      8.403
     4095.4    115.594      8.337
     4103.4    105.328      8.101
     4111.5    117.386      8.520
     4119.5    135.213      8.663
     4127.6    128.783      8.685
     4135.7    133.020      8.833
     4143.9    152.655      9.512
     4152.0    150.021      9.330
     4160.2    164.603      9.697
     4168.4    182.451     10.438
     4176.6    195.992     10.727
     4184.9    178.231     10.535
     4193.2    208.824     11.425
     4201.5    208.835     11.693
     4209.8    212.024     11.905
     4218.2    226.340     12.616
     4226.5    228.021     12.620
     4234.9    244.509     13.395
     4243.4    252.520     13.940
     4251.8    291.113     16.373
     4260.3    275.196     15.903
     4268.8    298.317     17.312
     4277.3    308.122     18.049
     4285.9    311.902     18.471
     4294.5    318.851     19.311
     4303.1    307.650     18.373
     4311.7    354.100     23.114
     4320.4    354.898     22.733
     4329.1    358.603     24.026
     4337.8    356.591     23.028
     4346.5    341.889     21.430
     4355.3    351.023     22.623
     4364.1    310.546     18.653
     4372.9    309.299     18.436
     4381.7    335.590     20.592
     4390.6    313.606     18.410
     4399.5    304.237     17.855
     4408.4    275.581     15.468
     4417.4    307.978     17.896
     4426.4    269.107     15.208
     4435.4    254.455     13.958
     4444.4    275.777     15.086
     4453.5    255.458     13.955
     4462.5    238.212     12.931
     4471.7    200.747     11.311
     4480.8    213.856     11.775
     4490.0    212.606     11.747
     4499.2    185.279     10.442
     4508.4    178.028     10.094
     4517.7    180.274     10.145
     4527.0    160.134      9.535
     4536.3    159.454      9.410
     4545.6    151.262      9.137
     4555.0    139.935      8.938
     4564.4    140.779      8.863
     4573.8    133.497      8.475
     4583.3    124.844      8.341
     4592.8    114.233      8.151
     4602.3    116.654      8.281
     4611.8    113.164      7.936
     4621.4    113.305      7.836
     4631.0     93.902      7.530
     4640.7     97.363      7.526
     4650.3     90.150      7.508
     4660.0     67.731      7.085
     4669.8     91.724      7.411
     4679.5     94.372      7.488
     4689.3     77.858      7.195
     4699.1     72.023      7.111
     4709.0     78.948      7.159
     4718.9     63.210      6.918
     4728.8     55.492      6.846
     4748.7     56.273      1.575
     4778.8     50.172      1.487
     4809.2     46.239      1.411
     4839.9     39.984      1.387
     4870.9     36.331      1.339
     4902.2     33.928      1.300
     4933.8     31.095      1.277
     4965.7     28.787      1.247
     4997.9     24.272      1.242
     5030.5     23.080      1.212
     5063.3     21.467      1.205
     5096.5     21.444      1.181
     5130.0     19.671      1.180
     5163.8     17.448      1.162
     5198.0     17.203      1.152
     5232.5     15.174       .371
     5267.3     15.150       .365
     5302.5     14.279       .343
     5338.1     13.230       .337
     5374.0     12.526       .325
     5410.2     11.769       .320
     5446.9     11.026       .310
     5483.9     11.254       .309
     5521.3      9.521       .297
     5559.1      8.881       .290
     5597.2      8.793       .288
     5635.8      8.048       .286
     5674.8      7.872       .282
     5714.1      7.951       .277
     5753.9      7.168       .276
     5794.1      7.059       .275
     5834.7      7.311       .275
     5875.8      6.608       .279
     5917.2      6.399       .279
     5959.2      6.434       .270
     6001.5      6.181       .269
     6044.3      5.984       .265
     6087.6      6.242       .262
     6131.4      6.197       .268
     6175.6      6.890       .264
     6220.3      6.935       .269
     6265.5      7.168       .272
     6311.2      8.026       .275
     6341.9      8.009       .484
     6357.3     10.620       .502
     6372.9      9.079       .508
     6388.4      9.841       .515
     6404.0     11.542       .536
     6419.7     11.174       .542
     6435.5     13.484       .562
     6451.2     14.062       .578
     6467.1     15.433      1.915
     6483.0     19.671      1.966
     6499.0     21.108      1.984
     6515.0     22.183      2.011
     6531.1     26.828      2.024
     6547.2     31.090      2.064
     6563.5     35.932      2.174
     6579.7     44.085      2.316
     6596.0     46.223      2.380
     6612.4     65.112      6.619
     6628.9     98.164      7.129
     6645.4     95.241      7.209
     6662.0    113.615      7.404
     6678.6    134.936      8.071
     6695.3    145.105      8.228
     6712.1    141.500      8.006
     6728.9    125.007      7.601
     6745.8    104.652      7.198
     6762.7    102.926      7.083
     6779.7     73.740      6.647
     6796.8     50.062      2.384
     6814.0     39.450      2.226
     6831.2     32.446      2.067
     6848.4     32.103      2.015
     6865.8     22.575      1.953
     6883.2     15.586      1.931
     6900.7     15.546      1.882
     6918.2     13.023      1.837
     6935.8     14.298      1.825
     6953.5      8.680       .489
     6971.2      8.236       .466
     6989.0      7.945       .456
     7006.9      6.187       .449
     7024.9      5.497       .432
     7042.9      4.894       .434
     7060.9      4.636       .427
     7079.1      4.664       .413
     7097.3      4.469       .421
     7115.6      3.541       .418
     7134.0      4.096       .405
     7152.4      3.946       .410
     7170.9      3.118       .410
     7189.5      2.717       .406
     7208.2      2.191       .408
     7226.9      2.585       .393
     7245.7      2.317       .404
     7264.6      2.349       .398
     7283.5      2.627       .394
     7302.5      2.471       .388
     7321.6      2.015       .390
     7340.8      2.033       .387
     7360.0      3.006       .384
     7379.3      3.243       .379
     7398.7      1.729       .383
     7418.2      1.709       .380
     7437.8      3.139       .375
     7457.4      3.362       .374
     7477.1      2.678       .380
     7496.9      2.231       .385
     7516.7      1.917       .395
     7536.7      2.424       .388
     7556.7      1.936       .402
     7576.8      2.025       .396
     7597.0      2.037       .405
     7617.2      2.332       .399
     7637.6      2.950       .405
     7658.0      2.655       .412
     7678.5      3.179       .414
     7699.1      4.550       .416
     7719.8      4.942       .422
     7740.5      5.836       .435
     7761.4      6.694       .450
     7782.3      8.261       .466
     7803.3     10.998       .494
     7824.4     12.190       .526
     7845.6     16.510       .628
     7866.8     20.592       .723
     7888.2     30.090      2.036
     7909.6     39.285      2.176
     7931.1     50.194      2.350
     7952.7     75.118      6.621
     7974.4     95.073      6.921
     7996.2    119.431      7.382
     8018.1    130.708      7.793
     8040.1    141.223      8.041
     8062.1    125.117      7.531
     8084.3    126.070      7.481
     8106.5    106.233      7.077
     8128.9     92.600      6.641
     8151.3     65.219      6.359
     8173.8     49.600      2.345
     8196.4     39.657      2.169
     8219.1     34.691      2.086
     8241.9     29.717      1.999
     8264.8     25.133      1.973
     8287.8     23.196      1.920
     8310.9     23.488      1.889
     8334.1     20.933      1.880
     8357.4     16.963      1.861
     8380.8     18.551      1.846
     8404.2     15.959      1.836
     8427.8     13.644       .550
     8451.5     12.316       .531
     8475.3     12.485       .536
     8499.2     13.178       .525
     8523.1     11.623       .521
     8547.2     12.886       .526
     8571.4     11.480       .508
     8595.7     12.909       .533
     8620.1     13.545       .526
     8644.6     13.518       .550
     8669.2     14.525      1.814
     8693.9     17.276      1.825
     8718.7     16.039      1.823
     8743.6     21.738      1.825
     8768.6     21.930      1.887
     8793.7     23.177      1.893
     8819.0     29.230      1.927
     8844.3     32.416      1.995
     8869.8     35.067      2.063
     8895.3     41.864      2.121
     8921.0     49.479      2.261
     8946.8     55.530      2.456
     8972.7     65.500      2.692
     8998.7     77.826      3.081
     9024.8     96.143      3.818
     9051.1    105.263      4.425
     9077.4    117.280      5.202
     9103.9    127.366      5.902
     9130.5    126.647      5.878
     9157.2    117.831      5.247
     9184.0     99.213      4.180
     9210.9     90.857      3.705
     9238.0     81.266      3.173
     9265.1     66.975      2.775
     9292.4     62.245      2.537
     9319.8     51.838      2.360
     9347.4     47.265      2.201
     9375.0     35.483      1.911
     9402.8     31.781      1.495
     9430.7     29.610      1.230
     9458.8     26.279      1.009
     9486.9     22.339       .822
     9515.2     22.479       .803
     9543.6     20.401       .707
     9572.1     17.984       .661
     9600.8     16.213       .592
     9629.6     15.642       .593
     9658.5     14.641       .548
     9687.6     14.252       .560
     9716.7     13.138       .517
     9746.1     12.464       .514
     9775.5     11.078       .494
     9805.1     10.319       .474
     9834.8     10.029       .468
     9864.6      8.590       .461
     9894.6      8.188       .454
     9924.8      8.162       .442
     9955.0      7.266       .433
     9985.4      6.480       .438
    10016.0      6.619       .420
    10046.6      5.416       .424
    10077.5      5.855       .417
    10108.4      4.865       .415
    10139.5      5.785       .407
    10170.8      5.526       .402
    10202.2      4.240       .399
    10233.7      4.834       .400
    10265.4      3.881       .399
    10297.2      3.913       .400
    10329.2      3.537       .397
    10361.4      3.614       .391
    10393.6      2.599       .393
    10426.1      2.191       .396
    10458.7      3.177       .384
    10491.4      2.163       .391
    10524.3      3.308       .391
    10557.3      4.034       .399
    10590.5      5.539       .411
    10623.9      8.185       .443
    10657.4      9.319       .466
    10691.1     12.284       .502
    10724.9     12.043       .499
    10758.9      9.260       .474
    10793.1      9.320       .453
    10827.4      6.776       .423
    10861.9      5.793       .409
    10896.5      4.984       .405
    10931.4      4.120       .401
    10966.4      4.249       .401
    11001.5      4.620       .409
    11036.8      4.716       .410
    11072.3      5.158       .405
    11108.0      6.925       .408
    11143.8      7.523       .427
    11179.8      9.085       .459
    11216.0     11.298       .477
    11252.4     18.253      1.749
    11288.9     21.799      1.742
    11325.6     22.288      1.833
    11362.5     31.608      1.952
    11399.6     39.103      2.039
    11436.9     50.225      2.239
    11474.3     84.352      6.159
    11511.9     95.043      6.450
    11549.7     88.810      6.409
    11587.7    125.232      6.853
    11625.9    118.271      6.777
    11664.3    114.915      6.676
    11702.9     90.775      6.409
    11741.6     83.086      6.162
    11780.6     70.579      6.025
    11819.7     49.400      2.165
    11859.0     44.266      2.070
    11898.6     34.179      1.912
    11938.3     30.207      1.934
    11978.3     29.954      1.873
    12018.4     24.419      1.814
    12058.7     22.717      1.783
    12099.3     23.842      1.760
    12140.0     21.258      1.733
    12181.0     17.241      1.715
    12222.1     14.290      1.726
    12263.5     13.044      1.706
    12305.1     14.254      1.682
    12346.8     14.541       .505
    12388.8     13.591       .488
    12431.1     11.469       .471
    12473.5     12.114       .454
    12516.1     11.816       .457
    12559.0     10.650       .455
    12602.1     10.094       .451
    12645.4      9.336       .441
    12688.9      8.863       .428
    12732.7      8.928       .436
    12776.7      8.515       .427
    12820.9      7.969       .419
    12865.4      7.787       .420
    12910.0      7.781       .419
    12954.9      6.916       .411
    13000.1      6.363       .412
    13045.5      7.060       .416
    13091.1      6.625       .410
    13137.0      6.652       .406
    13183.1      5.371       .405
    13229.4      5.992       .407
    13276.0      6.412       .404
    13322.8      6.228       .405
    13369.9      5.397       .402
    13417.2      5.690       .407
    13464.8      5.100       .406
    13512.7      4.942       .404
    13560.8      4.373       .403
    13609.1      4.681       .395
    13657.7      4.032       .391
    13706.6      3.858       .389
    13755.7      4.541       .383
    13805.1      3.945       .385
    13854.8      4.317       .386
    13904.7      4.104       .383
    13954.9      3.983       .384
    14005.4      3.907       .386
    14056.2      4.221       .386
    14107.2      2.959       .382
    14158.5      3.801       .377
    14210.1      3.292       .378
    14261.9      3.764       .374
    14314.1      3.406       .374
    14366.5      3.998       .377
    14419.3      5.440       .388
    14472.3      5.926       .395
    14525.6      7.160       .402
    14579.2      7.233       .405
    14633.1      7.368       .419
    14687.3      9.125       .430
    14741.8     11.708       .455
    14796.6     11.310       .455
    14851.8     10.251       .437
    14907.2      7.917       .413
    14962.9      5.625       .386
    15019.0      4.250       .380
    15075.3      3.227       .377
    15132.0      3.183       .365
    15189.0      2.431       .367
    15246.3      2.551       .366
    15304.0      1.793       .365
    15362.0      2.810       .368
    15420.3      2.283       .373
    15478.9      5.160       .380
    15537.9      7.438       .412
    15597.2     10.723       .438
    15656.9     10.584       .450
    15716.9      9.906       .440
    15777.2      7.599       .416
    15837.9      7.254       .402
    15898.9      6.306       .391
    15960.3      5.340       .380
    16022.1      4.756       .379
    16084.2      4.486       .374
    16146.7      4.064       .374
    16209.5      3.156       .377
    16272.7      3.133       .370
    16336.3      3.012       .374
    16400.2      3.796       .364
    16464.5      2.954       .372
    16529.3      3.305       .373
    16594.3      3.139       .367
    16659.8      2.785       .373
    16725.7      3.443       .375
    16791.9      3.182       .371
    16858.6      4.040       .361
    16925.6      2.514       .368
    16993.0      3.062       .363
    17060.9      3.033       .368
    17129.1      2.973       .358
    17197.8      3.086       .359
    17266.9      2.986       .363
    17336.4      3.149       .361
    17406.3      3.235       .362
    17476.6      3.144       .360
    17547.4      3.309       .360
    17618.6      3.193       .367
    17690.2      3.340       .364
    17762.3      2.879       .366
    17834.8      3.960       .362
    17907.8      3.360       .361
    17981.2      3.086       .365
    18055.0      3.627       .359
    18129.3      3.074       .363
    18204.1      3.234       .364
    18279.4      3.487       .365
    18355.1      4.208       .369
    18431.2      4.615       .365
    18507.9      4.962       .377
    18585.0      5.491       .375
    18662.6      5.946       .384
    18740.7      7.245       .399
    18819.3      9.724       .411
    18898.4     10.995       .438
    18978.0     12.169       .454
    19058.1      9.485       .419
    19138.7      7.538       .390
    19219.8      4.900       .366
    19301.4      3.999       .359
    19383.6      3.473       .351
    19466.2      3.234       .356
    19549.4      3.769       .364
    19600.2      3.527       .225
    19684.4      3.998       .302
    19769.1      4.530       .427
    19854.3      4.601       .522
    19887.6      8.000       .398
    19973.6     10.723       .426
    20060.0     13.117       .456
    20147.1     13.831       .488
    20234.7     20.856      1.627
    20322.9     23.841      1.659
    20411.6     31.781      1.732
    20501.0     44.967      1.877
    20590.9     51.368      2.036
    20681.4     60.552      2.213
    20772.6     65.504      2.318
    20864.3     55.737      2.162
    20956.6     52.501      2.061
    21049.6     48.299      2.004
    21143.1     44.992      1.976
    21237.3     36.254      1.894
    21332.2     31.444      1.829
    21427.6     26.745      1.734
    21523.7     21.879      1.689
    21620.5     17.485      1.631
    21717.9     15.471       .500
    21815.9     14.948       .478
    21914.7     12.046       .443
    22014.1     11.556       .425
    22114.2      8.930       .395
    22214.9      9.020       .399
ENDDATA            874
ENDSUBENT          890
SUBENT        10687003   20080928   20081219   20081211       1350
BIB                  7         11
REACTION   (21-SC-45(N,TOT),,SIG)
FACILITY   (CHOPF,1USABNL) Fast chopper
SAMPLE     6 Sc samples with thicknesses 2.738 to 11.7 b/atom.
           Impurities - H (0.49 atom%), O (0.18 atom%),
                        Ta (0.014 atom%).
METHOD     (TOF) Time-of-flight. Flight path - 22 m.
DETECTOR   (GELI) 10B slab viewed by coaxial Ge(Li) detector.
CORRECTION Corrected for dead-time.
ERR-ANALYS (DATA-ERR) No informationon source of uncertainties.
            Systematic uncertainty, including uncertainty in
            relative normalization estimated to be ~4%.
ENDBIB              11
NOCOMMON             0          0
DATA                 3         41
EN         DATA       DATA-ERR
EV         B          B
  5.2       24.7       1.1
  5.4       25.2       1.2
  5.6       24.7       1.1
  5.9       24.5       1.1
  6.2       24.3       1.1
  6.5       24.1       1.1
  6.8       24.1       1.1
  7.2       24.8       1.1
  7.5       23.8       1.1
  7.9       23.9       1.1
  8.4       24.5       1.1
  8.9       24.5       1.1
  9.4       24.1       1.0
 10.0       24.2       1.0
 10.6       23.7       1.0
 11.3       23.5       1.0
 12.0       24.2       1.0
 12.9       23.3       1.0
 13.8       22.9       1.0
 14.8       23.4       1.0
 15.9       23.5       1.0
 17.2       23.0       1.0
 18.7       23.6       1.0
 20.3       23.5       1.0
 22.2       23.2       1.0
 24.3       23.0       1.0
 26.7       22.1       0.9
 29.6       20.9       0.9
 32.9       20.3       0.9
 36.8       20.1       0.9
 41.4       20.3       0.9
 47.0       19.7       0.8
 53.7       19.6       0.8
 62.1       18.6       0.8
 72.5       17.8       0.7
 85.8       17.0       0.7
103.2       15.4       0.7
126.4       14.2       0.7
158.5       12.7       0.6
204.5       10.85      0.5
273.8        8.77      0.4
ENDDATA             43
ENDSUBENT           59
SUBENT        10687004   20080928   20081219   20081211       1350
BIB                  4          7
REACTION  1(21-SC-45(N,0),,EN)
          2(21-SC-45(N,EL),,WID/RED)
          3(21-SC-45(N,0),,J)
ANALYSIS   (RFN) R-function analysis. Assumed negative incoherent
            scattering amplitude
ERR-ANALYS (DATA-ERR) No informationon source of uncertainties.
STATUS     (TABLE) Data taken from Table II in reference.
ENDBIB               7
COMMON               1          3
MOMENTUM L
NO-DIM
 0.
ENDCOMMON            3
DATA                 5          2
DATA      1DATA-ERR  1DATA      2DATA-ERR  2DATA      3
EV         EV         EV         EV         NO-DIM
-500.        50.       4.0        0.5        3.
-220.        40.       0.67       0.10       4.
ENDDATA              4
ENDSUBENT           20
SUBENT        10687005   20080928   20081219   20081211       1350
BIB                  4          6
REACTION  1(21-SC-45(N,0),,EN)
          2(21-SC-45(N,EL),,WID)
          3(21-SC-45(N,0),,J)
ANALYSIS   (RFN) R-function analysis.
ERR-ANALYS (DATA-ERR) No informationon source of uncertainties.
STATUS     (TABLE) Data taken from Table II in reference.
ENDBIB               6
COMMON               2          3
MOMENTUM L ASSUM
NO-DIM     EV
 0.         0.5
ENDCOMMON            3
DATA                 5         16
DATA      1DATA-ERR  1DATA      2DATA-ERR  2DATA      3
EV         EV         EV         EV         NO-DIM
 3295.       12.        75.         5.       3.
 4330.       18.       340.        20.       4.
 6684.       20.       130.        14.       3.
 8023.       25.       145.        15.       4.
 9092.       30.       300.        20.       3.
10625.       35.        10.         3.       3.
10735.       35.         6.         2.       4.
11575.       50.       290.        20.       4.
14525.       60.        20.         4.       3.
14740.       60.        26.         5.       4.
15560.       60.        28.         5.       4.
15850.       60.         5.         2.       3.
18580.       80.        32.         6.       3.
18870.       80.        62.        10.       4.
20500.       90.        80.        14.       4.
20780.      100.       710.        60.       3.
ENDDATA             18
ENDSUBENT           33
SUBENT        10687006   20080928   20081219   20081211       1350
BIB                  5          6
REACTION  1(21-SC-45(N,0),,EN)
          2(21-SC-45(N,EL),,WID,,G)
ANALYSIS   (RFN) R-function analysis
ASSUMED    (ASSUM,21-SC-45(N,G),,WID)
ERR-ANALYS (DATA-ERR) No informationon source of uncertainties.
STATUS     (TABLE) Data taken from Table III in reference.
ENDBIB               6
COMMON               2          3
MOMENTUM L ASSUM
NO-DIM     EV
 1.         0.5
ENDCOMMON            3
DATA                 4          5
DATA      1DATA-ERR  1DATA      2DATA-ERR  2
EV         EV         EV         EV
  460.6      0.4       0.0022     0.0003
 1060.4      1.0       0.0050     0.0007
 7377.      25.        0.4        0.2
 7458.      25.        0.4        0.2
 7548.      25.        0.25       0.15
ENDDATA              7
ENDSUBENT           22
ENDENTRY             6
