ENTRY            12480     830809
SUBENT        12480001     830809
BIB                  6          8
INSTITUTE  (1USAANL)
REFERENCE  (J,BAP,8,369(RA7),6304)
           (P,WASH-1044,5,63)
AUTHOR     (D.K.BUTLER,R.K.SJOBLOM)
TITLE      FISSION CROSS SECTIONS OF PU238.
STATUS     (SCSRS)
HISTORY    (760804T) TRANSLATED FROM SCISRS
           (830809A) CONVERTED TO REACTION FORMALISM
ENDBIB               8
NOCOMMON             0          0
ENDSUBENT           11
SUBENT        12480002     830809
BIB                  4          5
REACTION   (94-PU-238(N,F),,SIG)
DETECTOR   (SCIN) GAS SCINTILLATION COUNTER
MONITOR    (92-U-235(N,F),,SIG)
FLAG       (1.) VALUES DETERMINED ABSOLUTELY, TO WHICH SHAPE DATA
                WERE NORMALIZED.
ENDBIB               5
NOCOMMON             0          0
DATA                 3         78
EN         DATA       FLAG
MEV        B          NO-DIM
 1.40   -01 7.8    -01 1.
 1.68   -01 8.3    -01
 1.70   -01 8.9    -01
 1.95   -01 8.9    -01
 2.00   -01 8.5    -01 1.
 2.20   -01 8.3    -01 1.
 2.63   -01 1.00   +00
 3.05   -01 1.04   +00 1.
 3.20   -01 8.8    -01 1.
 3.20   -01 1.12   +00
 3.65   -01 8.5    -01 1.
 3.73   -01 1.17   +00 1.
 3.80   -01 1.20   +00
 4.10   -01 1.15   +00 1.
 4.40   -01 1.40   +00
 4.50   -01 1.18   +00 1.
 4.85   -01 1.73   +00 1.
 4.95   -01 1.63   +00
 5.00   -01 1.78   +00 1.
 5.43   -01 1.70   +00
 5.44   -01 1.87   +00
 5.44   -01 1.81   +00
 5.45   -01 2.00   +00
 5.75   -01 2.05   +00
 5.90   -01 2.17   +00 1.
 6.00   -01 2.19   +00
 6.15   -01 2.03   +00 1.
 6.50   -01 2.31   +00
 6.70   -01 2.20   +00
 7.55   -01 2.62   +00 1.
 7.60   -01 2.43   +00
 8.05   -01 2.54   +00
 8.10   -01 2.45   +00
 8.40   -01 2.58   +00 1.
 8.65   -01 2.55   +00
 8.80   -01 2.69   +00
 9.18   -01 2.52   +00
 9.25   -01 2.58   +00 1.
 9.70   -01 2.68   +00
 9.78   -01 2.52   +00
 9.87   -01 2.55   +00
 9.95   -01 2.61   +00 1.
 1.003  +00 2.62   +00
 1.013  +00 2.56   +00 1.
 1.040  +00 2.60   +00 1.
 1.070  +00 2.68   +00
 1.075  +00 2.59   +00 1.
 1.079  +00 2.49   +00 1.
 1.085  +00 2.60   +00 1.
 1.115  +00 2.58   +00
 1.125  +00 2.63   +00
 1.130  +00 2.45   +00 1.
 1.155  +00 2.59   +00
 1.175  +00 2.58   +00
 1.200  +00 2.70   +00 1.
 1.200  +00 2.53   +00
 1.215  +00 2.53   +00 1.
 1.223  +00 2.63   +00
 1.240  +00 2.65   +00
 1.278  +00 2.60   +00
 1.320  +00 2.61   +00
 1.330  +00 2.65   +00
 1.370  +00 2.68   +00
 1.378  +00 2.50   +00 1.
 1.405  +00 2.63   +00
 1.435  +00 2.69   +00
 1.485  +00 2.66   +00
 1.488  +00 2.80   +00
 1.538  +00 2.66   +00
 1.540  +00 2.78   +00 1.
 1.570  +00 2.80   +00
 1.583  +00 2.82   +00 1.
 1.588  +00 2.70   +00
 1.635  +00 2.90   +00 1.
 1.640  +00 2.70   +00
 1.690  +00 2.78   +00
 1.730  +00 2.79   +00 1.
 1.740  +00 2.82   +00
ENDDATA             80
ENDSUBENT           90
ENDENTRY             2
