ENTRY            D6095   20110309   20110621   20110620       D077
SUBENT        D6095001   20110309   20110621   20110620       D077
BIB                 10         27
TITLE      Fluctuations in the integrated cross section of the
           reaction 45Sc(p,n)45Ti
AUTHOR     (K.V.K Iyengar, S.K Gupta, K.K.Sekharan, M.K.Mehta,
            A.S.Divatia)
INSTITUTE  (3INDTRM,3INDTAT)
REFERENCE  (J,NP/A,96,521,1967)
FACILITY   (VDG,3INDTRM)
SAMPLE     A thin target of chemically pure scandium metal
           evaporated in vacuum onto thick aluminium backing
METHOD     An excitation function of the gamma rays from
           27Al(p,g)28Si was first obtained in the region of the
           resonances at 1.38 MeV by bombarding a thick aluminium
           blank with protons by varying the energy in steps of
           2.5 keV. Then an excitation function of the gamma rays
           from the same reaction was again obtained in a similar
           similar manner in the same energy region by bombarding
           the Sc target onto thick aluminium backing.
DETECTOR   (D4PI,BF3)
ERR-ANALYS The absolute errors on the measured cross section is
           25%.
HISTORY    (20100908C)Compiled by B.Jyrwa, Physics Department,
            North Eastern Hill  University , Shillong & Prajesh
            Prajapati, RPDD, BARC, Mumbai India
           (20110308A) Re-compiled by Reetuparna Ghosh, B.Jyrwa
            Physics  Department, NEHU, Shillong:-793022,
            Meghalaya, and Paresh Prajapati,  RDPP, BARC
            Mumbai   India
ENDBIB              27
NOCOMMON             0          0
ENDSUBENT           30
SUBENT        D6095002   20110309   20110621   20110620       D077
BIB                  3          4
REACTION   (21-SC-45(P,N)22-TI-45,,SIG)
ERR-ANALYS (EN-ERR-DIG) Digitizing error
           (ERR-DIG)    Digitizing error
STATUS     (CURVE) Fig.1 from Nucl. Phys A 96(1967)521
ENDBIB               4
COMMON               2          3
EN-ERR-DIG ERR-DIG
MEV        MB
 0.0025     0.7046
ENDCOMMON            3
DATA                 2       3478
EN         DATA
MEV        MB
     2.9096       3.88
     2.9138       4.47
     2.9138       3.30
     2.9159       3.89
     2.9159       5.65
     2.9159       6.82
     2.9180       8.00
     2.9201       6.25
     2.9222       7.42
     2.9244       6.25
     2.9265       8.02
     2.9285      10.96
     2.9286       6.85
     2.9286       9.20
     2.9306      11.55
     2.9307       8.03
     2.9307      10.37
     2.9349      10.97
     2.9349       9.80
     2.9371       8.63
     2.9371       6.87
     2.9392       7.46
     2.9413       9.22
     2.9414       6.88
     2.9435       8.05
     2.9456       9.82
     2.9477       8.65
     2.9498       9.24
     2.9499       7.48
     2.9520       8.07
     2.9542       6.90
     2.9562       8.67
     2.9562      11.02
     2.9583       9.85
     2.9584       7.50
     2.9602      17.48
     2.9602      19.24
     2.9603      15.13
     2.9604      11.61
     2.9604      13.37
     2.9621      26.28
     2.9621      28.63
     2.9622      22.17
     2.9622      23.93
     2.9623      18.65
     2.9623      20.41
     2.9624      16.31
     2.9626      10.44
     2.9642      27.46
     2.9643      25.11
     2.9663      28.64
     2.9664      26.29
     2.9664      23.94
     2.9665      21.01
     2.9686      24.53
     2.9686      22.19
     2.9707      23.36
     2.9708      20.43
     2.9729      21.61
     2.9730      19.26
     2.9750      20.44
     2.9771      22.21
     2.9793      21.04
     2.9814      22.80
     2.9835      21.63
     2.9856      22.81
     2.9857      20.46
     2.9878      21.64
     2.9899      23.41
     2.9920      22.24
     2.9920      24.58
     2.9941      25.17
     2.9962      24.01
     2.9983      24.60
     3.0005      23.43
     3.0005      21.67
     3.0006      19.32
     3.0007      16.98
     3.0027      20.50
     3.0028      18.15
     3.0049      16.40
     3.0070      17.58
     3.0092      16.41
     3.0112      19.93
     3.0113      18.17
     3.0113      17.00
     3.0134      19.35
     3.0153      26.39
     3.0154      22.29
     3.0154      23.46
     3.0155      20.53
     3.0174      26.98
     3.0175      24.64
     3.0176      19.94
     3.0195      27.57
     3.0196      25.81
     3.0217      26.41
     3.0218      24.06
     3.0238      25.24
     3.0260      24.07
     3.0261      22.31
     3.0282      23.49
     3.0282      21.14
     3.0303      21.73
     3.0325      20.56
     3.0346      22.33
     3.0367      21.16
     3.0367      23.50
     3.0388      21.75
     3.0409      22.93
     3.0452      22.35
     3.0452      23.52
     3.0453      20.00
     3.0473      22.94
     3.0474      20.59
     3.0495      21.77
     3.0495      19.42
     3.0516      22.36
     3.0516      20.60
     3.0537      21.19
     3.0558      22.96
     3.0578      28.83
     3.0579      24.14
     3.0580      21.79
     3.0599      27.66
     3.0600      25.90
     3.0620      30.01
     3.0621      27.08
     3.0621      28.25
     3.0641      31.19
     3.0642      29.43
     3.0663      30.02
     3.0663      27.67
     3.0684      28.85
     3.0685      27.09
     3.0706      27.68
     3.0706      25.34
     3.0727      26.51
     3.0749      24.76
     3.0770      25.94
     3.0792      24.77
     3.0812      28.29
     3.0813      25.94
     3.0834      24.19
     3.0834      27.12
     3.0854      28.89
     3.0854      30.65
     3.0854      30.65
     3.0855      25.37
     3.0875      30.06
     3.0876      27.72
     3.0897      28.89
     3.0918      30.66
     3.0939      29.49
     3.0960      30.08
     3.0982      30.67
     3.0982      28.91
     3.1003      30.09
     3.1004      27.74
     3.1023      33.61
     3.1024      31.27
     3.1025      28.92
     3.1044      34.79
     3.1045      32.45
     3.1087      34.21
     3.1088      31.87
     3.1109      33.05
     3.1109      30.70
     3.1110      28.35
     3.1130      32.46
     3.1131      29.53
     3.1153      27.78
     3.1173      28.95
     3.1195      27.20
     3.1196      24.85
     3.1216      28.38
     3.1217      25.44
     3.1238      27.21
     3.1239      24.27
     3.1259      26.04
     3.1281      24.87
     3.1281      23.70
     3.1303      23.11
     3.1323      26.05
     3.1323      28.40
     3.1324      24.29
     3.1344      27.23
     3.1344      29.58
     3.1364      30.75
     3.1364      33.10
     3.1365      28.41
     3.1385      31.93
     3.1406      33.70
     3.1428      32.53
     3.1449      34.29
     3.1470      33.12
     3.1471      31.36
     3.1471      29.02
     3.1492      31.95
     3.1492      30.19
     3.1514      28.44
     3.1534      31.38
     3.1534      33.14
     3.1535      29.62
     3.1555      32.55
     3.1576      36.08
     3.1576      33.73
     3.1577      31.97
     3.1597      34.91
     3.1597      37.25
     3.1618      38.43
     3.1619      34.33
     3.1639      39.02
     3.1639      36.68
     3.1640      34.92
     3.1660      37.85
     3.1661      35.51
     3.1661      33.75
     3.1683      34.34
     3.1704      34.93
     3.1704      32.58
     3.1725      33.76
     3.1747      32.59
     3.1768      33.18
     3.1810      33.78
     3.1811      32.61
     3.1830      38.48
     3.1831      34.37
     3.1831      36.13
     3.1832      33.20
     3.1849      47.28
     3.1850      43.17
     3.1850      45.52
     3.1851      39.65
     3.1851      41.41
     3.1852      37.31
     3.1869      51.98
     3.1869      53.74
     3.1870      48.46
     3.1870      50.22
     3.1871      44.35
     3.1871      46.70
     3.1873      38.49
     3.1889      55.50
     3.1889      56.68
     3.1911      54.33
     3.1914      42.60
     3.1932      56.10
     3.1933      52.58
     3.1933      50.23
     3.1934      47.89
     3.1935      43.19
     3.1953      54.93
     3.1954      53.76
     3.1954      51.41
     3.1955      49.06
     3.1956      46.72
     3.1956      44.96
     3.1957      43.78
     3.1978      42.61
     3.2020      43.21
     3.2021      42.04
     3.2021      39.69
     3.2042      42.63
     3.2042      40.87
     3.2064      39.11
     3.2064      40.29
     3.2107      39.71
     3.2107      38.54
     3.2128      39.13
     3.2128      37.37
     3.2129      35.61
     3.2129      33.85
     3.2151      34.44
     3.2169      43.24
     3.2170      40.90
     3.2171      37.38
     3.2171      39.14
     3.2172      35.62
     3.2191      42.07
     3.2193      33.86
     3.2212      43.84
     3.2212      42.66
     3.2254      44.43
     3.2254      46.19
     3.2255      43.26
     3.2275      45.61
     3.2275      46.78
     3.2296      47.37
     3.2297      43.86
     3.2318      46.21
     3.2318      44.45
     3.2339      45.04
     3.2340      43.28
     3.2361      43.87
     3.2361      42.11
     3.2383      40.94
     3.2403      44.46
     3.2404      42.70
     3.2424      45.64
     3.2424      47.40
     3.2425      41.54
     3.2445      47.99
     3.2445      46.23
     3.2446      43.89
     3.2447      39.78
     3.2466      46.82
     3.2467      45.06
     3.2467      42.72
     3.2468      40.37
     3.2489      41.55
     3.2489      43.31
     3.2490      39.20
     3.2508      48.01
     3.2509      45.66
     3.2510      42.73
     3.2510      43.90
     3.2511      40.38
     3.2528      52.70
     3.2529      49.18
     3.2529      50.94
     3.2530      46.84
     3.2550      52.12
     3.2571      52.71
     3.2571      50.95
     3.2572      49.19
     3.2573      46.85
     3.2573      45.09
     3.2594      48.02
     3.2594      45.68
     3.2595      43.92
     3.2596      38.64
     3.2615      46.27
     3.2616      45.10
     3.2616      42.75
     3.2617      40.99
     3.2617      39.23
     3.2660      38.65
     3.2660      39.83
     3.2702      40.42
     3.2702      39.25
     3.2703      37.49
     3.2723      39.84
     3.2724      38.08
     3.2724      36.32
     3.2746      36.91
     3.2766      38.09
     3.2766      39.26
     3.2787      39.85
     3.2830      39.27
     3.2830      40.45
     3.2851      41.63
     3.2871      45.15
     3.2872      41.04
     3.2872      42.80
     3.2891      48.09
     3.2892      46.33
     3.2893      43.98
     3.2911      54.54
     3.2911      53.37
     3.2912      49.26
     3.2912      51.02
     3.2913      45.16
     3.2932      55.72
     3.2933      52.20
     3.2952      58.66
     3.2953      55.14
     3.2953      56.90
     3.2954      53.97
     3.2973      60.42
     3.2975      54.56
     3.2995      59.25
     3.3015      61.02
     3.3016      59.85
     3.3016      58.09
     3.3017      56.33
     3.3017      53.98
     3.3038      56.92
     3.3038      55.74
     3.3038      54.57
     3.3060      55.16
     3.3060      53.40
     3.3081      53.99
     3.3082      49.89
     3.3082      52.23
     3.3103      51.06
     3.3104      49.30
     3.3125      49.90
     3.3126      47.55
     3.3146      48.73
     3.3168      47.56
     3.3189      48.15
     3.3190      46.39
     3.3190      44.63
     3.3209      54.61
     3.3210      49.33
     3.3211      45.22
     3.3211      47.57
     3.3230      54.02
     3.3231      50.50
     3.3231      52.26
     3.3232      46.40
     3.3232      48.74
     3.3233      44.64
     3.3251      55.20
     3.3273      54.03
     3.3291      62.84
     3.3292      61.08
     3.3293      58.73
     3.3311      68.12
     3.3312      64.01
     3.3312      65.77
     3.3313      62.25
     3.3314      58.15
     3.3314      59.91
     3.3315      53.46
     3.3315      54.63
     3.3315      56.39
     3.3333      66.95
     3.3354      68.72
     3.3354      67.54
     3.3396      68.14
     3.3396      69.31
     3.3418      68.73
     3.3418      66.38
     3.3439      67.56
     3.3440      65.21
     3.3461      65.81
     3.3461      64.05
     3.3462      61.70
     3.3483      62.88
     3.3484      60.53
     3.3505      59.36
     3.3505      61.71
     3.3506      57.60
     3.3506      55.84
     3.3507      53.50
     3.3526      61.13
     3.3528      54.67
     3.3528      52.33
     3.3529      49.98
     3.3550      51.16
     3.3568      61.72
     3.3569      59.96
     3.3570      54.10
     3.3570      55.86
     3.3570      57.62
     3.3571      52.34
     3.3572      49.99
     3.3590      58.79
     3.3590      61.14
     3.3611      62.32
     3.3612      59.38
     3.3633      60.56
     3.3654      58.81
     3.3675      59.98
     3.3676      57.64
     3.3697      58.23
     3.3698      55.88
     3.3698      53.54
     3.3699      50.02
     3.3719      57.06
     3.3719      54.71
     3.3720      52.95
     3.3720      51.19
     3.3721      49.43
     3.3742      50.03
     3.3763      48.86
     3.3805      51.21
     3.3805      53.56
     3.3806      48.28
     3.3806      49.45
     3.3825      56.50
     3.3825      58.26
     3.3826      52.39
     3.3826      54.74
     3.3827      48.87
     3.3846      59.43
     3.3867      58.85
     3.3888      60.03
     3.3909      61.21
     3.3910      58.86
     3.3910      56.51
     3.3911      54.17
     3.3911      51.82
     3.3912      49.47
     3.3930      60.04
     3.3931      57.69
     3.3932      55.34
     3.3932      53.00
     3.3933      50.65
     3.3934      48.31
     3.3953      54.18
     3.3953      55.94
     3.3954      51.83
     3.3955      49.48
     3.3971      65.91
     3.3971      67.09
     3.3972      62.39
     3.3972      64.15
     3.3973      58.87
     3.3973      60.63
     3.3974      55.35
     3.3974      57.11
     3.3975      53.01
     3.3992      67.68
     3.4014      66.51
     3.4017      54.78
     3.4035      68.27
     3.4035      67.10
     3.4035      65.34
     3.4036      63.58
     3.4036      61.82
     3.4037      60.06
     3.4037      57.71
     3.4038      55.37
     3.4058      58.89
     3.4059      56.54
     3.4060      54.20
     3.4081      54.79
     3.4081      53.03
     3.4102      53.62
     3.4124      52.45
     3.4146      50.70
     3.4167      51.87
     3.4167      49.53
     3.4168      47.77
     3.4210      48.36
     3.4211      47.19
     3.4232      47.78
     3.4253      46.61
     3.4253      48.96
     3.4273      51.90
     3.4274      47.79
     3.4274      50.14
     3.4294      52.49
     3.4315      53.08
     3.4316      50.73
     3.4316      48.97
     3.4317      45.45
     3.4337      51.91
     3.4338      47.22
     3.4338      49.56
     3.4359      48.40
     3.4360      46.05
     3.4381      47.23
     3.4402      48.99
     3.4423      47.82
     3.4444      49.00
     3.4465      49.59
     3.4466      47.83
     3.4487      46.08
     3.4503      68.37
     3.4508      47.25
     3.4526      59.58
     3.4526      61.92
     3.4527      55.47
     3.4527      57.23
     3.4528      53.12
     3.4529      48.43
     3.4529      50.78
     3.4530      46.67
     3.4545      68.97
     3.4546      64.86
     3.4546      66.62
     3.4547      60.75
     3.4547      63.10
     3.4548      58.41
     3.4549      54.30
     3.4549      56.06
     3.4550      49.61
     3.4550      51.96
     3.4551      47.26
     3.4565      71.90
     3.4566      70.14
     3.4567      67.80
     3.4586      73.08
     3.4607      73.67
     3.4608      70.15
     3.4629      74.26
     3.4629      71.92
     3.4650      73.09
     3.4651      69.58
     3.4651      70.75
     3.4652      67.82
     3.4652      65.47
     3.4653      63.71
     3.4655      57.26
     3.4672      70.17
     3.4673      66.65
     3.4674      64.30
     3.4674      62.54
     3.4675      60.78
     3.4675      59.02
     3.4676      56.09
     3.4677      53.74
     3.4697      57.85
     3.4698      54.92
     3.4698      52.57
     3.4699      50.23
     3.4700      48.47
     3.4719      56.68
     3.4720      51.40
     3.4721      49.06
     3.4721      47.30
     3.4722      44.95
     3.4743      46.13
     3.4764      44.96
     3.4785      46.73
     3.4806      47.90
     3.4807      45.56
     3.4826      53.19
     3.4827      49.08
     3.4827      50.84
     3.4828      46.73
     3.4847      52.02
     3.4868      53.78
     3.4890      52.61
     3.4911      53.20
     3.4953      53.80
     3.4954      52.63
     3.4975      53.22
     3.4975      50.87
     3.4996      52.05
     3.4997      49.70
     3.5017      53.81
     3.5017      56.16
     3.5018      49.12
     3.5018      51.47
     3.5036      62.03
     3.5036      64.38
     3.5037      57.92
     3.5037      59.68
     3.5038      54.99
     3.5039      50.30
     3.5039      52.64
     3.5056      66.14
     3.5056      68.49
     3.5057      63.21
     3.5058      60.86
     3.5059      56.76
     3.5075      73.77
     3.5076      71.42
     3.5077      67.32
     3.5077      69.66
     3.5078      64.97
     3.5080      55.59
     3.5080      57.35
     3.5097      72.60
     3.5118      73.78
     3.5119      71.43
     3.5119      69.67
     3.5120      67.91
     3.5120      66.15
     3.5121      63.81
     3.5121      61.46
     3.5123      54.42
     3.5142      64.99
     3.5142      62.64
     3.5143      60.29
     3.5144      58.53
     3.5144      56.77
     3.5144      55.01
     3.5166      55.60
     3.5166      53.84
     3.5187      55.02
     3.5208      54.44
     3.5209      53.27
     3.5227      62.66
     3.5227      65.00
     3.5228      60.31
     3.5229      55.62
     3.5229      57.96
     3.5248      63.83
     3.5249      61.49
     3.5250      56.80
     3.5250      59.14
     3.5251      53.86
     3.5269      65.60
     3.5291      64.43
     3.5291      63.26
     3.5313      62.67
     3.5333      63.85
     3.5354      65.03
     3.5355      62.68
     3.5376      63.86
     3.5377      61.52
     3.5398      62.11
     3.5419      63.28
     3.5419      60.94
     3.5420      57.42
     3.5420      59.18
     3.5441      58.01
     3.5442      55.66
     3.5463      58.60
     3.5463      56.84
     3.5464      54.49
     3.5464      52.73
     3.5486      50.98
     3.5507      52.16
     3.5527      55.68
     3.5528      51.57
     3.5528      53.33
     3.5529      50.40
     3.5548      56.86
     3.5549      54.51
     3.5570      56.28
     3.5591      57.45
     3.5612      56.87
     3.5612      58.63
     3.5633      58.05
     3.5654      59.23
     3.5673      66.27
     3.5674      62.16
     3.5674      63.92
     3.5675      58.64
     3.5675      60.40
     3.5695      65.10
     3.5716      66.87
     3.5716      65.69
     3.5717      62.76
     3.5738      64.52
     3.5738      61.59
     3.5759      63.36
     3.5760      60.42
     3.5760      58.66
     3.5761      56.32
     3.5762      54.56
     3.5762      52.21
     3.5763      48.10
     3.5781      62.19
     3.5782      57.49
     3.5783      53.39
     3.5784      51.04
     3.5784      48.70
     3.5805      49.87
     3.5806      47.53
     3.5827      48.70
     3.5848      48.12
     3.5868      53.99
     3.5869      49.30
     3.5869      51.65
     3.5870      47.54
     3.5889      55.17
     3.5889      56.93
     3.5890      50.48
     3.5890      52.82
     3.5908      62.80
     3.5909      58.11
     3.5909      60.45
     3.5911      54.00
     3.5929      64.56
     3.5930      59.29
     3.5930      61.63
     3.5950      66.33
     3.5951      60.46
     3.5951      63.40
     3.5970      69.27
     3.5970      71.61
     3.5971      65.16
     3.5971      67.51
     3.5972      62.23
     3.5991      70.44
     3.5991      71.62
     3.6012      71.03
     3.6013      69.28
     3.6013      67.52
     3.6014      65.17
     3.6015      62.82
     3.6035      66.35
     3.6035      64.00
     3.6057      62.25
     3.6077      66.36
     3.6078      63.42
     3.6078      64.60
     3.6098      67.53
     3.6098      69.88
     3.6099      65.77
     3.6118      72.82
     3.6119      68.71
     3.6119      71.06
     3.6140      72.23
     3.6161      73.41
     3.6161      71.07
     3.6162      68.72
     3.6162      66.37
     3.6163      64.03
     3.6164      62.27
     3.6182      72.24
     3.6183      69.90
     3.6183      67.55
     3.6184      65.20
     3.6184      65.20
     3.6185      62.86
     3.6206      64.04
     3.6227      62.28
     3.6227      63.45
     3.6227      64.63
     3.6248      65.22
     3.6270      64.05
     3.6270      61.70
     3.6271      57.60
     3.6291      64.64
     3.6291      62.88
     3.6292      60.53
     3.6292      58.77
     3.6314      55.85
     3.6314      57.02
     3.6314      58.19
     3.6335      56.44
     3.6336      54.68
     3.6357      55.86
     3.6357      57.03
     3.6378      57.62
     3.6399      58.21
     3.6399      56.45
     3.6420      57.04
     3.6441      57.63
     3.6442      55.87
     3.6463      57.05
     3.6464      54.70
     3.6484      56.47
     3.6485      54.12
     3.6504      63.51
     3.6504      61.17
     3.6505      57.65
     3.6505      59.41
     3.6506      55.30
     3.6525      62.34
     3.6525      64.69
     3.6546      63.52
     3.6568      62.35
     3.6568      60.59
     3.6569      58.25
     3.6570      55.90
     3.6570      53.55
     3.6590      59.42
     3.6591      57.08
     3.6591      54.73
     3.6592      52.38
     3.6592      50.63
     3.6593      49.45
     3.6611      58.84
     3.6634      52.39
     3.6635      48.87
     3.6635      50.05
     3.6653      62.96
     3.6653      60.61
     3.6654      57.09
     3.6654      58.26
     3.6655      53.57
     3.6655      55.33
     3.6656      49.47
     3.6656      51.23
     3.6673      65.89
     3.6673      67.65
     3.6674      61.79
     3.6674      64.13
     3.6675      59.44
     3.6694      66.49
     3.6715      67.08
     3.6737      65.32
     3.6738      62.39
     3.6758      67.67
     3.6758      66.50
     3.6759      64.15
     3.6779      67.09
     3.6780      62.98
     3.6801      64.16
     3.6801      65.33
     3.6802      62.40
     3.6822      64.75
     3.6822      66.51
     3.6843      65.93
     3.6843      67.69
     3.6864      68.28
     3.6885      68.87
     3.6886      67.11
     3.6886      65.35
     3.6887      63.59
     3.6887      61.83
     3.6906      69.46
     3.6907      68.29
     3.6908      64.77
     3.6908      62.42
     3.6909      60.66
     3.6909      58.90
     3.6910      56.56
     3.6931      57.74
     3.6931      55.39
     3.6951      61.26
     3.6952      57.15
     3.6952      58.91
     3.6971      65.37
     3.6972      63.02
     3.6973      57.74
     3.6973      60.09
     3.6974      55.99
     3.6992      66.55
     3.6993      61.86
     3.6993      64.20
     3.7014      65.38
     3.7014      63.03
     3.7036      62.45
     3.7057      61.87
     3.7100      62.46
     3.7100      61.29
     3.7142      63.06
     3.7142      61.89
     3.7163      63.65
     3.7163      62.48
     3.7164      60.72
     3.7164      58.96
     3.7186      59.55
     3.7204      69.53
     3.7206      60.73
     3.7206      63.07
     3.7207      58.38
     3.7225      70.70
     3.7226      66.01
     3.7226      68.36
     3.7227      61.90
     3.7227      64.25
     3.7228      59.56
     3.7245      73.64
     3.7246      71.88
     3.7247      67.19
     3.7247      69.53
     3.7267      73.06
     3.7268      68.95
     3.7268      70.71
     3.7288      72.48
     3.7288      74.24
     3.7309      73.07
     3.7310      71.89
     3.7351      76.01
     3.7351      77.18
     3.7352      71.32
     3.7352      72.49
     3.7352      74.25
     3.7393      77.78
     3.7394      76.61
     3.7394      74.85
     3.7395      71.91
     3.7395      69.57
     3.7416      73.68
     3.7416      70.74
     3.7436      78.37
     3.7437      72.51
     3.7438      71.33
     3.7438      68.99
     3.7457      77.79
     3.7458      73.69
     3.7458      74.86
     3.7459      70.17
     3.7459      71.93
     3.7478      77.21
     3.7478      78.97
     3.7479      74.28
     3.7499      78.39
     3.7500      75.45
     3.7500      76.63
     3.7501      73.69
     3.7501      71.35
     3.7521      76.05
     3.7522      74.29
     3.7522      72.53
     3.7523      70.18
     3.7543      73.70
     3.7544      71.94
     3.7563      78.40
     3.7563      80.75
     3.7564      74.88
     3.7564      76.64
     3.7565      73.12
     3.7565      70.78
     3.7584      79.58
     3.7585      77.82
     3.7605      81.34
     3.7605      80.17
     3.7606      78.41
     3.7606      76.65
     3.7607      74.89
     3.7607      72.54
     3.7608      70.20
     3.7609      67.85
     3.7609      65.50
     3.7628      73.72
     3.7629      71.38
     3.7630      69.03
     3.7630      66.68
     3.7631      64.34
     3.7652      63.75
     3.7652      66.10
     3.7669      81.94
     3.7671      73.14
     3.7672      69.04
     3.7672      70.80
     3.7673      64.93
     3.7673      67.28
     3.7689      83.71
     3.7690      80.19
     3.7691      77.84
     3.7692      74.32
     3.7692      76.08
     3.7693      71.98
     3.7710      84.88
     3.7710      86.64
     3.7711      81.37
     3.7711      82.54
     3.7731      85.48
     3.7753      86.07
     3.7753      84.31
     3.7754      81.37
     3.7775      80.21
     3.7776      77.86
     3.7777      75.51
     3.7777      73.17
     3.7778      70.82
     3.7779      67.30
     3.7779      68.47
     3.7796      81.38
     3.7797      79.04
     3.7798      76.69
     3.7798      74.34
     3.7799      72.00
     3.7800      69.65
     3.7821      67.90
     3.7822      66.72
     3.7842      69.07
     3.7843      67.31
     3.7861      77.88
     3.7862      73.77
     3.7862      76.12
     3.7863      70.25
     3.7863      72.01
     3.7881      83.75
     3.7882      79.05
     3.7882      81.40
     3.7883      74.95
     3.7883      77.29
     3.7900      90.79
     3.7900      93.14
     3.7901      86.68
     3.7901      88.44
     3.7902      82.58
     3.7902      84.92
     3.7903      80.23
     3.7904      76.71
     3.7904      77.89
     3.7920      94.31
     3.7921      91.97
     3.7922      89.62
     3.7942      93.15
     3.7942      94.91
     3.7963      95.50
     3.7963      93.74
     3.7984      94.33
     3.7985      92.57
     3.8005      94.92
     3.8006      93.16
     3.8006      91.40
     3.8007      89.64
     3.8007      87.88
     3.8008      86.12
     3.8008      84.36
     3.8009      82.01
     3.8010      78.49
     3.8030      83.19
     3.8031      80.85
     3.8031      79.67
     3.8032      77.33
     3.8032      74.98
     3.8033      73.22
     3.8052      78.50
     3.8053      76.16
     3.8054      73.81
     3.8054      71.46
     3.8075      74.40
     3.8075      72.64
     3.8076      70.30
     3.8077      68.54
     3.8096      73.23
     3.8098      69.13
     3.8098      66.78
     3.8119      67.96
     3.8137      79.11
     3.8138      75.59
     3.8139      73.24
     3.8140      69.14
     3.8140      70.90
     3.8141      67.38
     3.8159      76.77
     3.8159      78.53
     3.8160      74.42
     3.8161      72.07
     3.8178      84.98
     3.8178      87.33
     3.8179      81.46
     3.8179      83.22
     3.8180      77.94
     3.8180      79.70
     3.8181      75.60
     3.8199      86.16
     3.8199      88.51
     3.8200      83.81
     3.8201      79.12
     3.8220      86.75
     3.8241      87.93
     3.8242      85.58
     3.8242      83.82
     3.8243      82.06
     3.8244      79.72
     3.8265      80.89
     3.8286      79.73
     3.8286      82.07
     3.8306      83.25
     3.8328      81.49
     3.8329      77.98
     3.8349      82.67
     3.8350      80.33
     3.8350      78.57
     3.8371      79.16
     3.8372      77.40
     3.8372      75.64
     3.8393      77.99
     3.8394      73.88
     3.8415      76.23
     3.8415      75.06
     3.8416      72.71
     3.8416      70.95
     3.8437      72.13
     3.8437      74.48
     3.8457      75.66
     3.8457      77.42
     3.8457      79.18
     3.8458      73.31
     3.8477      80.35
     3.8480      72.14
     3.8499      78.60
     3.8501      72.73
     3.8520      80.95
     3.8520      79.78
     3.8521      77.43
     3.8521      76.26
     3.8522      74.50
     3.8522      71.56
     3.8543      73.33
     3.8544      70.39
     3.8545      65.70
     3.8565      72.16
     3.8566      69.23
     3.8566      67.47
     3.8567      64.53
     3.8588      66.30
     3.8589      61.02
     3.8589      63.36
     3.8609      65.13
     3.8610      62.20
     3.8631      63.37
     3.8632      61.03
     3.8650      71.00
     3.8651      68.66
     3.8652      64.55
     3.8652      66.31
     3.8653      62.20
     3.8672      67.49
     3.8672      69.83
     3.8692      73.36
     3.8692      75.12
     3.8693      69.25
     3.8693      71.60
     3.8713      74.54
     3.8713      76.30
     3.8714      70.43
     3.8714      70.43
     3.8734      75.13
     3.8755      75.72
     3.8777      74.55
     3.8798      76.31
     3.8819      75.15
     3.8820      73.97
     3.8841      73.39
     3.8861      76.91
     3.8862      72.81
     3.8862      74.57
     3.8882      78.09
     3.8883      73.99
     3.8883      75.75
     3.8903      79.27
     3.8924      81.03
     3.8924      79.86
     3.8925      77.51
     3.8945      81.62
     3.8945      80.45
     3.8946      78.69
     3.8967      79.28
     3.8968      77.52
     3.8968      75.18
     3.8969      72.83
     3.8989      76.35
     3.8990      74.01
     3.8991      71.07
     3.9012      72.25
     3.9012      69.91
     3.9013      68.15
     3.9013      66.39
     3.9032      73.43
     3.9034      66.98
     3.9052      79.89
     3.9053      74.61
     3.9054      71.09
     3.9054      72.85
     3.9055      68.74
     3.9056      66.40
     3.9073      81.06
     3.9073      79.31
     3.9074      75.79
     3.9074      78.13
     3.9075      72.27
     3.9075      74.03
     3.9076      69.92
     3.9077      67.57
     3.9095      76.96
     3.9095      79.90
     3.9116      78.73
     3.9117      76.38
     3.9136      82.25
     3.9137      79.91
     3.9138      77.56
     3.9156      86.95
     3.9157      83.43
     3.9157      85.19
     3.9158      81.08
     3.9159      76.98
     3.9178      86.37
     3.9200      84.61
     3.9201      81.09
     3.9220      86.96
     3.9221      85.79
     3.9221      83.44
     3.9222      81.68
     3.9243      82.27
     3.9243      80.51
     3.9244      78.75
     3.9244      76.99
     3.9245      75.23
     3.9264      81.11
     3.9266      75.83
     3.9266      74.07
     3.9267      71.72
     3.9268      69.37
     3.9288      72.90
     3.9289      70.55
     3.9289      68.20
     3.9290      66.44
     3.9290      64.69
     3.9309      73.49
     3.9309      72.32
     3.9311      65.28
     3.9312      63.52
     3.9312      61.17
     3.9333      62.35
     3.9334      60.00
     3.9353      67.63
     3.9354      63.53
     3.9354      65.29
     3.9355      61.18
     3.9374      68.81
     3.9374      70.57
     3.9375      66.46
     3.9391      84.07
     3.9392      79.96
     3.9393      77.61
     3.9394      73.51
     3.9394      75.27
     3.9395      69.99
     3.9395      71.75
     3.9396      67.64
     3.9413      81.14
     3.9413      82.90
     3.9414      78.79
     3.9415      76.44
     3.9417      68.82
     3.9434      83.49
     3.9436      77.03
     3.9456      82.32
     3.9456      80.56
     3.9457      77.63
     3.9478      78.80
     3.9478      76.46
     3.9500      77.05
     3.9500      74.70
     3.9521      75.88
     3.9522      74.12
     3.9542      77.06
     3.9543      75.30
     3.9563      78.23
     3.9563      79.99
     3.9564      76.48
     3.9583      81.17
     3.9583      82.93
     3.9584      79.41
     3.9603      85.87
     3.9603      87.63
     3.9604      84.11
     3.9605      80.00
     3.9625      86.46
     3.9646      87.05
     3.9646      85.29
     3.9668      84.12
     3.9689      85.30
     3.9731      84.72
     3.9752      85.90
     3.9753      83.55
     3.9774      84.73
     3.9775      82.39
     3.9775      80.63
     3.9796      81.22
     3.9817      82.39
     3.9839      80.64
     3.9857      92.96
     3.9858      87.10
     3.9859      83.58
     3.9859      85.34
     3.9860      81.82
     3.9878      91.79
     3.9879      88.27
     3.9879      90.03
     3.9880      86.51
     3.9899      93.56
     3.9899      95.90
     3.9900      91.21
     3.9919      97.08
     3.9920      94.74
     3.9921      92.39
     3.9941      95.91
     3.9942      91.22
     3.9942      93.57
     3.9943      87.70
     3.9962      97.68
     3.9963      94.74
     3.9963      92.40
     3.9964      90.05
     3.9964      88.29
     3.9986      88.88
     3.9986      87.12
     4.0006      90.06
     4.0006      91.23
     4.0007      88.30
     4.0027      92.41
     4.0028      90.07
     4.0049      91.24
     4.0049      88.90
     4.0050      87.14
     4.0070      89.49
     4.0071      85.97
     4.0071      88.31
     4.0092      87.73
     4.0112      92.43
     4.0113      88.91
     4.0113      90.67
     4.0114      86.56
     4.0134      91.26
     4.0155      91.85
     4.0155      90.09
     4.0156      88.33
     4.0177      88.92
     4.0177      87.16
     4.0178      84.82
     4.0179      82.47
     4.0180      76.60
     4.0198      89.51
     4.0199      87.75
     4.0199      85.99
     4.0200      83.65
     4.0200      81.30
     4.0201      79.54
     4.0201      77.78
     4.0220      88.35
     4.0223      76.03
     4.0244      77.20
     4.0245      74.86
     4.0266      73.69
     4.0284      84.84
     4.0287      75.45
     4.0306      85.43
     4.0306      83.08
     4.0307      78.98
     4.0307      80.74
     4.0308      76.63
     4.0309      74.29
     4.0326      88.37
     4.0327      84.26
     4.0327      86.61
     4.0328      81.92
     4.0329      77.81
     4.0330      73.70
     4.0330      74.88
     4.0347      87.79
     4.0348      85.44
     4.0368      88.96
     4.0389      90.14
     4.0390      87.21
     4.0411      88.39
     4.0432      89.56
     4.0433      86.63
     4.0452      93.09
     4.0452      95.43
     4.0453      90.74
     4.0454      87.81
     4.0454      88.98
     4.0473      94.27
     4.0474      90.16
     4.0474      91.92
     4.0494      96.03
     4.0496      90.75
     4.0516      94.86
     4.0516      93.69
     4.0517      91.34
     4.0538      92.52
     4.0538      90.17
     4.0539      87.83
     4.0559      90.76
     4.0560      89.00
     4.0560      87.24
     4.0581      88.42
     4.0602      90.19
     4.0603      86.67
     4.0623      90.78
     4.0624      89.60
     4.0624      87.84
     4.0642     101.34
     4.0644      92.54
     4.0645      89.02
     4.0662     103.10
     4.0662     106.04
     4.0663      99.58
     4.0664      95.48
     4.0664      97.24
     4.0665      93.72
     4.0666      90.20
     4.0666      91.37
     4.0681     113.08
     4.0682     108.97
     4.0682     110.73
     4.0683     104.28
     4.0683     105.45
     4.0683     107.21
     4.0684     100.76
     4.0684     101.94
     4.0685      98.42
     4.0702     111.91
     4.0702     114.26
     4.0705     101.35
     4.0723     113.09
     4.0744     114.85
     4.0746     108.99
     4.0766     113.68
     4.0766     111.93
     4.0767     110.17
     4.0787     112.52
     4.0788     110.76
     4.0789     108.41
     4.0809     109.59
     4.0810     107.24
     4.0811     102.55
     4.0832     106.07
     4.0832     104.31
     4.0833     100.79
     4.0837      86.72
     4.0854     103.14
     4.0854     101.97
     4.0855      99.63
     4.0855      97.87
     4.0856      96.11
     4.0856      94.35
     4.0857      92.59
     4.0857      90.24
     4.0858      87.89
     4.0878      91.42
     4.0879      89.07
     4.0880      86.14
     4.0880      83.79
     4.0901      87.32
     4.0901      84.97
     4.0902      82.62
     4.0903      80.86
     4.0923      85.56
     4.0923      83.80
     4.0924      81.45
     4.0945      80.87
     4.0945      82.63
     4.0965      84.40
     4.0987      83.23
     4.1008      84.99
     4.1028      88.52
     4.1029      86.17
     4.1029      83.82
     4.1049      89.69
     4.1050      85.59
     4.1050      87.35
     4.1070      89.11
     4.1091      90.29
     4.1113      88.53
     4.1134      89.71
     4.1135      87.95
     4.1156      88.54
     4.1156      86.78
     4.1157      85.02
     4.1157      83.26
     4.1158      79.16
     4.1179      82.09
     4.1179      80.33
     4.1180      77.99
     4.1201      79.17
     4.1201      76.82
     4.1202      75.06
     4.1203      72.71
     4.1224      73.89
     4.1224      72.13
     4.1245      73.31
     4.1265      76.83
     4.1265      78.59
     4.1266      74.49
     4.1286      78.01
     4.1286      78.01
     4.1287      75.66
     4.1307      79.78
     4.1308      77.43
     4.1329      78.61
     4.1349      80.37
     4.1349      82.72
     4.1350      79.20
     4.1370      81.55
     4.1371      79.79
     4.1391      82.73
     4.1391      84.49
     4.1412      85.66
     4.1434      83.91
     4.1454      85.09
     4.1454      87.43
     4.1475      88.61
     4.1496      88.03
     4.1497      86.85
     4.1497      84.51
     4.1518      85.69
     4.1540      83.93
     4.1560      86.87
     4.1560      89.21
     4.1561      85.11
     4.1581      88.05
     4.1581      90.98
     4.1601      92.16
     4.1602      89.81
     4.1622      93.33
     4.1624      88.64
     4.1644      91.58
     4.1665      92.76
     4.1666      90.41
     4.1687      91.59
     4.1687      89.24
     4.1688      87.48
     4.1689      82.20
     4.1708      90.42
     4.1709      88.07
     4.1709      86.31
     4.1710      84.55
     4.1710      82.79
     4.1731      83.97
     4.1732      81.62
     4.1752      87.49
     4.1752      85.15
     4.1753      82.80
     4.1773      86.33
     4.1773      88.67
     4.1794      86.92
     4.1795      84.57
     4.1815      88.09
     4.1816      85.75
     4.1817      83.40
     4.1838      83.99
     4.1838      82.82
     4.1859      85.17
     4.1859      82.24
     4.1880      83.42
     4.1898      96.32
     4.1899      91.63
     4.1899      92.81
     4.1899      94.57
     4.1900      88.11
     4.1900      89.87
     4.1901      84.59
     4.1901      86.35
     4.1902      81.66
     4.1902      82.83
     4.1920      95.16
     4.1941      95.75
     4.1942      91.64
     4.1962      96.34
     4.1962      94.58
     4.1963      92.82
     4.1984      95.17
     4.1984      93.41
     4.1985      91.06
     4.2006      92.24
     4.2006      89.89
     4.2027      91.66
     4.2049      90.49
     4.2069      92.25
     4.2088     103.40
     4.2091      91.09
     4.2091      92.85
     4.2109     102.82
     4.2111      95.78
     4.2112      92.26
     4.2112      94.02
     4.2130     102.24
     4.2130     104.00
     4.2131      98.72
     4.2131     100.48
     4.2132      96.96
     4.2151     103.42
     4.2151     105.76
     4.2152      99.90
     4.2152     101.66
     4.2172     104.59
     4.2173     102.84
     4.2193     106.36
     4.2193     105.19
     4.2214     107.54
     4.2235     108.71
     4.2257     106.96
     4.2278     108.14
     4.2279     104.03
     4.2300     106.38
     4.2300     104.62
     4.2320     107.56
     4.2321     105.21
     4.2322     103.45
     4.2342     105.80
     4.2343     104.63
     4.2343     102.28
     4.2344      99.94
     4.2345      97.59
     4.2365     101.12
     4.2365      98.77
     4.2387      97.01
     4.2408      98.19
     4.2430      96.44
     4.2451      97.61
     4.2472      96.45
     4.2493      98.21
     4.2515      97.04
     4.2536      98.81
     4.2557      97.64
     4.2557      99.98
     4.2578      99.40
     4.2578     101.16
     4.2598     102.92
     4.2599     100.58
     4.2619     104.10
     4.2620     101.76
     4.2638     113.49
     4.2639     109.39
     4.2640     105.28
     4.2640     107.63
     4.2641     102.93
     4.2659     112.91
     4.2660     110.56
     4.2661     106.46
     4.2661     108.80
     4.2662     104.11
     4.2680     114.09
     4.2681     111.74
     4.2682     108.22
     4.2702     112.92
     4.2703     110.57
     4.2703     109.40
     4.2725     107.64
     4.2745     110.00
     4.2746     108.82
     4.2788     110.59
     4.2788     109.42
     4.2788     108.24
     4.2789     105.90
     4.2790     103.55
     4.2790     101.21
     4.2791      98.86
     4.2809     110.01
     4.2809     108.84
     4.2810     107.08
     4.2811     104.73
     4.2811     102.38
     4.2812     100.04
     4.2834      98.28
     4.2852     109.43
     4.2853     103.57
     4.2854     101.22
     4.2855      99.46
     4.2873     110.61
     4.2874     105.33
     4.2874     107.68
     4.2875     102.40
     4.2895     106.51
     4.2895     108.85
     4.2896     104.16
     4.2915     110.03
     4.2916     107.10
     4.2917     105.92
     4.2937     108.28
     4.2938     104.76
     4.2959     106.52
     4.2980     108.87
     4.2980     107.70
     4.3002     105.94
     4.3022     108.88
     4.3023     107.12
     4.3041     116.51
     4.3042     114.16
     4.3043     110.06
     4.3043     111.82
     4.3044     106.54
     4.3044     108.30
     4.3061     121.21
     4.3061     123.55
     4.3062     117.69
     4.3062     119.45
     4.3063     115.34
     4.3064     113.00
     4.3082     122.39
     4.3082     124.73
     4.3085     113.59
     4.3085     111.83
     4.3103     122.98
     4.3104     121.22
     4.3104     119.46
     4.3105     117.70
     4.3105     115.94
     4.3106     114.18
     4.3106     112.42
     4.3124     124.15
     4.3127     113.01
     4.3149     111.84
     4.3170     112.43
     4.3191     113.02
     4.3192     111.26
     4.3192     108.92
     4.3213     111.85
     4.3213     110.09
     4.3214     107.75
     4.3234     111.27
     4.3235     107.17
     4.3235     109.51
     4.3255     113.04
     4.3256     108.34
     4.3256     110.69
     4.3275     116.56
     4.3276     114.21
     4.3277     111.87
     4.3277     109.52
     4.3278     107.76
     4.3296     117.74
     4.3297     115.39
     4.3298     111.28
     4.3318     115.98
     4.3319     113.64
     4.3339     117.16
     4.3340     114.81
     4.3340     111.88
     4.3341     109.53
     4.3361     113.06
     4.3361     114.23
     4.3362     110.71
     4.3381     118.34
     4.3383     112.48
     4.3384     108.96
     4.3402     119.52
     4.3403     115.41
     4.3403     117.17
     4.3404     111.31
     4.3404     113.65
     4.3405     110.13
     4.3423     120.70
     4.3424     118.35
     4.3445     120.11
     4.3465     121.29
     4.3466     118.95
     4.3487     119.54
     4.3508     120.71
     4.3509     118.37
     4.3530     118.96
     4.3551     121.31
     4.3551     120.14
     4.3552     117.79
     4.3572     119.56
     4.3593     120.73
     4.3594     118.39
     4.3614     121.91
     4.3614     123.67
     4.3615     120.15
     4.3633     129.54
     4.3634     127.19
     4.3635     123.09
     4.3635     124.85
     4.3636     121.33
     4.3654     130.72
     4.3654     133.06
     4.3655     128.37
     4.3656     126.03
     4.3675     131.90
     4.3675     134.24
     4.3678     120.75
     4.3696     132.49
     4.3697     130.14
     4.3698     127.79
     4.3698     125.45
     4.3699     123.10
     4.3699     121.34
     4.3717     133.66
     4.3718     131.32
     4.3719     128.97
     4.3719     126.63
     4.3720     124.28
     4.3721     121.93
     4.3721     120.17
     4.3722     117.83
     4.3722     115.48
     4.3742     121.35
     4.3743     119.00
     4.3743     116.66
     4.3744     114.31
     4.3744     112.55
     4.3745     110.21
     4.3746     108.45
     4.3765     115.49
     4.3766     111.38
     4.3767     109.04
     4.3767     107.86
     4.3786     116.67
     4.3787     110.80
     4.3787     112.56
     4.3787     114.32
     4.3807     115.50
     4.3809     108.46
     4.3809     109.63
     4.3828     117.26
     4.3850     116.09
     4.3871     117.27
     4.3893     115.52
     4.3913     116.69
     4.3935     116.11
     4.3952     130.78
     4.3953     126.09
     4.3953     128.43
     4.3956     117.29
     4.3973     131.96
     4.3974     127.27
     4.3974     129.61
     4.3975     124.92
     4.3976     121.40
     4.3976     123.16
     4.3977     116.12
     4.3977     117.88
     4.3977     119.64
     4.3994     132.55
     4.3999     116.71
     4.4016     131.38
     4.4037     131.97
     4.4037     130.21
     4.4038     128.45
     4.4038     126.69
     4.4039     124.93
     4.4040     122.59
     4.4040     120.24
     4.4041     118.48
     4.4060     123.76
     4.4061     121.42
     4.4062     119.07
     4.4083     119.66
     4.4083     117.90
     4.4104     120.84
     4.4104     118.49
     4.4106     113.21
     4.4125     119.67
     4.4126     117.33
     4.4127     115.57
     4.4127     114.39
     4.4149     112.64
     4.4170     113.81
     4.4170     111.47
     4.4191     113.23
     4.4211     117.93
     4.4212     113.82
     4.4212     115.58
     4.4213     112.06
     4.4232     117.35
     4.4232     119.69
     4.4233     115.00
     4.4234     113.24
     4.4252     122.63
     4.4253     118.53
     4.4253     120.87
     4.4254     116.18
     4.4255     113.83
     4.4273     123.81
     4.4273     126.16
     4.4274     119.70
     4.4274     122.05
     4.4275     116.77
     4.4293     127.33
     4.4294     124.99
     4.4295     120.29
     4.4315     126.16
     4.4336     127.93
     4.4355     135.56
     4.4357     126.76
     4.4357     129.11
     4.4376     134.98
     4.4376     137.91
     4.4377     132.04
     4.4378     127.94
     4.4378     130.28
     4.4397     136.74
     4.4398     133.81
     4.4399     131.46
     4.4418     138.51
     4.4419     135.57
     4.4420     132.64
     4.4439     139.68
     4.4440     137.34
     4.4440     134.40
     4.4441     131.47
     4.4461     137.93
     4.4461     135.58
     4.4462     133.23
     4.4463     130.89
     4.4481     140.28
     4.4482     139.11
     4.4482     136.76
     4.4483     134.41
     4.4484     132.07
     4.4505     130.90
     4.4505     133.24
     4.4526     132.07
     4.4547     133.84
     4.4568     135.02
     4.4569     132.67
     4.4589     136.19
     4.4590     133.85
     4.4609     141.48
     4.4609     140.31
     4.4610     135.03
     4.4610     137.96
     4.4629     143.24
     4.4630     139.72
     4.4631     136.79
     4.4649     147.94
     4.4650     144.42
     4.4650     146.18
     4.4651     140.90
     4.4651     142.66
     4.4652     138.55
     4.4670     149.12
     4.4671     147.36
     4.4671     145.60
     4.4672     141.49
     4.4672     143.84
     4.4673     139.15
     4.4687     164.96
     4.4690     154.40
     4.4690     156.16
     4.4691     150.30
     4.4691     152.05
     4.4692     146.78
     4.4692     147.95
     4.4693     144.43
     4.4709     162.62
     4.4709     163.79
     4.4710     158.51
     4.4710     160.27
     4.4711     155.58
     4.4711     157.34
     4.4712     153.23
     4.4713     148.54
     4.4713     147.37
     4.4730     165.56
     4.4731     161.45
     4.4733     153.82
     4.4735     147.96
     4.4751     164.39
     4.4752     163.21
     4.4752     160.28
     4.4753     157.93
     4.4754     154.41
     4.4773     162.04
     4.4774     159.11
     4.4775     156.77
     4.4775     155.01
     4.4776     153.25
     4.4776     150.90
     4.4797     153.84
     4.4797     152.66
     4.4797     151.49
     4.4798     149.73
     4.4818     152.08
     4.4819     150.91
     4.4839     154.43
     4.4840     149.74
     4.4842     142.70
     4.4860     156.20
     4.4861     151.50
     4.4861     153.85
     4.4862     146.81
     4.4862     148.57
     4.4863     144.46
     4.4881     155.03
     4.4882     152.68
     4.4883     147.99
     4.4883     150.34
     4.4884     145.64
     4.4885     143.30
     4.4902     156.21
     4.4903     153.27
     4.4904     151.51
     4.4904     149.17
     4.4906     142.71
     4.4925     150.34
     4.4946     152.11
     4.4947     148.59
     4.4948     145.07
     4.4968     150.94
     4.4968     149.77
     4.4969     148.01
     4.4969     146.25
     4.4989     150.36
     4.4991     144.49
     4.5012     145.67
     4.5033     144.50
     4.5054     146.26
     4.5055     143.33
     4.5076     145.10
     4.5078     136.30
     4.5097     143.93
     4.5098     142.75
     4.5098     140.41
     4.5099     136.89
     4.5118     144.52
     4.5119     143.35
     4.5119     141.59
     4.5120     139.24
     4.5120     137.48
     4.5121     135.72
     4.5121     133.37
     4.5142     136.90
     4.5143     133.96
     4.5164     135.14
     4.5164     132.80
     4.5185     134.56
     4.5206     135.74
     4.5207     133.39
     4.5227     135.16
     4.5247     140.44
     4.5248     136.33
     4.5248     138.09
     4.5249     133.99
     4.5263     159.21
     4.5264     157.46
     4.5265     151.59
     4.5266     149.24
     4.5267     145.14
     4.5267     146.90
     4.5268     141.62
     4.5268     143.38
     4.5269     139.27
     4.5270     135.16
     4.5283     163.33
     4.5284     160.98
     4.5285     158.63
     4.5285     156.29
     4.5286     152.77
     4.5286     154.53
     4.5287     150.42
     4.5288     148.07
     4.5302     171.54
     4.5302     173.30
     4.5303     168.02
     4.5303     169.78
     4.5304     164.50
     4.5304     164.50
     4.5304     166.26
     4.5305     162.16
     4.5306     157.46
     4.5306     159.81
     4.5323     173.89
     4.5324     172.13
     4.5327     160.99
     4.5345     172.72
     4.5345     170.96
     4.5346     169.20
     4.5346     166.86
     4.5347     164.51
     4.5348     162.17
     4.5348     159.82
     4.5350     153.95
     4.5367     168.04
     4.5368     165.69
     4.5368     163.34
     4.5369     161.00
     4.5370     158.65
     4.5370     156.89
     4.5371     155.13
     4.5389     166.28
     4.5389     164.52
     4.5390     162.17
     4.5391     160.41
     4.5392     153.96
     4.5410     167.46
     4.5412     161.59
     4.5431     166.88
     4.5433     161.01
     4.5453     165.71
     4.5454     162.19
     4.5454     160.43
     4.5474     165.13
     4.5474     166.89
     4.5475     161.61
     4.5475     163.37
     4.5495     165.72
     4.5496     163.96
     4.5517     164.55
     4.5534     178.63
     4.5538     165.73
     4.5539     163.38
     4.5556     177.46
     4.5557     172.18
     4.5557     173.94
     4.5557     175.70
     4.5558     168.66
     4.5558     170.42
     4.5559     166.90
     4.5560     164.56
     4.5577     179.23
     4.5598     178.06
     4.5620     178.65
     4.5641     179.24
     4.5641     177.48
     4.5643     170.44
     4.5662     178.07
     4.5663     176.31
     4.5663     174.55
     4.5664     172.79
     4.5664     171.62
     4.5685     171.04
     4.5686     169.86
     4.5686     168.10
     4.5687     165.17
     4.5707     168.69
     4.5708     166.93
     4.5709     164.00
     4.5729     165.77
     4.5730     164.59
     4.5749     170.46
     4.5750     166.94
     4.5750     168.70
     4.5751     164.01
     4.5771     171.05
     4.5771     169.29
     4.5772     165.19
     4.5792     171.65
     4.5792     169.89
     4.5792     168.71
     4.5813     170.48
     4.5814     166.96
     4.5831     183.39
     4.5834     171.07
     4.5835     168.13
     4.5835     169.31
     4.5852     182.80
     4.5853     179.28
     4.5853     181.04
     4.5854     175.76
     4.5854     177.52
     4.5855     172.25
     4.5855     174.00
     4.5856     169.90
     4.5856     168.73
     4.5857     167.55
     4.5873     183.98
     4.5895     182.23
     4.5895     183.40
     4.5896     180.47
     4.5896     178.71
     4.5897     174.60
     4.5918     177.54
     4.5918     175.78
     4.5919     173.43
     4.5940     175.20
     4.5961     174.03
     4.5982     174.62
     4.6004     173.45
     4.6004     171.69
     4.6005     169.34
     4.6006     167.58
     4.6006     164.06
     4.6026     170.52
     4.6027     168.17
     4.6027     166.41
     4.6027     165.24
     4.6028     162.90
     4.6029     161.14
     4.6029     158.79
     4.6049     164.07
     4.6050     161.73
     4.6050     159.97
     4.6072     158.21
     4.6093     159.39
     4.6113     162.91
     4.6113     164.67
     4.6114     160.57
     4.6134     165.85
     4.6134     164.09
     4.6135     161.74
     4.6154     168.79
     4.6155     165.27
     4.6155     167.03
     4.6176     168.21
     4.6193     182.29
     4.6194     178.18
     4.6195     173.49
     4.6195     175.84
     4.6196     169.38
     4.6196     171.14
     4.6197     167.62
     4.6215     179.36
     4.6215     181.12
     4.6216     174.67
     4.6216     177.01
     4.6217     172.32
     4.6218     168.80
     4.6235     182.30
     4.6257     181.72
     4.6257     180.54
     4.6263     161.18
     4.6278     181.13
     4.6279     179.37
     4.6279     177.03
     4.6280     175.27
     4.6281     172.92
     4.6281     171.16
     4.6282     169.40
     4.6282     167.64
     4.6283     165.88
     4.6283     163.54
     4.6284     161.78
     4.6300     178.21
     4.6301     176.45
     4.6302     174.10
     4.6304     164.71
     4.6305     162.37
     4.6305     160.61
     4.6326     161.78
     4.6326     163.54
     4.6347     165.31
     4.6347     162.96
     4.6348     161.20
     4.6365     175.29
     4.6367     166.49
     4.6368     164.73
     4.6369     162.38
     4.6387     173.53
     4.6389     165.90
     4.6390     163.56
     4.6408     172.36
     4.6409     168.84
     4.6410     165.32
     4.6410     167.08
     4.6411     164.15
     4.6411     162.98
     4.6428     177.65
     4.6429     174.13
     4.6430     170.61
     4.6431     168.26
     4.6432     162.39
     4.6450     175.30
     4.6450     177.06
     4.6451     172.96
     4.6451     171.78
     4.6452     169.44
     4.6471     176.48
     4.6471     178.24
     4.6472     174.13
     4.6491     180.01
     4.6492     177.66
     4.6493     175.90
     4.6511     185.29
     4.6512     181.18
     4.6512     182.94
     4.6513     178.84
     4.6533     184.12
     4.6536     174.15
     4.6554     185.88
     4.6554     184.71
     4.6554     182.95
     4.6555     181.19
     4.6555     179.43
     4.6556     177.67
     4.6556     175.91
     4.6557     172.98
     4.6578     174.74
     4.6579     171.81
     4.6579     169.46
     4.6600     173.57
     4.6600     170.64
     4.6601     168.30
     4.6622     170.06
     4.6643     168.89
     4.6643     171.82
     4.6662     177.11
     4.6663     174.76
     4.6664     170.66
     4.6664     173.00
     4.6683     178.29
     4.6684     175.94
     4.6686     167.73
     4.6705     176.53
     4.6706     174.77
     4.6706     173.01
     4.6707     171.25
     4.6707     168.90
     4.6726     177.71
     4.6728     171.84
     4.6728     170.08
     4.6729     167.15
     4.6729     168.32
     4.6750     166.57
     4.6750     168.91
     4.6771     167.74
     4.6791     174.79
     4.6793     165.99
     4.6812     173.62
     4.6813     171.27
     4.6814     167.17
     4.6814     168.93
     4.6832     177.73
     4.6833     175.38
     4.6834     172.45
     4.6835     166.59
     4.6835     170.10
     4.6853     178.91
     4.6853     180.67
     4.6853     181.84
     4.6854     176.56
     4.6855     174.22
     4.6873     183.02
     4.6895     181.26
     4.6895     182.44
     4.6896     178.92
     4.6917     180.09
     4.6917     177.75
     4.6939     178.34
     4.6939     176.58
     4.6960     179.52
     4.6961     175.41
     4.6961     173.65
     4.6978     189.49
     4.6982     174.24
     4.6982     176.00
     4.7000     185.98
     4.7000     188.32
     4.7001     183.63
     4.7002     178.94
     4.7002     181.29
     4.7003     175.42
     4.7004     173.07
     4.7020     190.09
     4.7021     187.16
     4.7022     184.81
     4.7023     180.12
     4.7023     182.46
     4.7024     176.60
     4.7024     177.77
     4.7025     174.25
     4.7042     188.92
     4.7064     187.75
     4.7084     189.52
     4.7105     190.69
     4.7106     188.35
     4.7126     191.87
     4.7147     193.05
     4.7148     190.12
     4.7169     192.47
     4.7169     191.29
     4.7190     193.64
     4.7190     191.88
     4.7191     189.54
     4.7211     192.48
     4.7212     190.72
     4.7233     191.31
     4.7233     189.55
     4.7254     190.14
     4.7255     188.38
     4.7256     186.03
     4.7277     187.21
     4.7277     184.86
     4.7280     173.13
     4.7298     185.45
     4.7299     183.69
     4.7299     181.35
     4.7301     174.31
     4.7319     187.81
     4.7319     186.63
     4.7320     182.53
     4.7321     180.18
     4.7322     178.42
     4.7322     176.66
     4.7322     174.90
     4.7323     172.55
     4.7324     170.21
     4.7324     168.45
     4.7344     173.73
     4.7345     171.39
     4.7345     169.04
     4.7346     167.28
     4.7346     165.52
     4.7347     163.17
     4.7348     160.83
     4.7368     164.35
     4.7369     162.00
     4.7369     159.66
     4.7370     158.48
     4.7388     167.87
     4.7388     170.22
     4.7389     165.53
     4.7390     160.84
     4.7390     163.18
     4.7408     173.16
     4.7408     174.92
     4.7409     169.05
     4.7409     171.40
     4.7410     164.36
     4.7410     166.71
     4.7411     162.01
     4.7412     157.91
     4.7412     159.08
     4.7429     175.51
     4.7429     173.75
     4.7450     174.34
     4.7451     172.58
     4.7451     170.82
     4.7472     171.41
     4.7489     186.67
     4.7491     180.80
     4.7492     175.52
     4.7492     177.28
     4.7492     179.04
     4.7493     172.00
     4.7493     173.76
     4.7494     170.24
     4.7510     187.85
     4.7511     185.50
     4.7512     180.22
     4.7512     181.98
     4.7512     183.74
     4.7515     172.59
     4.7515     171.42
     4.7531     189.02
     4.7532     187.26
     4.7552     190.79
     4.7553     186.09
     4.7553     188.44
     4.7571     197.83
     4.7572     195.48
     4.7573     191.97
     4.7573     193.72
     4.7574     189.62
     4.7591     203.70
     4.7592     199.60
     4.7592     201.36
     4.7593     196.66
     4.7595     190.21
     4.7613     202.53
     4.7614     198.43
     4.7633     204.30
     4.7634     201.95
     4.7635     197.26
     4.7655     203.13
     4.7656     200.78
     4.7656     198.44
     4.7657     196.09
     4.7677     201.96
     4.7677     199.61
     4.7678     196.68
     4.7679     194.92
     4.7679     193.16
     4.7680     191.40
     4.7680     189.05
     4.7681     186.71
     4.7699     197.86
     4.7701     190.23
     4.7702     187.89
     4.7723     189.06
     4.7724     186.13
     4.7745     187.31
     4.7765     188.49
     4.7765     189.66
     4.7765     191.42
     4.7785     196.12
     4.7785     194.36
     4.7786     192.60
     4.7787     187.90
     4.7787     189.08
     4.7806     195.53
     4.7828     194.37
     4.7831     182.63
     4.7848     196.13
     4.7849     194.96
     4.7849     193.20
     4.7850     191.44
     4.7850     189.68
     4.7851     187.92
     4.7851     186.16
     4.7852     183.81
     4.7853     180.88
     4.7873     184.99
     4.7874     182.06
     4.7874     180.30
     4.7893     187.34
     4.7895     183.23
     4.7914     188.52
     4.7914     191.45
     4.7915     186.17
     4.7916     184.41
     4.7935     189.69
     4.7935     192.63
     4.7936     187.94
     4.7956     190.87
     4.7957     186.77
     4.7977     192.05
     4.7998     193.23
     4.7999     191.47
     4.8020     192.65
     4.8041     193.82
     4.8041     192.06
     4.8061     195.00
     4.8062     192.65
     4.8083     194.42
     4.8085     186.79
     4.8104     195.01
     4.8105     193.25
     4.8105     191.49
     4.8106     189.73
     4.8106     187.97
     4.8107     185.04
     4.8128     186.22
     4.8129     183.28
     4.8149     187.39
     4.8149     185.63
     4.8150     184.46
     4.8150     182.11
     4.8170     186.22
     4.8171     183.88
     4.8192     185.64
     4.8193     182.71
     4.8213     184.47
     4.8233     188.58
     4.8234     186.24
     4.8255     187.42
     4.8256     185.07
     4.8276     189.18
     4.8276     188.01
     4.8297     188.60
     4.8319     187.43
     4.8320     185.08
     4.8320     182.74
     4.8340     186.26
     4.8341     183.91
     4.8362     186.85
     4.8362     185.09
     4.8363     182.75
     4.8363     180.99
     4.8364     178.64
     4.8385     179.82
     4.8407     178.06
     4.8407     176.89
     4.8428     179.24
     4.8428     176.31
     4.8449     177.48
     4.8450     175.72
     4.8471     176.32
     4.8492     175.15
     4.8493     174.56
     4.8514     173.98
     4.8532     185.13
     4.8533     181.02
     4.8534     177.50
     4.8534     179.26
     4.8535     175.74
     4.8535     174.57
     4.8553     186.31
     4.8554     182.20
     4.8554     183.96
     4.8555     180.44
     4.8574     187.48
     4.8575     185.72
     4.8596     184.55
     4.8596     186.90
     4.8617     188.08
     4.8638     186.32
     4.8639     184.56
     4.8642      17.96
     4.8657     195.71
     4.8659     187.50
     4.8660     185.15
     4.8678     197.48
     4.8679     191.61
     4.8679     193.96
     4.8680     189.26
     4.8681     184.57
     4.8681     186.92
     4.8695     211.56
     4.8695     213.32
     4.8696     207.45
     4.8696     209.21
     4.8697     203.93
     4.8697     205.69
     4.8698     200.41
     4.8698     202.17
     4.8699     198.65
     4.8700     192.79
     4.8700     195.14
     4.8701     190.44
     4.8702     185.75
     4.8702     188.10
     4.8716     212.74
     4.8717     210.39
     4.8737     213.92
     4.8738     210.98
     4.8742     195.73
     4.8759     212.16
     4.8759     209.81
     4.8760     208.05
     4.8760     206.29
     4.8761     203.95
     4.8782     205.13
     4.8798     223.90
     4.8803     206.89
     4.8804     201.61
     4.8805     199.26
     4.8820     221.56
     4.8820     223.32
     4.8821     218.04
     4.8821     219.80
     4.8822     213.35
     4.8822     215.69
     4.8823     211.00
     4.8824     205.72
     4.8824     208.65
     4.8825     203.37
     4.8826     201.03
     4.8826     198.68
     4.8827     196.34
     4.8829     188.71
     4.8840     224.50
     4.8843     214.52
     4.8843     216.87
     4.8844     212.18
     4.8845     207.49
     4.8845     209.83
     4.8846     204.55
     4.8847     199.86
     4.8847     202.21
     4.8848     197.51
     4.8849     195.17
     4.8849     192.82
     4.8850     190.47
     4.8851     188.13
     4.8867     206.32
     4.8868     202.80
     4.8868     200.45
     4.8869     198.69
     4.8870     196.34
     4.8870     194.00
     4.8871     191.65
     4.8871     189.31
     4.8883     223.92
     4.8888     205.15
     4.8889     201.63
     4.8889     203.39
     4.8893     188.72
     4.8910     202.22
     4.8911     201.05
     4.8911     199.29
     4.8912     197.53
     4.8912     195.77
     4.8913     193.42
     4.8914     188.14
     4.8914     191.07
     4.8914     189.31
     4.8932     202.81
     4.8934     194.60
     4.8934     192.25
     4.8935     189.91
     4.8936     187.56
     4.8936     185.80
     4.8937     184.04
     4.8937     182.28
     4.8938     179.93
     4.8953     201.64
     4.8957     188.74
     4.8959     181.11
     4.8959     178.76
     4.8960     176.42
     4.8981     177.60
     4.8982     175.25
     4.8998     192.26
     4.8998     194.61
     4.8999     189.92
     4.9000     185.81
     4.9000     187.57
     4.9001     182.29
     4.9001     184.05
     4.9002     178.77
     4.9002     180.53
     4.9003     177.01
     4.9019     193.44
     4.9020     191.10
     4.9021     188.75
     4.9024     175.84
     4.9040     195.21
     4.9061     196.38
     4.9062     194.04
     4.9082     195.80
     4.9103     196.98
     4.9104     194.63
     4.9124     198.16
     4.9125     196.40
     4.9125     195.22
     4.9141     214.59
     4.9142     212.24
     4.9142     209.89
     4.9143     206.96
     4.9143     208.72
     4.9144     202.27
     4.9144     204.61
     4.9145     199.92
     4.9146     197.58
     4.9162     215.76
     4.9163     213.42
     4.9163     211.07
     4.9164     208.14
     4.9164     209.31
     4.9165     205.79
     4.9165     203.45
     4.9166     201.10
     4.9167     198.75
     4.9168     195.82
     4.9183     216.94
     4.9184     214.60
     4.9188     197.00
     4.9205     215.19
     4.9205     213.43
     4.9206     209.32
     4.9226     216.36
     4.9227     212.26
     4.9227     210.50
     4.9228     208.15
     4.9249     208.74
     4.9250     206.98
     4.9250     205.22
     4.9250     203.46
     4.9270     209.92
     4.9270     208.16
     4.9272     204.05
     4.9272     201.71
     4.9273     199.95
     4.9292     207.58
     4.9293     202.89
     4.9294     200.54
     4.9294     198.78
     4.9295     197.61
     4.9313     207.00
     4.9314     204.65
     4.9315     199.96
     4.9315     202.30
     4.9335     205.83
     4.9336     201.14
     4.9336     203.48
     4.9337     197.03
     4.9337     198.20
     4.9337     199.38
     4.9356     207.59
     4.9357     202.31
     4.9358     198.79
     4.9358     200.55
     4.9358     200.55
     4.9379     199.97
     4.9400     200.56
     4.9401     198.80
     4.9421     201.74
     4.9421     203.50
     4.9422     199.98
     4.9440     209.96
     4.9441     206.44
     4.9441     208.20
     4.9442     204.68
     4.9461     212.89
     4.9462     209.37
     4.9482     212.31
     4.9483     208.79
     4.9483     210.55
     4.9503     213.49
     4.9503     211.73
     4.9504     209.97
     4.9523     217.01
     4.9524     212.91
     4.9524     214.67
     4.9544     218.78
     4.9545     215.85
     4.9560     236.97
     4.9560     239.31
     4.9561     232.86
     4.9561     234.62
     4.9562     230.51
     4.9562     231.69
     4.9563     226.99
     4.9563     228.75
     4.9564     223.48
     4.9564     225.23
     4.9565     219.96
     4.9565     221.72
     4.9566     215.26
     4.9566     217.61
     4.9581     238.14
     4.9582     235.80
     4.9587     216.44
     4.9602     239.91
     4.9605     228.76
     4.9624     238.74
     4.9624     237.57
     4.9624     235.81
     4.9625     234.05
     4.9625     232.29
     4.9626     230.53
     4.9627     227.59
     4.9627     225.84
     4.9648     229.36
     4.9648     226.43
     4.9649     225.25
     4.9649     224.08
     4.9649     222.32
     4.9650     220.56
     4.9650     218.80
     4.9651     216.45
     4.9669     228.19
     4.9672     217.63
     4.9673     215.29
     4.9673     213.53
     4.9674     211.77
     4.9693     219.40
     4.9695     212.36
     4.9714     218.81
     4.9716     214.12
     4.9733     227.62
     4.9734     223.51
     4.9735     219.99
     4.9735     221.75
     4.9736     217.06
     4.9737     211.78
     4.9737     212.95
     4.9737     215.30
     4.9755     224.69
     4.9755     226.45
     4.9756     222.93
     4.9757     218.24
     4.9775     228.21
     4.9778     219.41
     4.9797     227.04
     4.9816     234.67
     4.9816     237.02
     4.9817     230.57
     4.9817     232.91
     4.9818     228.81
     4.9819     224.70
     4.9819     226.46
     4.9820     220.01
     4.9820     222.36
     4.9821     217.66
     4.9837     235.85
     4.9837     238.20
     4.9838     231.75
     4.9838     234.09
     4.9839     227.64
     4.9839     229.40
     4.9840     225.88
     4.9841     223.53
     4.9841     221.19
     4.9842     218.84
     4.9843     216.49
     4.9861     228.23
     4.9861     226.47
     4.9862     224.71
     4.9862     222.36
     4.9863     220.02
     4.9863     218.26
     4.9864     215.33
     4.9885     217.09
     4.9886     214.16
     4.9886     211.81
     4.9907     215.92
     4.9907     212.99
     4.9908     210.64
     4.9908     208.88
     4.9909     207.12
     4.9909     205.36
     4.9910     203.02
     4.9911     200.67
     4.9911     198.32
     4.9928     214.75
     4.9932     201.85
     4.9932     199.50
     4.9952     206.54
     4.9953     200.68
     4.9954     198.92
     4.9973     205.38
     4.9973     207.72
     4.9974     201.86
     4.9974     203.62
     4.9975     200.10
     4.9993     210.66
     4.9994     206.55
     4.9994     208.90
     4.9995     204.79
     5.0014     211.84
     5.0015     210.08
     5.0016     205.97
     5.0035     213.01
     5.0057     211.26
     5.0057     208.91
     5.0058     206.57
     5.0060     198.94
     5.0078     212.44
     5.0078     210.09
     5.0079     207.74
     5.0080     205.40
     5.0080     204.23
     5.0080     202.47
     5.0081     200.71
     5.0103     198.36
     5.0103     199.54
     5.0123     203.06
     5.0123     200.71
     5.0124     198.95
     5.0144     201.89
     5.0144     204.24
     5.0164     206.59
     5.0164     208.35
     5.0165     203.07
     5.0165     204.83
     5.0185     207.77
     5.0185     208.94
     5.0207     207.18
     5.0207     205.43
     5.0208     203.08
     5.0228     208.36
     5.0229     204.26
     5.0248     211.30
     5.0248     213.65
     5.0249     207.19
     5.0249     209.54
     5.0250     203.67
     5.0250     205.43
     5.0251     202.50
     5.0269     212.48
     5.0272     203.09
     5.0290     214.24
     5.0291     211.31
     5.0291     209.55
     5.0292     207.20
     5.0294     199.58
     5.0311     216.59
     5.0312     213.07
     5.0313     208.38
     5.0313     206.03
     5.0314     203.69
     5.0315     201.34
     5.0316     198.41
     5.0316     196.65
     5.0317     192.54
     5.0318     190.20
     5.0318     188.44
     5.0319     186.09
     5.0320     183.74
     5.0332     215.42
     5.0333     213.66
     5.0333     210.73
     5.0333     211.90
     5.0334     208.97
     5.0334     207.21
     5.0335     204.87
     5.0336     202.52
     5.0336     200.17
     5.0337     197.24
     5.0338     195.48
     5.0338     193.72
     5.0339     191.37
     5.0339     189.03
     5.0340     187.27
     5.0341     184.92
     5.0357     200.76
     5.0358     199.00
     5.0359     196.66
     5.0377     207.81
     5.0380     196.08
     5.0380     197.84
     5.0398     206.64
     5.0398     208.99
     5.0399     204.29
     5.0400     199.60
     5.0400     201.95
     5.0401     197.25
     5.0419     207.82
     5.0419     210.16
     5.0420     205.47
     5.0421     200.78
     5.0421     203.12
     5.0422     196.67
     5.0422     198.43
     5.0440     208.41
     5.0443     197.85
     5.0461     209.59
     5.0462     207.24
     5.0463     204.89
     5.0463     202.55
     5.0464     200.20
     5.0464     198.44
     5.0465     196.09
     5.0466     192.57
     5.0483     209.00
     5.0484     206.07
     5.0484     203.72
     5.0485     201.38
     5.0486     199.03
     5.0486     197.27
     5.0487     194.92
     5.0487     193.75
     5.0488     191.41
     5.0507     198.45
     5.0508     193.17
     5.0508     196.69
     5.0528     197.87
     5.0528     199.63
     5.0529     194.35
     5.0529     195.52
     5.0530     192.00
     5.0550     198.46
     5.0550     197.28
     5.0571     199.05
     5.0571     196.12
     5.0592     197.88
     5.0608     217.83
     5.0608     219.59
     5.0609     213.14
     5.0609     215.48
     5.0610     210.79
     5.0611     206.10
     5.0611     208.44
     5.0612     202.58
     5.0612     204.34
     5.0613     199.06
     5.0613     200.82
     5.0614     196.71
     5.0629     219.01
     5.0630     214.31
     5.0630     216.66
     5.0631     211.97
     5.0632     207.27
     5.0632     209.62
     5.0635     196.13
     5.0635     197.89
     5.0650     219.60
     5.0651     217.84
     5.0651     215.49
     5.0652     213.14
     5.0653     210.80
     5.0653     208.45
     5.0654     206.69
     5.0654     204.93
     5.0655     202.59
     5.0657     194.37
     5.0676     203.76
     5.0676     201.42
     5.0677     199.66
     5.0678     197.31
     5.0678     195.55
     5.0697     204.94
     5.0698     198.49
     5.0699     196.73
     5.0700     193.80
     5.0718     203.77
     5.0719     199.67
     5.0719     201.43
     5.0720     196.15
     5.0720     197.91
     5.0721     194.97
     5.0739     205.54
     5.0740     202.60
     5.0743     192.63
     5.0761     204.37
     5.0761     203.20
     5.0761     201.44
     5.0762     199.68
     5.0763     197.33
     5.0764     193.22
     5.0764     191.46
     5.0784     198.51
     5.0784     196.16
     5.0785     194.40
     5.0785     192.64
     5.0804     203.20
     5.0806     193.82
     5.0807     192.06
     5.0825     202.62
     5.0826     198.52
     5.0827     195.00
     5.0827     196.76
     5.0828     192.65
     5.0845     205.56
     5.0845     207.32
     5.0846     203.80
     5.0847     199.69
     5.0847     201.45
     5.0863     217.88
     5.0864     213.78
     5.0864     215.54
     5.0865     210.26
     5.0865     212.02
     5.0866     206.74
     5.0866     208.50
     5.0868     202.63
     5.0884     219.06
     5.0885     216.71
     5.0885     214.95
     5.0906     216.13
     5.0906     217.89
     5.0907     213.20
     5.0907     214.37
     5.0908     211.44
     5.0908     209.68
     5.0909     207.92
     5.0909     206.16
     5.0910     204.40
     5.0910     202.64
     5.0911     200.88
     5.0911     198.53
     5.0912     196.19
     5.0913     193.84
     5.0927     218.48
     5.0932     202.06
     5.0932     199.71
     5.0933     197.37
     5.0933     195.02
     5.0934     192.67
     5.0935     190.33
     5.0935     188.57
     5.0953     200.30
     5.0954     198.54
     5.0954     196.20
     5.0955     193.85
     5.0956     191.50
     5.0956     189.16
     5.0976     195.03
     5.0977     192.68
     5.0978     188.58
     5.0998     190.93
     5.1019     192.10
     5.1020     189.76
     5.1021     185.65
     5.1040     192.69
     5.1041     190.93
     5.1042     188.59
     5.1042     186.83
     5.1063     188.01
     5.1064     185.07
     5.1085     186.25
     5.1105     188.60
     5.1105     190.95
     5.1106     187.43
     5.1126     189.78
     5.1127     186.85
     5.1147     191.54
     5.1148     188.02
     5.1169     190.38
     5.1169     188.62
     5.1170     186.86
     5.1173     175.71
     5.1191     185.69
     5.1192     183.34
     5.1192     184.51
     5.1192     181.58
     5.1193     179.82
     5.1193     178.06
     5.1194     176.89
     5.1215     175.72
     5.1236     177.48
     5.1246     218.55
     5.1247     213.86
     5.1247     216.20
     5.1248     211.51
     5.1249     209.16
     5.1249     206.82
     5.1250     204.47
     5.1258     176.31
     5.1268     215.03
     5.1268     217.38
     5.1269     212.69
     5.1270     208.00
     5.1270     210.34
     5.1271     205.65
     5.1272     200.37
     5.1272     202.13
     5.1272     203.30
     5.1273     196.26
     5.1273     198.02
     5.1274     193.92
     5.1275     189.81
     5.1276     187.46
     5.1279     178.08
     5.1288     219.15
     5.1293     200.96
     5.1294     199.20
     5.1295     195.09
     5.1296     190.99
     5.1296     192.75
     5.1297     188.64
     5.1298     182.78
     5.1298     184.54
     5.1298     186.30
     5.1299     179.26
     5.1299     181.02
     5.1300     176.91
     5.1310     217.98
     5.1312     212.11
     5.1321     177.50
     5.1322     176.33
     5.1331     218.57
     5.1332     216.81
     5.1332     215.05
     5.1333     213.29
     5.1333     210.94
     5.1334     207.42
     5.1354     211.53
     5.1355     209.77
     5.1356     207.43
     5.1356     205.67
     5.1375     212.71
     5.1376     208.60
     5.1377     206.26
     5.1378     203.91
     5.1378     201.57
     5.1379     199.22
     5.1380     195.70
     5.1398     207.44
     5.1399     205.09
     5.1399     202.74
     5.1400     200.40
     5.1401     198.05
     5.1401     196.88
     5.1402     191.60
     5.1402     193.94
     5.1403     189.25
     5.1404     186.90
     5.1404     184.56
     5.1405     183.39
     5.1405     181.63
     5.1419     209.20
     5.1423     195.12
     5.1423     192.78
     5.1424     190.43
     5.1425     188.08
     5.1425     185.74
     5.1427     180.46
     5.1444     196.30
     5.1446     186.33
     5.1447     183.98
     5.1447     185.15
     5.1448     182.22
     5.1448     179.29
     5.1469     181.05
     5.1469     179.88
     5.1470     178.12
     5.1470     176.36
     5.1472     171.67
     5.1492     175.19
     5.1493     172.84
     5.1493     170.50
     5.1512     178.71
     5.1512     180.47
     5.1513     176.37
     5.1514     174.02
     5.1514     172.26
     5.1528     197.49
     5.1528     199.84
     5.1529     195.14
     5.1530     190.45
     5.1530     192.80
     5.1531     186.93
     5.1531     188.69
     5.1532     183.41
     5.1532     185.17
     5.1533     179.89
     5.1533     181.65
     5.1534     177.55
     5.1535     175.20
     5.1536     171.09
     5.1549     199.25
     5.1550     196.32
     5.1551     191.63
     5.1551     193.98
     5.1570     200.43
     5.1571     198.09
     5.1571     196.91
     5.1572     195.15
     5.1572     192.81
     5.1573     190.46
     5.1592     199.85
     5.1594     191.64
     5.1595     189.29
     5.1595     187.53
     5.1596     185.19
     5.1596     182.25
     5.1617     186.36
     5.1617     183.43
     5.1635     196.34
     5.1636     192.82
     5.1637     190.47
     5.1638     184.61
     5.1639     181.67
     5.1655     199.86
     5.1656     197.52
     5.1657     194.00
     5.1657     195.76
     5.1658     189.30
     5.1658     191.65
     5.1659     185.79
     5.1659     186.96
     5.1659     188.13
     5.1660     182.85
     5.1660     184.03
     5.1677     198.69
     5.1686     167.61
     5.1698     200.46
     5.1699     197.53
     5.1699     195.77
     5.1700     194.01
     5.1700     192.25
     5.1701     190.49
     5.1701     188.73
     5.1702     186.38
     5.1702     184.62
     5.1703     182.27
     5.1703     180.51
     5.1704     178.76
     5.1704     176.41
     5.1705     174.06
     5.1706     171.72
     5.1706     169.37
     5.1719     199.29
     5.1724     183.45
     5.1725     177.59
     5.1726     175.24
     5.1727     172.89
     5.1727     170.55
     5.1728     168.20
     5.1728     167.03
     5.1746     178.76
     5.1746     179.94
     5.1746     181.70
     5.1747     174.66
     5.1747     176.42
     5.1749     167.62
     5.1766     184.05
     5.1766     185.81
     5.1767     182.87
     5.1787     186.99
     5.1807     189.92
     5.1808     188.16
     5.1809     183.47
     5.1828     191.10
     5.1829     188.75
     5.1850     189.35
     5.1870     191.70
     5.1870     194.63
     5.1870     193.46
     5.1871     190.52
     5.1871     188.18
     5.1872     186.42
     5.1872     184.66
     5.1873     183.48
     5.1890     196.39
     5.1891     192.87
     5.1892     189.94
     5.1892     191.11
     5.1893     188.77
     5.1912     194.05
     5.1912     195.22
     5.1933     196.99
     5.1933     195.82
     5.1933     194.64
     5.1934     192.88
     5.1955     193.47
     5.1975     196.41
     5.1976     192.89
     5.1976     194.65
     5.1997     195.83
     5.2018     197.01
     5.2019     194.66
     5.2021     185.27
     5.2039     195.84
     5.2040     193.49
     5.2041     191.73
     5.2041     189.97
     5.2041     188.80
     5.2042     187.04
     5.2042     185.87
     5.2063     187.63
     5.2064     184.70
     5.2083     190.57
     5.2084     188.81
     5.2085     186.46
     5.2085     185.29
     5.2104     191.75
     5.2104     194.09
     5.2125     192.92
     5.2146     194.69
     5.2147     192.34
     5.2168     193.52
     5.2188     197.63
     5.2189     195.28
     5.2209     196.46
     5.2209     198.22
     5.2210     194.70
     5.2228     204.68
     5.2229     202.33
     5.2230     198.22
     5.2230     199.98
     5.2231     197.05
     5.2249     206.44
     5.2249     208.79
     5.2250     203.51
     5.2251     201.16
     5.2252     197.06
     5.2270     207.62
     5.2270     209.97
     5.2271     205.27
     5.2291     208.21
     5.2292     204.10
     5.2312     209.39
     5.2313     207.04
     5.2313     205.28
     5.2314     202.94
     5.2315     201.18
     5.2316     194.72
     5.2335     204.11
     5.2336     200.01
     5.2336     201.77
     5.2337     197.07
     5.2337     195.31
     5.2359     195.91
     5.2378     202.95
     5.2379     197.08
     5.2379     198.84
     5.2380     194.74
     5.2399     201.78
     5.2400     200.02
     5.2401     195.91
     5.2420     203.54
     5.2442     202.38
ENDDATA           3480
ENDSUBENT         3493
ENDENTRY             2
