ENTRY            20306     840409
SUBENT        20306001     840409              20050926       0000
BIB                 13         29
INSTITUTE  (2JPNJAE)
REFERENCE  (J,NP/A,171,480,7108) GRAPHS.
           (W,KIKUCHI,7202) NUMERICAL VALUES.
           (J,JPJ,28,1089,7004) SHORT COMMENT ONLY.
AUTHOR     (S.KIKUCHI)
TITLE      -ENERGY LEVELS OF CS-133 EXCITED BY MEANS OF (N,N'G)
            REACTION.-
FACILITY   (VDG  )    JAERI 5.5 MV VAN DE GRAAFF ACCELERATOR WITH
            BUNCHING MAGNET OF MOBLEY TYPE.
INC-SOURCE (P-T  )    PROTON-TRITIUM, TRITIUM GAS TARGET.
INC-SPECT   ENERGY SPREAD OF INCIDENT NEUTRONS WAS ESTIMATED TO
            BE 90 KEV OR 130 KEV AT THE BASE WIDTH.
SAMPLE      65.4 GRAM OF 99.99 PERC PURE METALLIC CESIUM
            ENCLOSED IN A RIGHT CYLINDRICAL GLASS CAPSULE.
METHOD     (TOF  )    TIME OF FLIGHT.
DETECTOR   (GELI )    GE(LI) DETECTOR OF COAXIAL TYPE, 17 CM3.
           .NEUTRON FLUX WAS MONITORED WITH A LONG COUNTER (IN THE
            MEASUREMENT OF EXCITATION FUNCTIONS) OR A TIME-GATED
            SMALL PLASTIC SCINTILLATION COUNTER ( IN THE ANGULAR
            DISTRIBUTION MEASUREMENT).
COMMENT     NINE LEVELS (CS-133) OF 605, 633, 641, 706, 768, 787,
            819, 873 AND 917 KEV HAVE BEEN FOUND AND THEIR SPIN
            ASSIGNMENTS ARE DONE.
HISTORY    (720217C)
           (740626E)
           (840106U) A.P.T. JAPAN CODE CHANGED TO JPN
           (840106E)
CORRECTION  CORRECTION FACTORS FOR SELF-ABSORPTION OF GAMMA-RAYS
            IN SCATTERER WERE CALCULATED.
ENDBIB              29
NOCOMMON             0          0
ENDSUBENT           32
SUBENT        20306002     831122              20050926       0000
BIB                  6         14
REACTION   (55-CS-133(N,INL)55-CS-133,PAR,SIG)
            EXCITATION FUNCTION OF LEVELS.
MONITOR    .ABSOLUTE EFFICIENCY OF GAMMA DETECTION WAS
            OBTAINED BY USING SEVERAL CALIBRATED SOURCES (HG-203,
            CR-51, AU-198, CS-137, NA-22 AND CO-60),
           .ABSOLUTE VALUE OF NEUTRON FLUX WAS MEASURED BY LONG
            COUNTER WHICH WAS CALIBRATED WITH A STANDARD SOURCE OF
            50 MILLI-CURIE RA-BE.
PART-DET   (G    )    GAMMAS.
STATUS     .DATA FROM KIKUCHI 11/02/72,(FIG.7).
HISTORY    (720217C)
           (740626E)
ERR-ANALYS  ERRORS OF CROSS SECTIONS ARE TOTAL ERRORS, NEUTRON
            FLUX WAS OBTAINED WITH THE ERROR OF 5 PERCENT.
ENDBIB              14
COMMON               1          3
E-LVL
MEV
 6.3300E-01
ENDCOMMON            3
DATA                 3         49
EN         DATA       DATA-ERR
MEV        B          B
 5.4900E-01-4.0000E-03 1.4000E-02
 5.6700E-01 9.0000E-03 1.1000E-02
 5.7900E-01-1.5000E-02 1.1000E-02
 5.8600E-01-2.8000E-02 1.4000E-02
 6.0500E-01 2.3000E-02 1.2000E-02
 6.2200E-01 2.0000E-03 1.5000E-02
 6.3900E-01 7.0000E-02 1.8000E-02
 6.4100E-01 3.3000E-02 1.5000E-02
 6.5300E-01 4.6000E-02 1.3000E-02
 6.6800E-01 5.4000E-02 1.6000E-02
 6.7400E-01 7.3000E-02 2.1000E-02
 6.7800E-01 6.0000E-02 1.6000E-02
 6.8200E-01 7.1000E-02 8.0000E-03
 6.9300E-01 7.2000E-02 1.9000E-02
 6.9500E-01 6.0000E-02 8.0000E-03
 7.0400E-01 7.5000E-02 1.8000E-02
 7.0900E-01 7.9000E-02 8.0000E-03
 7.1500E-01 1.0100E-01 2.0000E-02
 7.1900E-01 9.7000E-02 1.0000E-02
 7.3000E-01 1.0200E-01 1.0000E-02
 7.3500E-01 1.3100E-01 1.8000E-02
 7.3800E-01 9.8000E-02 1.1000E-02
 7.4700E-01 1.0300E-01 1.0000E-02
 7.5000E-01 9.6000E-02 2.1000E-02
 7.5800E-01 1.0800E-01 1.1000E-02
 7.5900E-01 1.2200E-01 1.8000E-02
 7.6400E-01 1.1800E-01 1.1000E-02
 7.7000E-01 1.0000E-01 1.6000E-02
 7.7500E-01 1.2100E-01 1.3000E-02
 7.8200E-01 1.4200E-01 1.9000E-02
 7.8500E-01 1.2000E-01 1.2000E-02
 7.8600E-01 1.3100E-01 2.2000E-02
 8.0300E-01 1.4600E-01 2.1000E-02
 8.1700E-01 1.3900E-01 2.0000E-02
 8.2700E-01 1.0900E-01 1.4000E-02
 8.2800E-01 1.4000E-01 1.4000E-02
 8.3300E-01 1.6500E-01 2.5000E-02
 8.5200E-01 1.1500E-01 2.0000E-02
 8.7400E-01 1.4600E-01 2.4000E-02
 8.8500E-01 2.0100E-01 2.5000E-02
 8.9500E-01 1.8300E-01 2.1000E-02
 9.0700E-01 1.3700E-01 2.3000E-02
 9.1800E-01 1.9300E-01 2.4000E-02
 9.2900E-01 1.9800E-01 2.4000E-02
 9.4000E-01 1.9300E-01 2.4000E-02
 9.5200E-01 2.0400E-01 1.9000E-02
 9.6000E-01 1.4800E-01 1.5000E-02
 9.6400E-01 1.7700E-01 2.2000E-02
 9.6700E-01 1.6000E-01 1.5000E-02
ENDDATA             51
ENDSUBENT           74
SUBENT        20306003     831122              20050926       0000
BIB                  6         14
REACTION   (55-CS-133(N,INL)55-CS-133,PAR,SIG)
            EXCITATION FUNCTION OF LEVELS.
MONITOR    .ABSOLUTE EFFICIENCY OF GAMMA DETECTION WAS
            OBTAINED BY USING SEVERAL CALIBRATED SOURCES (HG-203,
            CR-51, AU-198, CS-137, NA-22 AND CO-60),
           .ABSOLUTE VALUE OF NEUTRON FLUX WAS MEASURED BY LONG
            COUNTER WHICH WAS CALIBRATED WITH A STANDARD SOURCE OF
            50 MILLI-CURIE RA-BE.
PART-DET   (G    )    GAMMAS.
STATUS     .DATA FROM KIKUCHI 11/02/72,(FIG.7).
HISTORY    (720217C)
           (740626E)
ERR-ANALYS  ERRORS OF CROSS SECTIONS ARE TOTAL ERRORS, NEUTRON
            FLUX WAS OBTAINED WITH THE ERROR OF 5 PERCENT.
ENDBIB              14
COMMON               1          3
E-LVL
MEV
 7.6800E-01
ENDCOMMON            3
DATA                 3         39
EN         DATA       DATA-ERR
MEV        B          B
 6.7800E-01 9.0000E-03 1.6000E-02
 6.8200E-01 5.0000E-03 6.0000E-03
 6.8500E-01 1.3000E-02 1.9000E-02
 6.9300E-01 3.0000E-03 1.7000E-02
 6.9500E-01-2.0000E-03 6.0000E-03
 7.0400E-01-1.0000E-02 1.7000E-02
 7.0900E-01-2.0000E-03 6.0000E-03
 7.1500E-01-3.0000E-03 1.7000E-02
 7.1900E-01-3.0000E-03 1.4000E-02
 7.3000E-01 4.0000E-03 6.0000E-03
 7.3500E-01 2.1000E-02 1.4000E-02
 7.3800E-01 1.0000E-02 8.0000E-03
 7.4700E-01 1.5000E-02 6.0000E-03
 7.5000E-01-4.0000E-03 1.7000E-02
 7.5800E-01 1.6000E-02 7.0000E-03
 7.5900E-01 1.8000E-02 1.5000E-02
 7.6400E-01 8.0000E-03 6.0000E-03
 7.7000E-01 2.1000E-02 1.3000E-02
 7.7500E-01 1.4000E-02 9.0000E-03
 7.8200E-01 2.0000E-02 1.3000E-02
 7.8500E-01 2.3000E-02 7.0000E-03
 7.8600E-01 2.1000E-02 1.8000E-02
 8.0300E-01 3.2000E-02 1.5000E-02
 8.1700E-01 5.4000E-02 1.5000E-02
 8.2700E-01 6.1000E-02 1.1000E-02
 8.2800E-01 7.2000E-02 1.1000E-02
 8.3300E-01 3.1000E-02 1.8000E-02
 8.5200E-01 7.8000E-02 1.6000E-02
 8.7400E-01 9.4000E-02 1.8000E-02
 8.8500E-01 6.2000E-02 1.7000E-02
 8.9500E-01 5.8000E-02 1.4000E-02
 9.0700E-01 8.6000E-02 1.8000E-02
 9.1800E-01 8.2000E-02 1.7000E-02
 9.2900E-01 9.0000E-02 1.7000E-02
 9.4000E-01 1.1700E-01 1.8000E-02
 9.5200E-01 1.0200E-01 1.3000E-02
 9.6000E-01 9.0000E-02 1.2000E-02
 9.6400E-01 9.8000E-02 1.6000E-02
 9.6700E-01 9.8000E-02 1.3000E-02
ENDDATA             41
ENDSUBENT           64
SUBENT        20306004     831122              20050926       0000
BIB                  6         14
REACTION   (55-CS-133(N,INL)55-CS-133,PAR,SIG)
            EXCITATION FUNCTION OF LEVELS.
MONITOR    .ABSOLUTE EFFICIENCY OF GAMMA DETECTION WAS
            OBTAINED BY USING SEVERAL CALIBRATED SOURCES (HG-203,
            CR-51, AU-198, CS-137, NA-22 AND CO-60),
           .ABSOLUTE VALUE OF NEUTRON FLUX WAS MEASURED BY LONG
            COUNTER WHICH WAS CALIBRATED WITH A STANDARD SOURCE OF
            50 MILLI-CURIE RA-BE.
PART-DET   (G    )    GAMMAS.
STATUS     .DATA FROM KIKUCHI 11/02/72,(FIG.7).
HISTORY    (720217C)
           (740626E)
ERR-ANALYS  ERRORS OF CROSS SECTIONS ARE TOTAL ERRORS, NEUTRON
            FLUX WAS OBTAINED WITH THE ERROR OF 5 PERCENT.
ENDBIB              14
COMMON               1          3
E-LVL
MEV
 8.1900E-01
ENDCOMMON            3
DATA                 3         14
EN         DATA       DATA-ERR
MEV        B          B
 7.7000E-01-6.0000E-03 2.9000E-02
 7.8200E-01-1.8000E-02 2.9000E-02
 8.0300E-01 3.2000E-02 3.1000E-02
 8.1700E-01-8.0000E-03 3.1000E-02
 8.2700E-01-4.0000E-04 2.1000E-02
 8.3300E-01 3.0000E-02 3.8000E-02
 8.5200E-01 7.2000E-02 3.6000E-02
 8.7400E-01 3.9000E-02 4.0000E-02
 8.9500E-01 6.0000E-03 3.1000E-02
 9.0700E-01 5.4000E-02 4.0000E-02
 9.1800E-01 8.6000E-02 3.8000E-02
 9.2900E-01 2.6000E-02 3.5000E-02
 9.4000E-01 6.0000E-02 3.7000E-02
 9.5200E-01 6.1000E-02 2.5000E-02
ENDDATA             16
ENDSUBENT           39
SUBENT        20306005     831122              20050926       0000
BIB                  6         14
REACTION   (55-CS-133(N,INL)55-CS-133,PAR,SIG)
            EXCITATION FUNCTION OF LEVELS.
MONITOR    .ABSOLUTE EFFICIENCY OF GAMMA DETECTION WAS
            OBTAINED BY USING SEVERAL CALIBRATED SOURCES (HG-203,
            CR-51, AU-198, CS-137, NA-22 AND CO-60),
           .ABSOLUTE VALUE OF NEUTRON FLUX WAS MEASURED BY LONG
            COUNTER WHICH WAS CALIBRATED WITH A STANDARD SOURCE OF
            50 MILLI-CURIE RA-BE.
PART-DET   (G    )    GAMMAS.
STATUS     .DATA FROM KIKUCHI 11/02/72,(FIG.7).
HISTORY    (720217C)
           (740626E)
ERR-ANALYS  ERRORS OF CROSS SECTIONS ARE TOTAL ERRORS, NEUTRON
            FLUX WAS OBTAINED WITH THE ERROR OF 5 PERCENT.
ENDBIB              14
COMMON               1          3
E-LVL
MEV
 8.7300E-01
ENDCOMMON            3
DATA                 3         13
EN         DATA       DATA-ERR
MEV        B          B
 8.0300E-01 7.0000E-03 1.9000E-02
 8.2700E-01-6.0000E-03 1.4000E-02
 8.5200E-01 8.0000E-03 2.0000E-02
 8.7400E-01 2.0000E-03 2.2000E-02
 8.8500E-01 6.0000E-03 2.0000E-02
 8.9500E-01 7.0000E-03 1.2000E-02
 9.0700E-01 3.0000E-02 4.5000E-02
 9.1800E-01 3.0000E-02 2.3000E-02
 9.2900E-01 4.6000E-02 1.8000E-02
 9.4000E-01 5.3000E-02 2.8000E-02
 9.5200E-01 4.3000E-02 2.0000E-02
 9.6000E-01 4.9000E-02 2.3000E-02
 9.6400E-01 4.2000E-02 2.3000E-02
ENDDATA             15
ENDSUBENT           38
SUBENT        20306006     831122              20050926       0000
BIB                  6         14
REACTION   (55-CS-133(N,INL)55-CS-133,PAR,SIG)
            EXCITATION FUNCTION OF LEVELS.
MONITOR    .ABSOLUTE EFFICIENCY OF GAMMA DETECTION WAS
            OBTAINED BY USING SEVERAL CALIBRATED SOURCES (HG-203,
            CR-51, AU-198, CS-137, NA-22 AND CO-60),
           .ABSOLUTE VALUE OF NEUTRON FLUX WAS MEASURED BY LONG
            COUNTER WHICH WAS CALIBRATED WITH A STANDARD SOURCE OF
            50 MILLI-CURIE RA-BE.
PART-DET   (G    )    GAMMAS.
STATUS     .DATA FROM KIKUCHI 11/02/72,(FIG.7).
HISTORY    (720217C)
           (740626E)
ERR-ANALYS  ERRORS OF CROSS SECTIONS ARE TOTAL ERRORS, NEUTRON
            FLUX WAS OBTAINED WITH THE ERROR OF 5 PERCENT.
ENDBIB              14
COMMON               2          3
E-LVL      E-LVL
MEV        MEV
 7.8700E-01 7.0600E-01
ENDCOMMON            3
DATA                 3         46
EN         DATA       DATA-ERR
MEV        B          B
 6.0500E-01 2.0000E-03 1.7000E-02
 6.0800E-01-2.0000E-02 1.9000E-02
 6.2200E-01 1.1000E-02 2.2000E-02
 6.3900E-01 2.1000E-02 2.5000E-02
 6.4100E-01 1.0000E-02 1.6000E-02
 6.5300E-01 2.0000E-02 1.5000E-02
 6.7400E-01-8.0000E-03 3.0000E-02
 6.7800E-01 4.6000E-02 2.4000E-02
 6.8200E-01 1.1000E-02 7.0000E-03
 6.8500E-01 1.3000E-02 3.0000E-02
 6.9300E-01 1.9000E-02 2.7000E-02
 6.9500E-01 2.6000E-02 8.0000E-03
 7.0400E-01 5.1000E-02 2.6000E-02
 7.0900E-01 1.2000E-02 7.0000E-03
 7.1500E-01 2.9000E-02 2.5000E-02
 7.1900E-01 3.3000E-02 9.0000E-03
 7.3000E-01 3.3000E-02 8.0000E-03
 7.3500E-01 4.8000E-02 2.1000E-02
 7.3800E-01 4.0000E-02 1.0000E-02
 7.4700E-01 4.2000E-02 9.0000E-03
 7.5000E-01 1.1100E-01 2.8000E-02
 7.5800E-01 6.8000E-02 1.0000E-02
 7.5900E-01 1.9000E-02 2.4000E-02
 7.6400E-01 6.4000E-02 9.0000E-03
 7.7000E-01 9.8000E-02 2.1000E-02
 7.7500E-01 7.4000E-02 1.2000E-02
 7.8200E-01 1.4300E-01 2.3000E-02
 7.8500E-01 7.5000E-02 1.1000E-02
 7.8600E-01 1.1500E-01 2.9000E-02
 8.0300E-01 1.2800E-01 2.5000E-02
 8.1700E-01 1.3600E-01 2.4000E-02
 8.2700E-01 1.7300E-01 1.9000E-02
 8.2800E-01 1.0300E-01 1.3000E-02
 8.3300E-01 1.5700E-01 3.1000E-02
 8.5200E-01 2.2900E-01 2.8000E-02
 8.7400E-01 1.7500E-01 2.9000E-02
 8.8500E-01 1.9800E-01 2.8000E-02
 8.9500E-01 1.6700E-01 2.2000E-02
 9.0700E-01 2.2200E-01 3.0000E-02
 9.1800E-01 1.9200E-01 2.7000E-02
 9.2900E-01 1.8200E-01 2.7000E-02
 9.4000E-01 2.5600E-01 3.0000E-02
 9.5200E-01 2.1200E-01 2.0000E-02
 9.6000E-01 1.8500E-01 1.7000E-02
 9.6400E-01 2.2800E-01 2.7000E-02
 9.6700E-01 1.5100E-01 1.5000E-02
ENDDATA             48
ENDSUBENT           71
SUBENT        20306007     831122              20050926       0000
BIB                  7         18
REACTION   (55-CS-133(N,INL)55-CS-133,PAR,SIG)
            EXCITATION FUNCTION OF LEVELS.
ANALYSIS   .641 KEV GAMMA-RAY CORRESPONDING TO GROUND STATE
            TRANSITION WAS NOT OBSERVED.  THE EXCITATION FUNCTION
            FOR 641 KEV LEVEL IS OBTAINED FROM PRODUCTION CROSS
            SECTIONS OF 480 AND 560 KEV GAMMA RAYS.
MONITOR    .ABSOLUTE EFFICIENCY OF GAMMA DETECTION WAS
            OBTAINED BY USING SEVERAL CALIBRATED SOURCES (HG-203,
            CR-51, AU-198, CS-137, NA-22 AND CO-60),
           .ABSOLUTE VALUE OF NEUTRON FLUX WAS MEASURED BY LONG
            COUNTER WHICH WAS CALIBRATED WITH A STANDARD SOURCE OF
            50 MILLI-CURIE RA-BE.
PART-DET   (G    )    GAMMAS.
STATUS     .DATA FROM KIKUCHI 11/02/72,(FIG.7).
HISTORY    (720217C)
           (740626E)
ERR-ANALYS  ERRORS OF CROSS SECTIONS ARE TOTAL ERRORS, NEUTRON
            FLUX WAS OBTAINED WITH THE ERROR OF 5 PERCENT.
ENDBIB              18
COMMON               1          3
E-LVL
MEV
 6.4100E-01
ENDCOMMON            3
DATA                 3         44
EN         DATA       DATA-ERR
MEV        B          B
 5.7900E-01-5.0000E-03 1.6000E-02
 6.0500E-01 1.4000E-02 1.3000E-02
 6.2200E-01-1.1000E-02 2.2000E-02
 6.3900E-01 8.0000E-03 1.6000E-02
 6.4100E-01 1.2000E-02 1.3000E-02
 6.5300E-01 2.6000E-02 1.7000E-02
 6.6800E-01 1.3000E-02 2.0000E-02
 6.7400E-01 8.0000E-03 2.4000E-02
 6.8200E-01 9.0000E-03 7.0000E-03
 6.9300E-01 2.8000E-02 2.2000E-02
 6.9500E-01 7.0000E-03 7.0000E-03
 7.0400E-01 1.9000E-02 2.1000E-02
 7.0900E-01 1.9000E-02 6.0000E-03
 7.1500E-01 4.0000E-02 2.1000E-02
 7.1900E-01 1.4000E-02 7.0000E-03
 7.3000E-01 2.4000E-02 7.0000E-03
 7.3500E-01 1.5000E-02 1.8000E-02
 7.3800E-01 3.1000E-02 8.0000E-03
 7.4700E-01 3.0000E-02 7.0000E-03
 7.5000E-01 4.1000E-02 2.3000E-02
 7.5800E-01 2.0000E-02 7.0000E-03
 7.5900E-01 2.8000E-02 1.9000E-02
 7.6400E-01 2.3000E-02 6.0000E-03
 7.7000E-01 2.3000E-02 1.7000E-02
 7.7500E-01 3.2000E-02 9.0000E-03
 7.8500E-01 2.3000E-02 8.0000E-03
 7.8600E-01 2.8000E-02 2.2000E-02
 8.0300E-01 4.1000E-02 1.8000E-02
 8.1700E-01 4.6000E-02 1.6000E-02
 8.2700E-01 4.3000E-02 1.1000E-02
 8.2800E-01 3.2000E-02 9.0000E-03
 8.3300E-01 4.3000E-02 1.7000E-02
 8.5200E-01 3.1000E-02 1.5000E-02
 8.7400E-01 2.7000E-02 2.2000E-02
 8.8500E-01 4.5000E-02 2.0000E-02
 8.9500E-01 2.8000E-02 1.6000E-02
 9.0700E-01 5.3000E-02 2.1000E-02
 9.1800E-01 3.8000E-02 2.0000E-02
 9.2900E-01 6.5000E-02 2.0000E-02
 9.4000E-01 3.7000E-02 2.0000E-02
 9.5200E-01 6.2000E-02 1.4000E-02
 9.6000E-01 4.6000E-02 1.0000E-02
 9.6400E-01 8.4000E-02 1.9000E-02
 9.6700E-01 5.7000E-02 1.0000E-02
ENDDATA             46
ENDSUBENT           73
SUBENT        20306008     831122              20050926       0000
BIB                  5          7
REACTION   (55-CS-133(N,INL)55-CS-133,,SPC,,REL)
            INTENSITY OF THE  633 KEV LINE TAKEN EQUAL TO 100.
PART-DET   (G    )    GAMMAS.
STATUS     .FROM TABLE 2 OF NUCL.PHYS.A171(1971)480.
HISTORY    (720217C)
           (740626E)
ERR-ANALYS  NOT GIVEN.
ENDBIB               7
COMMON               2          3
EN         COS
MEV        NO-DIM
 1.1600E+00 0.0000E+00
ENDCOMMON            3
DATA                 3         20
E          E-RSL      DATA
MEV        MEV        ARB-UNITS
 3.6590E-01 1.2000E-03 1.1000E+01
 4.8040E-01 1.4000E-03 1.6000E+01
 5.5990E-01 1.2000E-03 2.6000E+01
 6.0520E-01 1.9000E-03 1.6000E+01
 6.2540E-01 1.3000E-03 7.2000E+01
 6.3300E-01 1.0000E-03 1.0000E+02
 6.5820E-01 2.3000E-03 1.0000E+01
 7.0580E-01 1.3000E-03 7.5000E+01
 7.2750E-01 2.0000E-03 1.5000E+01
 7.3870E-01 2.0000E-03 1.0000E+01
 7.5540E-01 2.2000E-03 1.4000E+01
 7.6820E-01 1.3000E-03 6.4000E+01
 7.8780E-01 2.0000E-03 6.0000E+00
 8.1890E-01 1.4000E-03 1.7000E+01
 8.3690E-01 1.8000E-03 5.0000E+00
 8.6110E-01 2.2000E-03 9.0000E+00
 8.7270E-01 1.7000E-03 3.6000E+01
 9.1720E-01 1.5000E-03 1.5000E+01
 9.2880E-01 2.4000E-03 7.0000E+00
 9.4320E-01 2.5000E-03 6.0000E+00
ENDDATA             22
ENDSUBENT           38
SUBENT        20306009     831122              20050926       0000
BIB                  6         13
REACTION   (55-CS-133(N,INL)55-CS-133,PAR,DA,G)
            AT 90 DEG ONLY.
MONITOR    .ABSOLUTE EFFICIENCY OF GAMMA DETECTION WAS
            OBTAINED BY USING SEVERAL CALIBRATED SOURCES (HG-203,
            CR-51, AU-198, CS-137, NA-22 AND CO-60),
           .ABSOLUTE VALUE OF NEUTRON FLUX WAS MEASURED BY LONG
            COUNTER WHICH WAS CALIBRATED WITH A STANDARD SOURCE OF
            50 MILLI-CURIE RA-BE.
PART-DET   (G    )    GAMMAS.
STATUS     .DATA FROM KIKUCHI 11/02/72,(FIG.4).
HISTORY    (720217C)
           (740626E)
ERR-ANALYS  TOTAL ERRORS.  10 TO 30 PERCENT FOR MOST CASES.
ENDBIB              13
COMMON               3          3
E          E-RSL      COS
MEV        MEV        NO-DIM
 4.8040E-01 1.4000E-03 0.0000E+00
ENDCOMMON            3
DATA                 3         46
EN         DATA       DATA-ERR
MEV        MB/SR      MB/SR
 5.7900E-01-8.0000E-01 8.0000E-01
 5.8600E-01-2.0000E-01 1.1000E+00
 6.0500E-01 5.0000E-01 2.0000E-01
 6.2200E-01-2.3000E+00 1.2000E+00
 6.3900E-01 1.0000E-01 1.1000E+00
 6.4100E-01 5.0000E-01 3.0000E-01
 6.5300E-01 5.0000E-01 9.0000E-01
 6.6800E-01 5.0000E-01 1.1000E+00
 6.7400E-01 1.2000E+00 1.3000E+00
 6.8200E-01 4.0000E-01 3.0000E-01
 6.8500E-01 9.0000E-01 1.2000E+00
 6.9300E-01 1.0000E+00 1.2000E+00
 6.9500E-01 5.0000E-01 4.0000E-01
 7.0400E-01 5.0000E-01 4.0000E-01
 7.0900E-01 4.0000E-01 3.0000E-01
 7.1500E-01 4.0000E-01 1.1000E+00
 7.1900E-01 4.0000E-01 4.0000E-01
 7.3000E-01 9.0000E-01 4.0000E-01
 7.3500E-01 2.0000E-01 9.0000E-01
 7.3800E-01 1.5000E+00 4.0000E-01
 7.4700E-01 1.2000E+00 4.0000E-01
 7.5000E-01 1.2000E+00 1.2000E+00
 7.5800E-01 5.0000E-01 4.0000E-01
 7.5900E-01 1.6000E+00 1.0000E+00
 7.6400E-01 7.0000E-01 3.0000E-01
 7.7000E-01 9.0000E-01 9.0000E-01
 7.7500E-01 1.0000E+00 5.0000E-01
 7.8500E-01 1.3000E+00 4.0000E-01
 7.8600E-01 1.1000E+00 1.2000E+00
 8.0300E-01 2.0000E+00 1.0000E+00
 8.1700E-01 1.8000E+00 6.0000E-01
 8.2700E-01 1.6000E+00 4.0000E-01
 8.2800E-01 1.3000E+00 5.0000E-01
 8.3300E-01 1.0000E+00 5.0000E-01
 8.5200E-01 1.2000E+00 4.0000E-01
 8.7400E-01 1.0000E+00 1.2000E+00
 8.8500E-01 2.3000E+00 1.1000E+00
 8.9500E-01 1.7000E+00 9.0000E-01
 9.0700E-01 2.2000E+00 1.2000E+00
 9.1800E-01 8.0000E-01 1.1000E+00
 9.2900E-01 3.1000E+00 1.1000E+00
 9.4000E-01 2.0000E+00 1.1000E+00
 9.5200E-01 3.4000E+00 7.0000E-01
 9.6000E-01 2.3000E+00 1.0000E+00
 9.6400E-01 3.6000E+00 1.0000E+00
 9.6700E-01 2.0000E+00 5.0000E-01
ENDDATA             48
ENDSUBENT           70
SUBENT        20306010     831122              20050926       0000
BIB                  6         13
REACTION   (55-CS-133(N,INL)55-CS-133,PAR,DA,G)
            AT 90 DEG ONLY.
MONITOR    .ABSOLUTE EFFICIENCY OF GAMMA DETECTION WAS
            OBTAINED BY USING SEVERAL CALIBRATED SOURCES (HG-203,
            CR-51, AU-198, CS-137, NA-22 AND CO-60),
           .ABSOLUTE VALUE OF NEUTRON FLUX WAS MEASURED BY LONG
            COUNTER WHICH WAS CALIBRATED WITH A STANDARD SOURCE OF
            50 MILLI-CURIE RA-BE.
PART-DET   (G    )    GAMMAS.
STATUS     .DATA FROM KIKUCHI 11/02/72,(FIG.4).
HISTORY    (720217C)
           (740626E)
ERR-ANALYS  TOTAL ERRORS.  10 TO 30 PERCENT FOR MOST CASES.
ENDBIB              13
COMMON               3          3
E          E-RSL      COS
MEV        MEV        NO-DIM
 5.5990E-01 1.2000E-03 0.0000E+00
ENDCOMMON            3
DATA                 3         45
EN         DATA       DATA-ERR
MEV        MB/SR      MB/SR
 5.4900E-01-7.0000E-01 1.3000E+00
 5.6700E-01-1.6000E+00 1.0000E+00
 5.7900E-01 4.0000E-01 9.0000E-01
 6.0500E-01 6.0000E-01 1.0000E+00
 6.2200E-01 1.0000E-01 1.3000E+00
 6.3900E-01 5.0000E-01 1.3000E+00
 6.4100E-01 5.0000E-01 9.0000E-01
 6.5300E-01 5.0000E-01 9.0000E-01
 6.6800E-01 5.0000E-01 1.1000E+00
 6.7400E-01-7.0000E-01 1.3000E+00
 6.8200E-01 3.0000E-01 4.0000E-01
 6.8600E-01 9.0000E-01 1.2000E+00
 6.9300E-01 1.1000E+00 1.2000E+00
 6.9500E-01 5.0000E-01 4.0000E-01
 7.0400E-01 5.0000E-01 4.0000E-01
 7.0900E-01 1.1000E+00 4.0000E-01
 7.1900E-01 7.0000E-01 4.0000E-01
 7.3000E-01 1.1000E+00 4.0000E-01
 7.3500E-01 1.0000E+00 1.0000E+00
 7.3800E-01 9.0000E-01 5.0000E-01
 7.4700E-01 1.2000E+00 4.0000E-01
 7.5000E-01 2.0000E+00 1.3000E+00
 7.5800E-01 1.1000E+00 4.0000E-01
 7.5900E-01 5.0000E-01 1.1000E+00
 7.7000E-01 9.0000E-01 4.0000E+00
 7.7500E-01 1.5000E+00 5.0000E-01
 7.8500E-01 1.5000E+00 4.0000E-01
 7.8600E-01 1.1000E+00 1.3000E+00
 8.0300E-01 1.2000E+00 1.0000E+00
 8.1700E-01 1.9000E+00 1.1000E+00
 8.2700E-01 1.7000E+00 7.0000E-01
 8.2800E-01 1.2000E+00 5.0000E-01
 8.3300E-01 2.4000E+00 1.3000E+00
 8.5200E-01 1.2000E+00 1.1000E+00
 8.7400E-01 1.1000E+00 1.3000E+00
 8.8500E-01 1.3000E+00 1.2000E+00
 8.9500E-01 5.0000E-01 9.0000E-01
 9.0700E-01 2.0000E+00 1.2000E+00
 9.1800E-01 2.2000E+00 1.2000E+00
 9.2900E-01 2.0000E+00 1.1000E+00
 9.4000E-01 2.1000E+00 1.1000E+00
 9.5200E-01 2.5000E+00 1.1000E+00
 9.6000E-01 2.4000E+00 6.0000E-01
 9.6400E-01 3.0000E+00 1.1000E+00
 9.6700E-01 2.5000E+00 6.0000E-01
ENDDATA             47
ENDSUBENT           69
SUBENT        20306011     831122              20050926       0000
BIB                  6         13
REACTION   (55-CS-133(N,INL)55-CS-133,PAR,DA,G)
            AT 90 DEG ONLY.
MONITOR    .ABSOLUTE EFFICIENCY OF GAMMA DETECTION WAS
            OBTAINED BY USING SEVERAL CALIBRATED SOURCES (HG-203,
            CR-51, AU-198, CS-137, NA-22 AND CO-60),
           .ABSOLUTE VALUE OF NEUTRON FLUX WAS MEASURED BY LONG
            COUNTER WHICH WAS CALIBRATED WITH A STANDARD SOURCE OF
            50 MILLI-CURIE RA-BE.
PART-DET   (G    )    GAMMAS.
STATUS     .DATA FROM KIKUCHI 11/02/72,(FIG.4).
HISTORY    (720217C)
           (740626E)
ERR-ANALYS  TOTAL ERRORS.  10 TO 30 PERCENT FOR MOST CASES.
ENDBIB              13
COMMON               3          3
E          E-RSL      COS
MEV        MEV        NO-DIM
 6.0520E-01 1.9000E-03 0.0000E+00
ENDCOMMON            3
DATA                 3         41
EN         DATA       DATA-ERR
MEV        MB/SR      MB/SR
 5.4900E-01 7.0000E-01 1.4000E+00
 5.6700E-01-1.1000E+00 1.0000E+00
 5.7900E-01 4.0000E-02 1.0000E+00
 6.0500E-01 5.0000E-01 1.0000E+00
 6.2200E-01-7.0000E-01 1.1000E+00
 6.3900E-01 1.3000E+00 1.2000E+00
 6.4100E-01 7.0000E-01 9.0000E-01
 6.5300E-01 1.0000E-01 9.0000E-01
 6.6800E-01 1.3000E+00 1.1000E+00
 6.7800E-01 2.0000E-01 1.0000E+00
 6.8200E-01 1.0000E-01 4.0000E-01
 6.8500E-01 2.0000E-01 1.3000E+00
 6.9300E-01 7.0000E-01 1.2000E+00
 7.0400E-01 8.0000E-01 1.0000E+00
 7.0900E-01 1.0000E-01 4.0000E-01
 7.1900E-01 4.0000E-01 4.0000E-01
 7.3000E-01 5.0000E-01 4.0000E-01
 7.3500E-01 1.3000E+00 1.1000E+00
 7.3800E-01 3.0000E-01 5.0000E-01
 7.4700E-01 7.0000E-01 4.0000E-01
 7.5800E-01 5.0000E-01 5.0000E-01
 7.7000E-01 3.0000E-01 1.0000E+00
 7.7500E-01 3.0000E-01 6.0000E-01
 7.8200E-01 3.0000E-01 1.1000E+00
 7.8500E-01 1.8000E+00 5.0000E-01
 7.8600E-01 2.6000E+00 1.4000E+00
 8.0300E-01 1.0000E+00 1.3000E+00
 8.1700E-01 8.0000E-01 1.2000E+00
 8.2700E-01 7.0000E-01 8.0000E-01
 8.3300E-01 1.6000E+00 1.5000E+00
 8.5200E-01 1.2000E+00 1.3000E+00
 8.7400E-01 1.3000E+00 1.4000E+00
 8.8500E-01 2.3000E+00 1.3000E+00
 8.9500E-01 1.7000E+00 1.1000E+00
 9.0700E-01 7.0000E-01 1.4000E+00
 9.1800E-01 2.7000E+00 1.3000E+00
 9.2900E-01 2.3000E+00 1.3000E+00
 9.4000E-01 2.0000E+00 1.3000E+00
 9.5200E-01 1.5000E+00 8.0000E-01
 9.6000E-01 1.8000E+00 6.0000E-01
 9.6400E-01 1.4000E+00 1.3000E+00
ENDDATA             43
ENDSUBENT           65
SUBENT        20306012     831122              20050926       0000
BIB                  6         13
REACTION   (55-CS-133(N,INL)55-CS-133,PAR,DA,G)
            AT 90 DEG ONLY.
MONITOR    .ABSOLUTE EFFICIENCY OF GAMMA DETECTION WAS
            OBTAINED BY USING SEVERAL CALIBRATED SOURCES (HG-203,
            CR-51, AU-198, CS-137, NA-22 AND CO-60),
           .ABSOLUTE VALUE OF NEUTRON FLUX WAS MEASURED BY LONG
            COUNTER WHICH WAS CALIBRATED WITH A STANDARD SOURCE OF
            50 MILLI-CURIE RA-BE.
PART-DET   (G    )    GAMMAS.
STATUS     .DATA FROM KIKUCHI 11/02/72,(FIG.4).
HISTORY    (720217C)
           (740626E)
ERR-ANALYS  TOTAL ERRORS.  10 TO 30 PERCENT FOR MOST CASES.
ENDBIB              13
COMMON               3          3
E          E-RSL      COS
MEV        MEV        NO-DIM
 6.2540E-01 1.3000E-03 0.0000E+00
ENDCOMMON            3
DATA                 3         39
EN         DATA       DATA-ERR
MEV        MB/SR      MB/SR
 6.7400E-01 2.0000E-01 1.4000E+00
 6.7800E-01 2.0000E+00 1.1000E+00
 6.8200E-01 5.0000E-01 4.0000E-01
 6.8500E-01 1.3000E+00 1.3000E+00
 6.9300E-01 1.2000E+00 1.3000E+00
 6.9500E-01 1.5000E+00 5.0000E-01
 7.0400E-01 1.3000E+00 1.2000E+00
 7.0900E-01 5.0000E-01 4.0000E-01
 7.1500E-01 5.0000E-01 1.3000E+00
 7.1900E-01 1.8000E+00 5.0000E-01
 7.3000E-01 1.4000E+00 5.0000E-01
 7.3500E-01 1.2000E+00 1.1000E+00
 7.3800E-01 2.6000E+00 6.0000E-01
 7.4700E-01 2.2000E+00 5.0000E-01
 7.5000E-01 5.0000E+00 1.5000E+00
 7.5800E-01 3.5000E+00 6.0000E-01
 7.6400E-01 3.7000E+00 6.0000E-01
 7.7000E-01 5.4000E+00 1.1000E+00
 7.7500E-01 4.7000E+00 7.0000E-01
 7.8200E-01 5.7000E+00 1.2000E+00
 7.8500E-01 4.4000E+00 6.0000E-01
 7.8600E-01 7.8000E+00 1.6000E+00
 8.0300E-01 6.6000E+00 1.4000E+00
 8.1700E-01 7.2000E+00 1.4000E+00
 8.2700E-01 1.1300E+01 1.2000E+00
 8.2800E-01 5.4000E+00 8.0000E-01
 8.3300E-01 9.9000E+00 1.7000E+00
 8.5200E-01 1.1000E+01 1.6000E+00
 8.7400E-01 1.0200E+01 1.7000E+00
 8.8500E-01 1.0500E+01 1.7000E+00
 8.9500E-01 7.2000E+00 1.3000E+00
 9.0700E-01 1.3700E+01 1.8000E+00
 9.1800E-01 9.2000E+00 1.6000E+00
 9.2900E-01 7.4000E+00 1.6000E+00
 9.4000E-01 1.1600E+01 1.7000E+00
 9.5200E-01 1.0500E+01 1.2000E+00
 9.6000E-01 8.3000E+00 9.0000E-01
 9.6400E-01 1.1000E+01 1.6000E+00
 9.6700E-01 7.9000E+00 9.0000E-01
ENDDATA             41
ENDSUBENT           63
SUBENT        20306013     831122              20050926       0000
BIB                  6         13
REACTION   (55-CS-133(N,INL)55-CS-133,PAR,DA,G)
            AT 90 DEG ONLY.
MONITOR    .ABSOLUTE EFFICIENCY OF GAMMA DETECTION WAS
            OBTAINED BY USING SEVERAL CALIBRATED SOURCES (HG-203,
            CR-51, AU-198, CS-137, NA-22 AND CO-60),
           .ABSOLUTE VALUE OF NEUTRON FLUX WAS MEASURED BY LONG
            COUNTER WHICH WAS CALIBRATED WITH A STANDARD SOURCE OF
            50 MILLI-CURIE RA-BE.
PART-DET   (G    )    GAMMAS.
STATUS     .DATA FROM KIKUCHI 11/02/72,(FIG.4).
HISTORY    (720217C)
           (740626E)
ERR-ANALYS  TOTAL ERRORS.  10 TO 30 PERCENT FOR MOST CASES.
ENDBIB              13
COMMON               3          3
E          E-RSL      COS
MEV        MEV        NO-DIM
 6.3300E-01 1.0000E-03 0.0000E+00
ENDCOMMON            3
DATA                 3         49
EN         DATA       DATA-ERR
MEV        MB/SR      MB/SR
 5.4900E-01-3.0000E-01 1.1000E+00
 5.6700E-01 7.0000E-01 9.0000E-01
 5.7900E-01-1.2000E+00 9.0000E-01
 5.8600E-01-2.2000E+00 1.1000E+00
 6.0500E-01 1.8000E+00 9.0000E-01
 6.2200E-01 1.0000E-01 1.2000E+00
 6.3900E-01 4.7000E+00 1.2000E+00
 6.4100E-01 2.2000E+00 1.0000E+00
 6.5300E-01 3.1000E+00 9.0000E-01
 6.6800E-01 3.7000E+00 1.1000E+00
 6.7400E-01 5.0000E+00 1.5000E+00
 6.7800E-01 4.1000E+00 1.1000E+00
 6.8200E-01 4.9000E+00 6.0000E-01
 6.9300E-01 5.0000E+00 1.3000E+00
 6.9500E-01 4.2000E+00 5.0000E-01
 7.0400E-01 5.3000E+00 1.2000E+00
 7.0900E-01 5.5000E+00 6.0000E-01
 7.1500E-01 7.1000E+00 1.4000E+00
 7.1900E-01 6.8000E+00 7.0000E-01
 7.3000E-01 7.2000E+00 7.0000E-01
 7.3500E-01 9.2000E+00 1.3000E+00
 7.3800E-01 6.9000E+00 8.0000E-01
 7.4700E-01 7.3000E+00 7.0000E-01
 7.5000E-01 6.8000E+00 1.5000E+00
 7.5800E-01 7.6000E+00 8.0000E-01
 7.5900E-01 8.6000E+00 1.3000E+00
 7.6400E-01 8.3000E+00 8.0000E-01
 7.7000E-01 7.1000E+00 1.2000E+00
 7.7500E-01 8.5000E+00 9.0000E-01
 7.8200E-01 1.0000E+01 1.4000E+00
 7.8500E-01 8.5000E+00 8.0000E-01
 7.8600E-01 9.3000E+00 1.6000E+00
 8.0300E-01 1.0300E+01 1.5000E+00
 8.1700E-01 9.9000E+00 1.5000E+00
 8.2700E-01 7.8000E+00 1.0000E+00
 8.2800E-01 9.9000E+00 1.0000E+00
 8.3300E-01 1.1700E+01 1.8000E+00
 8.5200E-01 8.2000E+00 1.4000E+00
 8.7400E-01 1.0500E+01 1.7000E+00
 8.8500E-01 1.4400E+01 1.8000E+00
 8.9500E-01 1.3100E+01 1.5000E+00
 9.0700E-01 9.8000E+00 1.6000E+00
 9.1800E-01 1.3900E+01 1.7000E+00
 9.2900E-01 1.4200E+01 1.8000E+00
 9.4000E-01 1.3800E+01 1.7000E+00
 9.5200E-01 1.3800E+01 1.7000E+00
 9.6000E-01 1.0700E+01 1.1000E+00
 9.6400E-01 1.2700E+01 1.6000E+00
 9.6700E-01 1.1500E+01 1.1000E+00
ENDDATA             51
ENDSUBENT           73
SUBENT        20306014     831122              20050926       0000
BIB                  6         13
REACTION   (55-CS-133(N,INL)55-CS-133,PAR,DA,G)
            AT 90 DEG ONLY.
MONITOR    .ABSOLUTE EFFICIENCY OF GAMMA DETECTION WAS
            OBTAINED BY USING SEVERAL CALIBRATED SOURCES (HG-203,
            CR-51, AU-198, CS-137, NA-22 AND CO-60),
           .ABSOLUTE VALUE OF NEUTRON FLUX WAS MEASURED BY LONG
            COUNTER WHICH WAS CALIBRATED WITH A STANDARD SOURCE OF
            50 MILLI-CURIE RA-BE.
PART-DET   (G    )    GAMMAS.
STATUS     .DATA FROM KIKUCHI 11/02/72,(FIG.4).
HISTORY    (720217C)
           (740626E)
ERR-ANALYS  TOTAL ERRORS.  10 TO 30 PERCENT FOR MOST CASES.
ENDBIB              13
COMMON               3          3
E          E-RSL      COS
MEV        MEV        NO-DIM
 7.0580E-01 1.3000E-03 0.0000E+00
ENDCOMMON            3
DATA                 3         46
EN         DATA       DATA-ERR
MEV        MB/SR      MB/SR
 6.0500E-01 1.0000E-01 1.3000E+00
 6.2200E-01 8.0000E-01 1.7000E+00
 6.3900E-01 1.6000E+00 2.0000E+00
 6.4100E-01 8.0000E-01 1.3000E+00
 6.5300E-01 1.6000E+00 1.2000E+00
 6.6800E-01-1.5000E+00 1.5000E+00
 6.7400E-01-9.0000E-01 1.9000E+00
 6.7800E-01 1.6000E+00 1.5000E+00
 6.8200E-01 1.6000E+00
 6.8500E-01-3.0000E-01 1.9000E+00
 6.9300E-01 3.0000E-01 1.7000E+00
 6.9500E-01 5.0000E-01 5.0000E-01
 7.0400E-01 2.7000E+00 1.7000E+00
 7.0900E-01 5.0000E-01 4.0000E-01
 7.1500E-01 1.8000E+00 1.5000E+00
 7.1900E-01 8.0000E-01 5.0000E-01
 7.3000E-01 1.2000E+00 4.0000E-01
 7.3500E-01 2.6000E+00 1.3000E+00
 7.3800E-01 6.0000E-01 5.0000E-01
 7.4700E-01 1.1000E+00 4.0000E-01
 7.5000E-01 3.8000E+00 1.6000E+00
 7.5800E-01 1.9000E+00 4.0000E-01
 7.5900E-01 1.2000E+00 1.4000E+00
 7.6400E-01 1.4000E+00 4.0000E-01
 7.7000E-01 2.4000E+00 1.3000E+00
 7.7500E-01 1.1000E+00 6.0000E-01
 7.8200E-01 5.6000E+00 1.3000E+00
 7.8500E-01 1.8000E+00 5.0000E-01
 7.8600E-01 1.3000E+00 1.7000E+00
 8.0300E-01 3.5000E+00 1.4000E+00
 8.1700E-01 3.6000E+00 1.3000E+00
 8.2700E-01 2.5000E+00 9.0000E-01
 8.2800E-01 2.8000E+00 7.0000E-01
 8.3300E-01 2.4000E+00 1.7000E+00
 8.5200E-01 7.1000E+00 1.5000E+00
 8.7400E-01 3.6000E+00 1.5000E+00
 8.8500E-01 5.2000E+00 1.5000E+00
 8.9500E-01 6.0000E+00 1.2000E+00
 9.0700E-01 3.8000E+00 1.5000E+00
 9.1800E-01 5.9000E+00 1.4000E+00
 9.2900E-01 6.9000E+00 1.4000E+00
 9.4000E-01 8.7000E+00 1.6000E+00
 9.5200E-01 6.3000E+00 1.1000E+00
 9.6000E-01 6.3000E+00 9.0000E-01
 9.6400E-01 7.0000E+00 1.5000E+00
 9.6700E-01 4.1000E+00 8.0000E-01
ENDDATA             48
ENDSUBENT           70
SUBENT        20306015     831122              20050926       0000
BIB                  6         13
REACTION   (55-CS-133(N,INL)55-CS-133,PAR,DA,G)
            AT 90 DEG ONLY.
MONITOR    .ABSOLUTE EFFICIENCY OF GAMMA DETECTION WAS
            OBTAINED BY USING SEVERAL CALIBRATED SOURCES (HG-203,
            CR-51, AU-198, CS-137, NA-22 AND CO-60),
           .ABSOLUTE VALUE OF NEUTRON FLUX WAS MEASURED BY LONG
            COUNTER WHICH WAS CALIBRATED WITH A STANDARD SOURCE OF
            50 MILLI-CURIE RA-BE.
PART-DET   (G    )    GAMMAS.
STATUS     .DATA FROM KIKUCHI 11/02/72,(FIG.4).
HISTORY    (720217C)
           (740626E)
ERR-ANALYS  TOTAL ERRORS.  10 TO 30 PERCENT FOR MOST CASES.
ENDBIB              13
COMMON               3          3
E          E-RSL      COS
MEV        MEV        NO-DIM
 7.6820E-01 1.3000E-03 0.0000E+00
ENDCOMMON            3
DATA                 3         39
EN         DATA       DATA-ERR
MEV        MB/SR      MB/SR
 6.7800E-01 7.0000E-01 1.2000E+00
 6.8200E-01-4.0000E-01 5.0000E-01
 6.8500E-01 1.1000E+00 1.5000E+00
 6.9300E-01 2.0000E-01 1.4000E+00
 6.9500E-01-2.0000E-01 5.0000E-01
 7.0400E-01-8.0000E-01 1.3000E+00
 7.0900E-01-2.0000E-01 5.0000E-01
 7.1500E-01-3.0000E-01 1.3000E+00
 7.1900E-01-3.0000E-01 1.9000E+00
 7.3000E-01 4.0000E-01 5.0000E-01
 7.3500E-01 1.7000E+00 1.1000E+00
 7.3800E-01 8.0000E-01 6.0000E-01
 7.4700E-01 1.2000E+00 5.0000E-01
 7.5000E-01-3.0000E-01 1.4000E+00
 7.5800E-01 1.2000E+00 5.0000E-01
 7.5900E-01 1.5000E+00 1.2000E+00
 7.6400E-01 7.0000E-01 5.0000E-01
 7.7000E-01 1.7000E+00 1.0000E+00
 7.7500E-01 1.1000E+00 7.0000E-01
 7.8200E-01 1.6000E+00 1.0000E+00
 7.8500E-01 1.8000E+00 6.0000E-01
 7.8600E-01 1.7000E+00 1.4000E+00
 8.0300E-01 2.6000E+00 1.2000E+00
 8.1700E-01 4.3000E+00 1.2000E+00
 8.2700E-01 4.8000E+00 9.0000E-01
 8.2800E-01 5.7000E+00 9.0000E-01
 8.3300E-01 2.4000E+00 1.4000E+00
 8.5200E-01 6.2000E+00 1.3000E+00
 8.7400E-01 7.5000E+00 1.5000E+00
 8.8500E-01 4.9000E+00 1.3000E+00
 8.9500E-01 4.6000E+00 1.1000E+00
 9.0700E-01 6.8000E+00 1.4000E+00
 9.1800E-01 6.5000E+00 1.4000E+00
 9.2900E-01 7.1000E+00 1.3000E+00
 9.4000E-01 9.3000E+00 1.4000E+00
 9.5200E-01 8.1000E+00 1.0000E+00
 9.6000E-01 7.1000E+00 1.0000E+00
 9.6400E-01 7.8000E+00 1.3000E+00
 9.6700E-01 7.8000E+00 1.0000E+00
ENDDATA             41
ENDSUBENT           63
SUBENT        20306016     831122              20050926       0000
BIB                  6         13
REACTION   (55-CS-133(N,INL)55-CS-133,PAR,DA,G)
            AT 90 DEG ONLY.
MONITOR    .ABSOLUTE EFFICIENCY OF GAMMA DETECTION WAS
            OBTAINED BY USING SEVERAL CALIBRATED SOURCES (HG-203,
            CR-51, AU-198, CS-137, NA-22 AND CO-60),
           .ABSOLUTE VALUE OF NEUTRON FLUX WAS MEASURED BY LONG
            COUNTER WHICH WAS CALIBRATED WITH A STANDARD SOURCE OF
            50 MILLI-CURIE RA-BE.
PART-DET   (G    )    GAMMAS.
STATUS     .DATA FROM KIKUCHI 11/02/72,(FIG.4).
HISTORY    (720217C)
           (740626E)
ERR-ANALYS  TOTAL ERRORS.  10 TO 30 PERCENT FOR MOST CASES.
ENDBIB              13
COMMON               3          3
E          E-RSL      COS
MEV        MEV        NO-DIM
 8.1890E-01 1.4000E-03 0.0000E+00
ENDCOMMON            3
DATA                 3         14
EN         DATA       DATA-ERR
MEV        MB/SR      MB/SR
 7.7000E-01-2.0000E-01 1.1000E+00
 7.8200E-01-7.0000E-01 1.1000E+00
 8.0300E-01 1.2000E+00 1.1000E+00
 8.1700E-01-3.0000E-01 1.1000E+00
 8.2700E-01-1.0000E-02 8.0000E-01
 8.3300E-01 1.1000E+00 1.4000E+00
 8.5200E-01 2.6000E+00 1.3000E+00
 8.7400E-01 1.4000E+00 1.5000E+00
 8.9500E-01 2.0000E-01 1.1000E+00
 9.0700E-01 2.0000E+00 1.5000E+00
 9.1800E-01 3.2000E+00 1.4000E+00
 9.2900E-01 1.0000E+00 1.3000E+00
 9.4000E-01 2.2000E+00 1.4000E+00
 9.5200E-01 2.2000E+00 9.0000E-01
ENDDATA             16
ENDSUBENT           38
SUBENT        20306017     831122              20050926       0000
BIB                  6         13
REACTION   (55-CS-133(N,INL)55-CS-133,PAR,DA,G)
            AT 90 DEG ONLY.
MONITOR    .ABSOLUTE EFFICIENCY OF GAMMA DETECTION WAS
            OBTAINED BY USING SEVERAL CALIBRATED SOURCES (HG-203,
            CR-51, AU-198, CS-137, NA-22 AND CO-60),
           .ABSOLUTE VALUE OF NEUTRON FLUX WAS MEASURED BY LONG
            COUNTER WHICH WAS CALIBRATED WITH A STANDARD SOURCE OF
            50 MILLI-CURIE RA-BE.
PART-DET   (G    )    GAMMAS.
STATUS     .DATA FROM KIKUCHI 11/02/72,(FIG.4).
HISTORY    (720217C)
           (740626E)
ERR-ANALYS  TOTAL ERRORS.  10 TO 30 PERCENT FOR MOST CASES.
ENDBIB              13
COMMON               3          3
E          E-RSL      COS
MEV        MEV        NO-DIM
 8.7270E-01 1.7000E-03 0.0000E+00
ENDCOMMON            3
DATA                 3         13
EN         DATA       DATA-ERR
MEV        MB/SR      MB/SR
 8.0300E-01 6.0000E-01 1.5000E+00
 8.2700E-01-4.0000E-01 1.0000E+00
 8.5200E-01 7.0000E-01 1.6000E+00
 8.7400E-01 1.0000E-01 1.8000E+00
 8.8500E-01 5.0000E-01 1.5000E+00
 8.9500E-01 6.0000E-01 9.0000E-01
 9.0700E-01 2.4000E+00 3.6000E+00
 9.1800E-01 2.4000E+00 1.8000E+00
 9.2900E-01 3.7000E+00 1.4000E+00
 9.4000E-01 4.2000E+00 2.2000E+00
 9.5200E-01 3.5000E+00 1.6000E+00
 9.6000E-01 3.9000E+00 1.8000E+00
 9.6400E-01 3.3000E+00 1.8000E+00
ENDDATA             15
ENDSUBENT           37
SUBENT        20306018     831122              20050926       0000
BIB                  6          9
REACTION   (55-CS-133(N,INL)55-CS-133,PAR,DA,G,REL)
            RELATIVE VALUE NORMALIZED TO 1 AT COS(THETA) = 0.5774.
PART-DET   (G    )    GAMMAS.
COMMENT    .ASYMMETRY ON ANGULAR DISTRIBUTION IS NOT DISTINCT
            EXCEPT FOR GAMMA-RAYS OF 605 KEV AND 633 KEV.
STATUS     .DATA FROM KIKUCHI 11/02/72,(FIG.6).
HISTORY    (720217C)
           (740626E)
ERR-ANALYS  RELATIVE ERROR
ENDBIB               9
NOCOMMON             0          0
DATA                 5        149
EN         E          COS        DATA       DATA-ERR
MEV        MEV        NO-DIM     ARB-UNITS  ARB-UNITS
 8.3000E-01 6.2540E-01-5.0000E-01 1.1050E+00 9.8000E-02
 8.3000E-01 6.2540E-01 0.0000E+00 8.0900E-01 1.0500E-01
 8.3000E-01 6.2540E-01 1.7364E-01 9.4100E-01 8.9000E-02
 8.3000E-01 6.2540E-01 3.4202E-01 1.0440E+00 1.0000E-01
 8.3000E-01 6.2540E-01 5.0000E-01 9.3100E-01 9.9000E-02
 8.3000E-01 6.2540E-01 7.0710E-01 1.0390E+00 1.0300E-01
 8.3000E-01 6.2540E-01 8.6602E-01 1.0050E+00 9.6000E-02
 8.3000E-01 6.3300E-01-5.0000E-01 9.8000E-01 5.0000E-02
 8.3000E-01 6.3300E-01 0.0000E+00 8.8000E-01 6.0000E-02
 8.3000E-01 6.3300E-01 1.7364E-01 8.5000E-01 5.0000E-02
 8.3000E-01 6.3300E-01 3.4202E-01 8.7000E-01 5.0000E-02
 8.3000E-01 6.3300E-01 5.0000E-01 1.0200E+00 6.0000E-02
 8.3000E-01 6.3300E-01 7.0710E-01 1.0200E+00 6.0000E-02
 8.3000E-01 6.3300E-01 8.6602E-01 1.1500E+00 5.0000E-02
 8.3000E-01 7.0580E-01-5.0000E-01 9.2100E-01 1.7400E-01
 8.3000E-01 7.0580E-01 0.0000E+00 8.8400E-01 2.0300E-01
 8.3000E-01 7.0580E-01 1.7364E-01 9.9000E-01 1.7000E-01
 8.3000E-01 7.0580E-01 3.4202E-01 9.6900E-01 1.9300E-01
 8.3000E-01 7.0580E-01 5.0000E-01 1.0540E+00 1.9500E-01
 8.3000E-01 7.0580E-01 7.0710E-01 8.4700E-01 1.8800E-01
 8.3000E-01 7.6820E-01-5.0000E-01 7.7500E-01 1.3700E-01
 8.3000E-01 7.6820E-01 0.0000E+00 1.2530E+00 1.6500E-01
 8.3000E-01 7.6820E-01 1.7364E-01 1.1630E+00 1.4900E-01
 8.3000E-01 7.6820E-01 3.4202E-01 1.0390E+00 1.6200E-01
 8.3000E-01 7.6820E-01 5.0000E-01 1.1360E+00 1.9000E-01
 8.3000E-01 7.6820E-01 7.0710E-01 9.9900E-01 1.7100E-01
 8.3000E-01 7.6820E-01 8.6602E-01 8.0400E-01 1.5700E-01
 9.6000E-01 4.8040E-01-7.6604E-01 1.1060E+00 1.0000E-01
 9.6000E-01 4.8040E-01 0.0000E+00 1.0050E+00 1.0200E-01
 9.6000E-01 4.8040E-01 2.5882E-01 1.0720E+00 1.2300E-01
 9.6000E-01 4.8040E-01 4.2261E-01 1.0770E+00 1.1800E-01
 9.6000E-01 4.8040E-01 5.7357E-01 8.5100E-01 1.2000E-01
 9.6000E-01 4.8040E-01 7.0710E-01 1.1350E+00 9.8000E-02
 9.6000E-01 4.8040E-01 8.1915E-01 8.6300E-01 1.0400E-01
 9.6000E-01 5.5990E-01-7.6604E-01 1.1140E+00 1.2800E-01
 9.6000E-01 5.5990E-01 0.0000E+00 8.1100E-01 1.3400E-01
 9.6000E-01 5.5990E-01 2.5882E-01 1.3660E+00 1.6000E-01
 9.6000E-01 5.5990E-01 4.2261E-01 9.8000E-01 1.5200E-01
 9.6000E-01 5.5990E-01 5.7357E-01 1.0710E+00 1.5500E-01
 9.6000E-01 5.5990E-01 7.0710E-01 1.2260E+00 1.2600E-01
 9.6000E-01 5.5990E-01 8.1915E-01 1.0200E+00 1.4800E-01
 9.6000E-01 6.0520E-01-7.6604E-01 1.1400E+00 2.4000E-01
 9.6000E-01 6.0520E-01 0.0000E+00 7.3000E-01 2.4000E-01
 9.6000E-01 6.0520E-01 2.5882E-01 1.1900E+00 3.0000E-01
 9.6000E-01 6.0520E-01 4.2261E-01 7.7000E-01 2.8000E-01
 9.6000E-01 6.0520E-01 5.7357E-01 1.2200E+00 2.9000E-01
 9.6000E-01 6.0520E-01 7.0710E-01 1.1200E+00 2.4000E-01
 9.6000E-01 6.0520E-01 8.1915E-01 1.3600E+00 2.6000E-01
 9.6000E-01 6.2540E-01-7.6604E-01 1.0640E+00 4.7000E-02
 9.6000E-01 6.2540E-01 0.0000E+00 9.7200E-01 4.5000E-02
 9.6000E-01 6.2540E-01 2.5882E-01 1.0680E+00 5.6000E-02
 9.6000E-01 6.2540E-01 4.2261E-01 9.6200E-01 5.2000E-02
 9.6000E-01 6.2540E-01 5.7357E-01 9.3100E-01 5.4000E-02
 9.6000E-01 6.2540E-01 7.0710E-01 9.9000E-01 4.4000E-02
 9.6000E-01 6.2540E-01 8.1915E-01 8.7900E-01 4.7000E-02
 9.6000E-01 6.3300E-01-7.6604E-01 1.1200E+00 3.0000E-02
 9.6000E-01 6.3300E-01 0.0000E+00 8.4000E-01 3.0000E-02
 9.6000E-01 6.3300E-01 2.5882E-01 9.3000E-01 4.0000E-02
 9.6000E-01 6.3300E-01 4.2261E-01 9.0000E-01 3.0000E-02
 9.6000E-01 6.3300E-01 5.7357E-01 9.8000E-01 3.0000E-02
 9.6000E-01 6.3300E-01 7.0710E-01 1.0700E+00 3.0000E-02
 9.6000E-01 6.3300E-01 8.1915E-01 1.0500E+00 3.0000E-02
 9.6000E-01 7.0580E-01-7.6604E-01 1.0840E+00 4.9000E-02
 9.6000E-01 7.0580E-01 0.0000E+00 1.0240E+00 5.0000E-02
 9.6000E-01 7.0580E-01 2.5882E-01 1.0210E+00 6.1000E-02
 9.6000E-01 7.0580E-01 4.2261E-01 9.4700E-01 5.7000E-02
 9.6000E-01 7.0580E-01 5.7357E-01 1.0340E+00 5.6000E-02
 9.6000E-01 7.0580E-01 7.0710E-01 1.0080E+00 4.9000E-02
 9.6000E-01 7.0580E-01 8.1915E-01 1.0240E+00 5.2000E-02
 9.6000E-01 7.6820E-01-7.6604E-01 8.9600E-01 5.2000E-02
 9.6000E-01 7.6820E-01 0.0000E+00 8.7200E-01 5.3000E-02
 9.6000E-01 7.6820E-01 2.5882E-01 1.1350E+00 6.6000E-02
 9.6000E-01 7.6820E-01 4.2261E-01 1.0680E+00 6.3000E-02
 9.6000E-01 7.6820E-01 5.7357E-01 1.0080E+00 6.0000E-02
 9.6000E-01 7.6820E-01 7.0710E-01 9.3400E-01 5.1000E-02
 9.6000E-01 7.6820E-01 8.1915E-01 8.8300E-01 5.5000E-02
 9.6000E-01 8.7270E-01-7.6604E-01 1.1970E+00 1.3600E-01
 9.6000E-01 8.7270E-01 0.0000E+00 7.9600E-01 1.4300E-01
 9.6000E-01 8.7270E-01 2.5882E-01 9.3900E-01 1.7800E-01
 9.6000E-01 8.7270E-01 4.2261E-01 1.0730E+00 1.6700E-01
 9.6000E-01 8.7270E-01 5.7357E-01 8.1800E-01 1.6500E-01
 9.6000E-01 8.7270E-01 7.0710E-01 9.1100E-01 1.3700E-01
 9.6000E-01 8.7270E-01 8.1915E-01 8.6100E-01 1.5200E-01
 1.1600E+00 5.5990E-01-5.0000E-01 1.2420E+00 9.9000E-02
 1.1600E+00 5.5990E-01 0.0000E+00 8.6900E-01 1.0000E-01
 1.1600E+00 5.5990E-01 2.5882E-01 9.1700E-01 9.9000E-02
 1.1600E+00 5.5990E-01 4.2261E-01 9.8200E-01 1.0100E-01
 1.1600E+00 5.5990E-01 5.7357E-01 1.0280E+00 1.0300E-01
 1.1600E+00 5.5990E-01 7.0710E-01 1.1270E+00 1.0000E-01
 1.1600E+00 5.5990E-01 8.1915E-01 9.9800E-01 1.0800E-01
 1.1600E+00 6.0520E-01-5.0000E-01 7.7000E-01 1.2000E-01
 1.1600E+00 6.0520E-01 0.0000E+00 8.9000E-01 1.2000E-01
 1.1600E+00 6.0520E-01 2.5882E-01 9.8000E-01 1.2000E-01
 1.1600E+00 6.0520E-01 4.2261E-01 9.6000E-01 1.2000E-01
 1.1600E+00 6.0520E-01 5.7357E-01 1.0500E+00 1.3000E-01
 1.1600E+00 6.0520E-01 7.0710E-01 9.9000E-01 1.2000E-01
 1.1600E+00 6.0520E-01 8.1915E-01 1.1900E+00 1.4000E-01
 1.1600E+00 6.2540E-01-5.0000E-01 9.9700E-01 4.6000E-02
 1.1600E+00 6.2540E-01 0.0000E+00 9.5100E-01 4.4000E-02
 1.1600E+00 6.2540E-01 2.5882E-01 9.7200E-01 4.5000E-02
 1.1600E+00 6.2540E-01 5.7357E-01 9.9300E-01 4.6000E-02
 1.1600E+00 6.2540E-01 7.0710E-01 1.0380E+00 4.6000E-02
 1.1600E+00 6.2540E-01 8.1915E-01 9.8200E-01 4.6000E-02
 1.1600E+00 6.3300E-01-5.0000E-01 1.0500E+00 3.0000E-02
 1.1600E+00 6.3300E-01 0.0000E+00 9.1000E-01 3.0000E-02
 1.1600E+00 6.3300E-01 2.5882E-01 9.5000E-01 3.0000E-02
 1.1600E+00 6.3300E-01 4.2261E-01 9.5000E-01 3.0000E-02
 1.1600E+00 6.3300E-01 5.7357E-01 1.0200E+00 3.0000E-02
 1.1600E+00 6.3300E-01 7.0710E-01 1.0200E+00 3.0000E-02
 1.1600E+00 6.3300E-01 8.1915E-01 1.0900E+00 3.0000E-02
 1.1600E+00 6.5820E-01-5.0000E-01 1.3220E+00 2.3700E-01
 1.1600E+00 6.5820E-01 0.0000E+00 1.2440E+00 2.2200E-01
 1.1600E+00 6.5820E-01 2.5882E-01 9.8100E-01 2.2800E-01
 1.1600E+00 6.5820E-01 4.2261E-01 8.2300E-01 2.3500E-01
 1.1600E+00 6.5820E-01 5.7357E-01 9.6700E-01 2.4500E-01
 1.1600E+00 6.5820E-01 7.0710E-01 9.7400E-01 2.3900E-01
 1.1600E+00 6.5820E-01 8.1915E-01 1.1950E+00 2.6100E-01
 1.1600E+00 7.0580E-01-5.0000E-01 9.9200E-01 3.6000E-02
 1.1600E+00 7.0580E-01 0.0000E+00 9.2400E-01 3.5000E-02
 1.1600E+00 7.0580E-01 2.5882E-01 1.0350E+00 3.5000E-02
 1.1600E+00 7.0580E-01 4.2261E-01 1.0260E+00 3.6000E-02
 1.1600E+00 7.0580E-01 5.7357E-01 9.4700E-01 3.8000E-02
 1.1600E+00 7.0580E-01 7.0710E-01 1.0010E+00 3.6000E-02
 1.1600E+00 7.0580E-01 8.1915E-01 9.4400E-01 3.9000E-02
 1.1600E+00 7.3870E-01-5.0000E-01 1.2660E+00 3.1700E-01
 1.1600E+00 7.3870E-01 0.0000E+00 1.2340E+00 3.1000E-01
 1.1600E+00 7.3870E-01 2.5882E-01 1.1600E+00 3.0800E-01
 1.1600E+00 7.3870E-01 5.7357E-01 6.0400E-01 3.3700E-01
 1.1600E+00 7.3870E-01 7.0710E-01 8.7900E-01 3.2000E-01
 1.1600E+00 7.3870E-01 8.1915E-01 9.3300E-01 3.4500E-01
 1.1600E+00 7.6820E-01-5.0000E-01 1.1260E+00 4.6000E-02
 1.1600E+00 7.6820E-01 0.0000E+00 9.6300E-01 4.4000E-02
 1.1600E+00 7.6820E-01 2.5882E-01 1.0000E+00 4.5000E-02
 1.1600E+00 7.6820E-01 5.7357E-01 1.0250E+00 4.7000E-02
 1.1600E+00 7.6820E-01 7.0710E-01 9.9700E-01 4.6000E-02
 1.1600E+00 7.6820E-01 8.1915E-01 9.1900E-01 4.8000E-02
 1.1600E+00 8.1890E-01-5.0000E-01 8.6400E-01 1.4200E-01
 1.1600E+00 8.1890E-01 0.0000E+00 1.1190E+00 1.3400E-01
 1.1600E+00 8.1890E-01 2.5882E-01 9.8100E-01 1.4200E-01
 1.1600E+00 8.1890E-01 4.2261E-01 1.0950E+00 1.4100E-01
 1.1600E+00 8.1890E-01 5.7357E-01 9.4600E-01 1.4700E-01
 1.1600E+00 8.1890E-01 8.1915E-01 1.0030E+00 1.5500E-01
 1.1600E+00 8.7270E-01-5.0000E-01 1.1090E+00 7.9000E-02
 1.1600E+00 8.7270E-01 0.0000E+00 9.4400E-01 7.6000E-02
 1.1600E+00 8.7270E-01 2.5882E-01 1.0330E+00 7.8000E-02
 1.1600E+00 8.7270E-01 4.2261E-01 1.0190E+00 7.9000E-02
 1.1600E+00 8.7270E-01 5.7357E-01 9.8700E-01 8.1000E-02
 1.1600E+00 8.7270E-01 7.0710E-01 9.1100E-01 7.7000E-02
 1.1600E+00 8.7270E-01 8.1915E-01 9.7700E-01 8.4000E-02
ENDDATA            151
ENDSUBENT          165
ENDENTRY            18
