ENTRY            C2854   20221121   20240405   20240405       C230
SUBENT        C2854001   20221121   20240405   20240405       C230
BIB                 11         34
TITLE      Alpha-cluster structure of 18Ne
AUTHOR     (M.Barbui,A.Volya,E.Aboud,S.Ahn,J.Bishop,V.Z.Goldberg,
           J.Hooker,C.H.Hunt,H.Jayatissa,Tz.Kokalova,E.Koshchiy,
           S.Pirrie,E.Pollacco,B.T.Roeder,A.Saastamoinen,
           S.Upadhyayula,C.Wheldon,G.V.Rogachev)
INSTITUTE  (1USATAM,2FR SAC,2UK BIR,1USAFSU)
REFERENCE  (J,PR/C,106,054310,2022)
FACILITY   (CYCLO,1USATAM) Experimment performed at the
           Cyclotron Institute at Texas AM University using the
           active target TexAT
SAMPLE     Active target TexAT filled with the gas mixture 96 %
           of 4He and 4 % of CO2. The gas pressure was 580 Torr.
DETECTOR   TexAT consists of a gas-filled Time Projection
           Chamber and two layers of solid states detectors
           which surround the TPC in Cartesian geometry. TPCs
           has a high level of segmentation in the readout plane
           and provide 3D-vertex and tracking capabilities for
           incoming beam ions and charged reaction products. The
           gas pressure of 580 Torr was chosen to stop the 14O
           beam before the last 1/8th of the active volume. This
           last portion of the active volume was used as a dE
           detector to identify the alpha particles hitting the
           silicon wall.
METHOD     (EDE) Inverse kinematics was used
INC-SOURCE The 14-O beam was produced with the reaction 14N(p,n)
           14-O using magnetic achromat recoil separator at the
           Cyclotron Institute at Texas AM University. The 14N
           primary beam with energy of 11 MeV/A was delivered by
           the K500 Cyclotron and directed into a 9.2-cm-long
           liquid-nitrogen-cooled gas cell. The energy of the
           14-O beam was 61.8 MeV with an intensity of about
           10E+4 pps.
ERR-ANALYS (DATA-ERR) Origin of uncertainties not described
HISTORY    (20221121C) Compiled by S.H.
ENDBIB              34
NOCOMMON             0          0
ENDSUBENT           37
SUBENT        C2854002   20221121   20240405   20240405       C230
BIB                  2          4
REACTION   ((2-HE-4(8-O-14,EL)2-HE-4,,DA)=
           (8-O-14(A,EL)8-O-14,,DA))
STATUS     (TABLE) Data presented in fig. 5 of the reference
                   sent by author M.B.
ENDBIB               4
NOCOMMON             0          0
DATA                 5        714
ANG-CM-MIN ANG-CM-MAX E-EXC-CMP  DATA-CM    DATA-ERR
ADEG       ADEG       MEV        MB/SR      MB/SR
135.       175.             7.175    37.5366    24.4239
135.       175.             7.215      45.28    26.9066
135.       175.             7.255    49.3826    28.1842
135.       175.             7.295    66.7353    32.8622
135.       175.             7.335    77.7791    35.5828
135.       175.             7.375    78.2404    35.7938
135.       175.             7.435    103.318    41.3139
135.       175.             7.475    80.2918    36.5265
135.       175.             7.515    87.8092    38.3085
135.       175.             7.575    106.317     42.331
135.       175.             7.615    56.0631    30.8244
135.       175.             7.675     96.884    40.6874
135.       175.             7.735     83.248    37.8713
135.       175.             7.775     95.045     40.579
135.       175.             7.835    71.0997    35.2428
135.       175.             7.875    42.5531    27.3768
135.       175.             7.935    123.666    46.8688
135.       175.             8.035    29.7912    23.1643
135.       175.             8.095    66.3465    34.7083
135.       175.             8.135    17.3123    17.7995
135.       175.             8.195    43.5622    28.3445
135.       175.             8.255    49.3345    30.2831
135.       175.             8.315    57.5256    32.8316
135.       175.             8.375    50.2556    30.8485
135.       175.             8.435    27.0219    22.7082
135.       175.             8.535    19.3755    19.3755
135.       175.             8.655    18.6664    19.1918
135.       175.             8.895    54.1299    33.2267
135.       175.             8.935    147.936    55.1324
135.       175.             9.015    176.062    60.4386
135.       175.             9.055    402.398    91.7198
135.       175.             9.115    370.381    88.4371
135.       175.             9.175    351.861    86.5175
135.       175.             9.235     331.03    84.3269
135.       175.             9.315    256.139    74.5333
135.       175.             9.355    181.816    63.0184
135.       175.             9.415    88.5393    44.1814
135.       175.             9.495    111.661    49.8566
135.       175.             9.535    91.2635    45.2376
135.       175.             9.595    37.4451    29.1157
135.       175.             9.655    64.7212    38.4592
135.       175.             9.795    54.9836    35.7761
135.       175.             9.855    56.7489    36.5097
135.       175.             9.915    16.7854    19.9487
135.       175.             9.975    33.8858    28.4764
135.       175.            10.215    24.8086    24.8086
135.       175.            10.275    23.6736    24.3399
135.       175.            10.335    43.1319    33.0031
135.       175.            10.395      36.09    30.3288
135.       175.            10.475     24.387    25.0734
135.       175.            10.595    74.4774    44.2098
135.       175.            10.655    37.4863    31.5022
135.       175.            10.715    116.477    55.7697
135.       175.            10.755    103.249     52.744
135.       175.            10.895    19.4769    23.1474
135.       175.            10.955    26.3204    27.0612
135.       175.            11.035    28.1351    28.1351
135.       175.            11.155     81.263    48.2888
135.       175.            11.215    75.2205    46.6498
135.       175.            11.275    96.6727    53.1522
135.       175.            11.355    104.484    55.5324
135.       175.            11.415    28.1405    28.9325
135.       175.            11.475     120.62    60.1896
135.       175.            11.555    134.148    63.8368
135.       175.            11.635     52.385    40.0832
135.       175.            11.695    95.0866    54.2688
135.       175.            11.755    112.586    59.3379
135.       175.            11.815    247.787    88.4503
135.       175.            11.875    251.567    89.4581
135.       175.            11.935    250.251    89.6386
135.       175.            12.015    45.8824     38.558
135.       175.            12.075    63.6769    45.6468
135.       175.            12.155    89.6817    54.4979
135.       175.            12.215    414.528    117.747
135.       175.            12.295    487.823    128.481
135.       175.            12.355    363.249    111.403
135.       175.            12.415    230.056    89.0782
135.       175.            12.475    289.807    100.448
135.       175.            12.535    597.719    144.926
135.       175.            12.595    783.207    166.655
135.       175.            12.655    1160.72    203.799
135.       175.            12.735    530.784     138.43
135.       175.            12.795    612.829    149.399
135.       175.            12.855    408.799    122.657
135.       175.            12.915    124.845    68.0881
135.       175.            12.995    159.729    77.4436
135.       175.            13.075    53.7528     45.172
135.       175.            13.135    74.6737    53.5299
135.       175.            13.215    66.2427    50.6867
135.       175.            13.275    55.4013    46.5574
135.       175.            13.335     37.399    38.4516
135.       175.            13.415    28.2783    33.6076
135.       175.            13.475    57.0357    47.9309
135.       175.            13.615    87.2696    59.8805
135.       175.            13.675    39.2486    40.3533
135.       175.            13.815    80.0675    58.2097
135.       175.            13.895    113.461    69.6462
135.       175.            13.955    237.551    101.366
135.       175.            14.035    123.976    73.5921
135.       175.            14.095    125.194    74.3152
135.       175.            14.155    63.0711    53.0028
135.       175.            14.235       202.    95.3085
135.       175.            14.315    64.3794    54.1023
135.       175.            14.375    75.9025    59.0186
135.       175.            14.455    76.7192    59.6536
135.       175.            14.515    226.447    102.952
135.       175.            14.715    130.291    79.1751
135.       175.            14.775    80.3255    62.4577
135.       175.            14.855    92.8781    67.5232
135.       175.            14.995    118.249     76.941
135.       175.            15.055    167.337    92.0043
135.       175.            15.135    96.6936     70.297
135.       175.            15.215    51.6263    51.6263
135.       175.            15.275    52.0707    52.0707
135.       175.            15.415    103.196    73.9761
135.       175.            15.615    51.6903    53.1452
135.       175.            15.915    53.8309     55.346
135.       175.            16.055    54.7851     56.327
135.       175.            16.395    57.3558    58.9701
135.       175.            16.475    57.9738    59.6054
135.       175.            16.675    59.6689    61.3483
135.       175.            16.815    121.641     88.434
135.       175.            16.955    127.316    91.2666
135.       175.            17.095    133.266    94.2333
135.       169.             7.975    64.6889    13.3862
135.       169.             8.035    88.4516    15.6868
135.       169.             8.095    90.3508     15.889
135.       169.             8.155    73.8619     14.398
135.       169.             8.195    49.1397    11.7702
135.       169.             8.255    69.8912    14.0691
135.       169.             8.315    49.3729    11.8523
135.       169.             8.355    64.0047    13.5262
135.       169.             8.415    33.8986      9.867
135.       169.             8.475    55.7248    12.6811
135.       169.             8.515    34.6369    10.0218
135.       169.             8.575    15.6468     6.7521
135.       169.             8.655    10.9128     5.6573
135.       169.             8.695    21.0462     7.8758
135.       169.             8.755    22.6764     8.1955
135.       169.             8.815    33.2479     9.9485
135.       169.             8.875    47.0344    11.8727
135.       169.             8.935    82.6855    15.7822
135.       169.             8.995    122.548    19.2796
135.       169.             9.055    133.864    20.2026
135.       169.             9.095    183.465    23.7131
135.       169.             9.155    180.914    23.6305
135.       169.             9.235    143.158    21.0946
135.       169.             9.275    150.774    21.7052
135.       169.             9.335    98.2834    17.5857
135.       169.             9.395    96.4233    17.4644
135.       169.             9.455    82.5793    16.2192
135.       169.             9.515    87.1934    16.7253
135.       169.             9.595    71.6327    15.2138
135.       169.             9.635    85.6702    16.6827
135.       169.             9.695    56.9392    13.6497
135.       169.             9.755    28.9983     9.7764
135.       169.             9.815    66.0542    14.8091
135.       169.             9.875    54.8137    13.5398
135.       169.             9.955    44.4867    12.2427
135.       169.            10.015     11.482     6.2426
135.       169.            10.075     8.6673     5.4437
135.       169.            10.135     8.7015     5.4749
135.       169.            10.195     2.7628     3.0967
135.       169.            10.255     3.1964     3.3434
135.       169.            10.315    12.4384     6.6203
135.       169.            10.375    35.2547    11.1877
135.       169.            10.435     41.557    12.1926
135.       169.            10.495    49.7667     13.406
135.       169.            10.555    100.371    19.1108
135.       169.            10.615    50.4869    13.6054
135.       169.            10.675     66.362    15.6578
135.       169.            10.755    99.2106    19.2357
135.       169.            10.815    89.2289    18.3117
135.       169.            10.855    72.0076    16.5123
135.       169.            10.935    86.0672    18.1377
135.       169.            10.995    90.4996    18.6671
135.       169.            11.055    83.5423    18.0159
135.       169.            11.115    43.1954    13.0009
135.       169.            11.195    23.6004     9.6525
135.       169.            11.255     60.895      15.56
135.       169.            11.315    108.204    20.8331
135.       169.            11.375    100.122    20.1106
135.       169.            11.435    69.3458    16.8104
135.       169.            11.495    134.592    23.5018
135.       169.            11.555    123.228    22.5865
135.       169.            11.635    155.014    25.4436
135.       169.            11.695    245.949    32.1891
135.       169.            11.755    221.979    30.7136
135.       169.            11.835    246.433    32.5026
135.       169.            11.895    211.249    30.2257
135.       169.            11.955    204.829    29.8927
135.       169.            12.035    131.663    24.0701
135.       169.            12.095    160.875     26.721
135.       169.            12.155    70.0599    17.7092
135.       169.            12.235    100.434    21.2938
135.       169.            12.295    190.085    29.4194
135.       169.            12.355     203.11    30.5402
135.       169.            12.435    132.072    24.7319
135.       169.            12.495    75.8319    18.8203
135.       169.            12.555      113.3    23.1027
135.       169.            12.615    164.527    27.9587
135.       169.            12.695    258.548    35.2283
135.       169.            12.755    340.396    40.5945
135.       169.            12.815    208.645    31.9449
135.       169.            12.875    252.514    35.2934
135.       169.            12.955    141.667    26.5708
135.       169.            13.015    112.689    23.7988
135.       169.            13.075      68.57    18.6589
135.       169.            13.155    75.7493    19.7107
135.       169.            13.215    39.1761    14.2463
135.       169.            13.275    58.9034    17.5413
135.       169.            13.335    63.2994    18.2737
135.       169.            13.415    41.1532    14.8056
135.       169.            13.475    46.1267    15.7373
135.       169.            13.555    114.845    24.9499
135.       169.            13.615    106.205    24.0873
135.       169.            13.675    66.8389    19.1982
135.       169.            13.755    82.9426     21.486
135.       169.            13.815    118.183    25.7468
135.       169.            13.875    165.013    30.5643
135.       169.            13.955     123.12    26.5232
135.       169.            14.015     293.33    41.1285
135.       169.            14.075    166.171    31.0988
135.       169.            14.155    265.652    39.5024
135.       169.            14.215    215.845    35.7715
135.       169.            14.275    291.133    41.7359
135.       169.            14.355    239.316    38.0433
135.       169.            14.415    253.613    39.3433
135.       169.            14.495    195.697    34.7453
135.       169.            14.555    157.782     31.365
135.       169.            14.635    244.389    39.2429
135.       169.            14.715    181.871    34.0324
135.       169.            14.775    150.736    31.1222
135.       169.            14.835    207.646    36.7184
135.       169.            14.915    220.301    38.0162
135.       169.            14.975    333.912    47.0425
135.       169.            15.035    225.756    38.8479
135.       169.            15.115    295.151    44.6395
135.       169.            15.175    208.585    37.6837
135.       169.            15.255     113.93    27.9656
135.       169.            15.315    125.708    29.5158
135.       169.            15.395    35.4986    15.7484
135.       169.            15.455    23.3965    12.8366
135.       169.            15.535    42.1268    17.3052
135.       169.            15.595    48.5176    18.6455
135.       169.            15.655    41.3846    17.2887
135.       169.            15.735      61.82    21.2278
135.       169.            15.795     63.352     21.574
135.       169.            15.875     60.473     21.175
135.       169.            15.935    24.0929    13.4181
135.       169.            16.015    108.766    28.6404
135.       169.            16.075    124.392    30.7691
135.       169.            16.155     131.77    31.8132
135.       169.            16.215    57.5124    21.1135
135.       169.            16.275    133.128    32.2692
135.       169.            16.355    74.6395    24.2879
135.       169.            16.435    115.082    30.2952
135.       169.            16.495    80.2725    25.4162
135.       169.            16.575    116.604    30.7899
135.       169.            16.635    52.0481    20.6628
135.       169.            16.715    82.7556    26.1866
135.       169.            16.775    135.721    33.6828
135.       169.            16.855    98.2622    28.8024
135.       169.            16.915     82.002    26.4234
135.       169.            16.995    127.336    33.0447
135.       169.            17.055    130.977    33.6514
121.       161.             8.015     150.08    21.8522
121.       161.             8.075    105.532    18.3472
121.       161.             8.115    148.853    21.8086
121.       161.             8.155    98.0557     17.724
121.       161.             8.215    93.8592    17.3644
121.       161.             8.275     82.398    16.2927
121.       161.             8.335    94.2659    17.4519
121.       161.             8.375    95.4612    17.5884
121.       161.             8.435    96.6463    17.7245
121.       161.             8.495    65.0989    14.5697
121.       161.             8.535    53.6092    13.2427
121.       161.             8.595    47.1838     12.444
121.       161.             8.675     50.492    12.9014
121.       161.             8.715    37.9492    11.2038
121.       161.             8.775    51.7626    13.1076
121.       161.             8.815    42.2729    11.8663
121.       161.             8.895    25.6449     9.2646
121.       161.             8.935    53.6662     13.427
121.       161.             8.995    56.9903    13.8626
121.       161.             9.055    47.2964    12.6609
121.       161.             9.115     35.252    10.9517
121.       161.             9.175     67.731    15.2202
121.       161.             9.235    56.3728    13.9131
121.       161.             9.295    60.7326     14.479
121.       161.             9.335    45.9094    12.6137
121.       161.             9.415    56.0478    13.9744
121.       161.             9.475    70.2606    15.6888
121.       161.             9.515    55.4212    13.9626
121.       161.             9.595    57.8846    14.3093
121.       161.             9.655    55.2203    14.0156
121.       161.             9.715    71.3182    15.9736
121.       161.             9.755    49.6875    13.3619
121.       161.             9.815    64.0018    15.2092
121.       161.             9.875    75.2289     16.538
121.       161.             9.955    105.034    19.5996
121.       161.            10.015    52.6316    13.9156
121.       161.            10.075    56.5091    14.4624
121.       161.            10.135    50.3976    13.7003
121.       161.            10.195    77.7048     17.065
121.       161.            10.255    53.2431    14.1702
121.       161.            10.315    45.3177    13.1144
121.       161.            10.375    25.0084     9.7731
121.       161.            10.435    28.5159    10.4692
121.       161.            10.495    18.4209     8.4414
121.       161.            10.555    23.4452      9.554
121.       161.            10.615    50.7522    14.1136
121.       161.            10.675    56.7319    14.9705
121.       161.            10.735    34.3865    11.6931
121.       161.            10.795     51.125    14.3044
121.       161.            10.855    49.5994     14.147
121.       161.            10.915    63.9082     16.111
121.       161.            10.975    62.6099    15.9976
121.       161.            11.035    57.2266    15.3422
121.       161.            11.095    148.551    24.8148
121.       161.            11.155    137.611    23.9575
121.       161.            11.215    190.914    28.3057
121.       161.            11.295    122.267    22.7397
121.       161.            11.335    70.5884    17.3315
121.       161.            11.415    30.7519    11.4837
121.       161.            11.475     28.332    11.0567
121.       161.            11.535    45.4154     14.053
121.       161.            11.595    38.4256    12.9665
121.       161.            11.655    71.1478    17.7124
121.       161.            11.715    134.275    24.4273
121.       161.            11.775    201.067    29.9844
121.       161.            11.835     300.89    36.8237
121.       161.            11.915    225.157    31.9797
121.       161.            11.975    244.074    33.4264
121.       161.            12.035    242.534    33.4502
121.       161.            12.115    222.755    32.1814
121.       161.            12.155    230.846    32.8619
121.       161.            12.235    239.972    33.6345
121.       161.            12.295    257.749    34.9927
121.       161.            12.355    152.157      26.99
121.       161.            12.435    170.573    28.6875
121.       161.            12.495    130.038    25.1453
121.       161.            12.555    222.935    33.0523
121.       161.            12.615    123.567    24.7035
121.       161.            12.695    84.1279    20.4795
121.       161.            12.755    60.3613    17.4154
121.       161.            12.815    115.199    24.1538
121.       161.            12.875    75.4854    19.6447
121.       161.            12.935    103.718    23.1181
121.       161.            13.015    103.059    23.1537
121.       161.            13.075    95.0952    22.3287
121.       161.            13.135    59.2429    17.7069
121.       161.            13.195    139.031    27.2316
121.       161.            13.255    96.7159    22.8183
121.       161.            13.315    74.1497    20.0566
121.       161.            13.395    103.504    23.8038
121.       161.            13.455    30.0422    12.8722
121.       161.            13.515    28.7208    12.6326
121.       161.            13.575    38.3647    14.6648
121.       161.            13.635    52.2607    17.1786
121.       161.            13.715    13.6826     8.8284
121.       161.            13.775    60.9362    18.6988
121.       161.            13.835    49.1057     16.859
121.       161.            13.915    50.4921    17.1698
121.       161.            13.975    36.0861    14.5679
121.       161.            14.035    42.1142    15.8063
121.       161.            14.115     68.765    20.2856
121.       161.            14.175    62.4304     19.413
121.       161.            14.235    55.0239    18.3047
121.       161.            14.295    77.0174    21.7508
121.       161.            14.375    68.8926    20.6614
121.       161.            14.435    21.2962    11.5376
121.       161.            14.495    65.5699     20.348
121.       161.            14.555    57.8233    19.1914
121.       161.            14.635    40.8514    16.2126
121.       161.            14.695    35.4292    15.1637
121.       161.            14.775    69.2705    21.3095
121.       161.            14.835    51.4905    18.4638
121.       161.            14.895    64.2535    20.7129
121.       161.            14.975    72.9616      22.18
121.       161.            15.035    36.1278    15.6722
121.       161.            15.115    87.5166    24.5086
121.       161.            15.175    68.2882    21.7364
121.       161.            15.235    74.0619    22.7265
121.       161.            15.295    60.4331    20.6099
121.       161.            15.375    63.6577    21.2488
121.       161.            15.435    32.7008    15.2884
121.       161.            15.515     9.7598     8.3844
121.       161.            15.575     7.8169     7.5323
121.       161.            15.635     33.101    15.5591
121.       161.            15.715     15.141    10.5698
121.       161.            15.775    35.0105    16.1337
121.       161.            15.915    27.9035     14.522
121.       161.            16.055    47.1414    19.0309
121.       161.            16.115    42.8699    18.2285
121.       161.            16.175    41.4927    18.0012
121.       161.            16.255    44.0503    18.6296
121.       161.            16.315    47.5315    19.4371
121.       161.            16.375     42.851    18.5365
121.       161.            16.455    49.3564    19.9937
121.       161.            16.515    56.8152     21.545
121.       161.            16.595    28.9191    15.4381
121.       161.            16.655    44.0749    19.1413
121.       161.            16.735     9.0411     8.7119
121.       161.            16.795    17.0174    12.0032
121.       161.            16.855    33.8948    17.0113
121.       161.            16.935     36.206    17.6541
121.       161.            17.015    38.2868    18.2277
121.       161.            17.075    35.3155    17.5657
108.       155.             7.795    11.0408      6.324
108.       155.             7.835    25.1197     9.5401
108.       155.             7.875    74.8998     16.476
108.       155.             7.895    121.214    20.9636
108.       155.             7.935    138.117    22.3821
108.       155.             7.975    143.052    22.7835
108.       155.             8.015    127.156    21.4856
108.       155.             8.055    94.4931    18.5266
108.       155.             8.115    122.155     21.074
108.       155.             8.155    131.949    21.9098
108.       155.             8.195    110.968    20.1034
108.       155.             8.255    132.056    21.9436
108.       155.             8.295    97.7432    18.8867
108.       155.             8.355    117.987    20.7647
108.       155.             8.395    58.5999    14.6445
108.       155.             8.455    47.5019    13.1955
108.       155.             8.515    90.9826    18.2771
108.       155.             8.555    49.5899    13.5052
108.       155.             8.615    76.9271    16.8358
108.       155.             8.675    44.1954     12.773
108.       155.             8.715    67.2341    15.7699
108.       155.             8.775    28.6474    10.3044
108.       155.             8.835    69.6898     16.095
108.       155.             8.895    80.6184    17.3307
108.       155.             8.935    37.8963    11.8961
108.       155.             9.015    70.0862    16.2043
108.       155.             9.055    95.0343    18.8931
108.       155.             9.115    66.9101    15.8735
108.       155.             9.175    105.167     19.936
108.       155.             9.235    74.9862     16.857
108.       155.             9.295    63.6208    15.5552
108.       155.             9.335      51.91    14.0704
108.       155.             9.415    53.3893    14.2965
108.       155.             9.455    49.7052    13.8145
108.       155.             9.515    62.1951    15.4836
108.       155.             9.595    90.2305    18.6876
108.       155.             9.635    110.065    20.6719
108.       155.             9.695    48.3209    13.7261
108.       155.             9.755    87.1519    18.4741
108.       155.             9.815    62.0157    15.6186
108.       155.             9.875    137.884    23.3283
108.       155.             9.935    54.7488    14.7336
108.       155.             9.995    99.1529    19.8739
108.       155.            10.055    93.1044    19.3036
108.       155.            10.115     90.259    19.0524
108.       155.            10.175    83.7152    18.3947
108.       155.            10.235    111.198    21.2537
108.       155.            10.295    85.9607    18.7345
108.       155.            10.355    91.8256     19.413
108.       155.            10.415    71.7922    17.2099
108.       155.            10.475    83.2684    18.5832
108.       155.            10.535    29.1477    11.0239
108.       155.            10.595    47.3035    14.0813
108.       155.            10.655    59.7439    15.8678
108.       155.            10.715    85.7578    19.0629
108.       155.            10.775     79.577    18.4262
108.       155.            10.835     63.071    16.4496
108.       155.            10.895    79.2066    18.4852
108.       155.            10.955    99.6848    20.7952
108.       155.            11.015    84.2159    19.1772
108.       155.            11.075     98.244    20.7676
108.       155.            11.135    61.0346    16.4121
108.       155.            11.195    119.622    23.0371
108.       155.            11.255    145.688    25.5075
108.       155.            11.315    90.3141    20.1365
108.       155.            11.375    77.5347    18.7073
108.       155.            11.435    156.049    26.6104
108.       155.            11.495    145.747    25.8033
108.       155.            11.555    99.5615    21.3841
108.       155.            11.615    49.1681    15.0784
108.       155.            11.675    65.1827    17.4084
108.       155.            11.735    151.364    26.6183
108.       155.            11.795     179.22     29.063
108.       155.            11.855    248.485     34.317
108.       155.            11.915    188.909    30.0261
108.       155.            11.975    259.962    35.3208
108.       155.            12.035    255.142    35.1127
108.       155.            12.115    301.742    38.3166
108.       155.            12.175     301.03    38.4034
108.       155.            12.235    261.713    35.9068
108.       155.            12.295     313.87    39.4585
108.       155.            12.355    280.792    37.4512
108.       155.            12.435    298.704    38.7624
108.       155.            12.495    387.053    44.2791
108.       155.            12.555    399.797    45.1612
108.       155.            12.615    330.577    41.2118
108.       155.            12.675    311.882    40.1725
108.       155.            12.735    246.419    35.8366
108.       155.            12.815    169.571    29.8566
108.       155.            12.875    138.294    27.0604
108.       155.            12.935     134.35    26.7684
108.       155.            12.995    79.7215      20.71
108.       155.            13.055    88.4681    21.8958
108.       155.            13.115     78.745    20.7324
108.       155.            13.175    144.731    28.2293
108.       155.            13.235    118.229    25.6059
108.       155.            13.315    86.3335    21.9748
108.       155.            13.375    94.3266    23.0504
108.       155.            13.435    54.3211    17.5531
108.       155.            13.495    44.7693    16.0013
108.       155.            13.555    110.527    25.2282
108.       155.            13.615     52.847    17.5042
108.       155.            13.675    70.2876    20.2557
108.       155.            13.755    107.079    25.1031
108.       155.            13.815    34.7862    14.3566
108.       155.            13.875    66.4307    19.9069
108.       155.            13.935    68.3571    20.2759
108.       155.            13.995    86.9796     22.965
108.       155.            14.055     28.479    13.1856
108.       155.            14.135    37.3054     15.153
108.       155.            14.195    85.2288    22.9979
108.       155.            14.255    43.1975    16.4403
108.       155.            14.315    83.5006    22.9515
108.       155.            14.395     25.704    12.7866
108.       155.            14.455    43.7591    16.7525
108.       155.            14.515    66.1142    20.6768
108.       155.            14.575    64.1769    20.4557
108.       155.            14.635    45.3467    17.2657
108.       155.            14.715    54.4041    19.0022
108.       155.            14.775    56.2485    19.4006
108.       155.            14.835    39.9296    16.4234
108.       155.            14.895    49.5683    18.3725
108.       155.            14.955    44.8175    17.5398
108.       155.            15.035    63.3836    20.9551
108.       155.            15.095    36.7605    16.0207
108.       155.            15.155    30.0992    14.5524
108.       155.            15.215    19.7226    11.8246
108.       155.            15.295    14.7213    10.2543
108.       155.            15.355     6.0664     6.6072
108.       155.            15.415     5.5242     6.3284
108.       155.            15.555     6.1577     6.7306
108.       155.            15.635    49.7647    19.2158
108.       155.            15.695    23.0801     13.134
108.       155.            15.755    11.1651     9.1684
108.       155.            15.815    32.6557     15.737
108.       155.            15.875    30.6026    15.2898
108.       155.            15.955    11.7415     9.5111
108.       155.            16.015    10.0812     8.8452
108.       155.            16.095    41.2093    17.9596
108.       155.            16.155    31.3165    15.7133
108.       155.            16.215    25.1989    14.1553
108.       155.            16.275    29.0711    15.2689
108.       155.            16.355    44.7269    19.0198
108.       155.            16.415    53.2078     20.833
108.       155.            16.495    13.8201    10.6625
108.       155.            16.555    57.9969    21.9349
108.       155.            16.615    33.5137    16.7443
108.       155.            16.675    63.2194    23.0937
108.       155.            16.755    48.3153    20.2727
108.       155.            16.815    103.827    29.8409
108.       155.            16.875     43.577    19.4107
108.       155.            16.955    87.3337    27.5884
108.       155.            17.015    48.2104    20.5663
108.       155.            17.095    41.0229    19.0444
100.       150.             8.155     6.8488     5.3909
100.       150.             8.175    17.1132     8.5194
100.       150.             8.215    13.6844     7.6165
100.       150.             8.255    68.6743    17.0591
100.       150.             8.295    61.4664    16.1363
100.       150.             8.335    63.9855    16.4613
100.       150.             8.375    126.261    23.1199
100.       150.             8.415    75.3925    17.8642
100.       150.             8.475    84.1407    18.8711
100.       150.             8.515    87.8502    19.2824
100.       150.             8.555    104.843    21.0652
100.       150.             8.615    85.4529    19.0191
100.       150.             8.655    48.7341     14.364
100.       150.             8.695    60.9292    16.0635
100.       150.             8.755      59.76     15.912
100.       150.             8.815    36.2945    12.4038
100.       150.             8.855    68.1812     17.006
100.       150.             8.915    60.4465    16.0183
100.       150.             8.955    33.2225    11.8804
100.       150.             9.035    50.5906    14.6698
100.       150.             9.075    56.2909    15.4824
100.       150.             9.135    68.7402    17.1189
100.       150.             9.175    36.1965    12.4299
100.       150.             9.235     87.598    19.3533
100.       150.             9.295    22.7644     9.8724
100.       150.             9.355    74.8375    17.9167
100.       150.             9.415    46.8283    14.1832
100.       150.             9.475    45.4972    13.9948
100.       150.             9.515    74.4582    17.9181
100.       150.             9.595    39.9091    13.1334
100.       150.             9.635    82.7621    18.9302
100.       150.             9.695    41.4352    13.4116
100.       150.             9.755     50.962    14.8938
100.       150.             9.815    46.7421    14.2788
100.       150.             9.875    62.3813    16.5194
100.       150.             9.935    42.2406     13.614
100.       150.             9.995    66.5348    17.1126
100.       150.            10.055     92.611    20.2214
100.       150.            10.095    62.8482    16.6788
100.       150.            10.155    61.0482    16.4671
100.       150.            10.215    103.999    21.5313
100.       150.            10.275    108.871    22.0702
100.       150.            10.335    86.7428    19.7367
100.       150.            10.395    83.1199    19.3569
100.       150.            10.455     96.974    20.9486
100.       150.            10.515    28.8091    11.4407
100.       150.            10.575    55.2008    15.8684
100.       150.            10.635      62.39    16.9048
100.       150.            10.695    81.9092      19.41
100.       150.            10.755    96.3399     21.095
100.       150.            10.815    81.9831    19.5016
100.       150.            10.875    33.6653    12.5306
100.       150.            10.935    68.6464    17.9325
100.       150.            10.995      64.02    17.3541
100.       150.            11.055    111.873    22.9883
100.       150.            11.115    46.2585    14.8207
100.       150.            11.175    70.8082    18.3747
100.       150.            11.235    65.5566    17.7174
100.       150.            11.295    57.9341    16.6908
100.       150.            11.355    52.0465    15.8622
100.       150.            11.415    32.6806    12.5965
100.       150.            11.475    58.9509    16.9549
100.       150.            11.515     49.439     15.561
100.       150.            11.595    59.1351    17.0659
100.       150.            11.635    33.3584    12.8463
100.       150.            11.715    15.5917     8.8073
100.       150.            11.755    35.9278    13.3997
100.       150.            11.815    120.873     24.634
100.       150.            11.875    96.3012     22.053
100.       150.            11.935    115.964    24.2567
100.       150.            11.995    90.3604    21.4749
100.       150.            12.055    117.068    24.5006
100.       150.            12.115    189.856    31.2927
100.       150.            12.175    100.097    22.7752
100.       150.            12.235    180.425    30.6678
100.       150.            12.315    207.753    33.0067
100.       150.            12.355    157.531    28.8106
100.       150.            12.435    209.631    33.3357
100.       150.            12.495    212.855    33.6937
100.       150.            12.555     245.52    36.2984
100.       150.            12.615    246.451    36.4802
100.       150.            12.675    225.803    35.0282
100.       150.            12.735    217.041    34.4505
100.       150.            12.795    126.336    26.3676
100.       150.            12.855    208.597      33.99
100.       150.            12.935    84.4423    21.7097
100.       150.            12.975    69.2494    19.7236
100.       150.            13.035    61.1054    18.5878
100.       150.            13.115    68.8886    19.8131
100.       150.            13.175    77.3493    21.0627
100.       150.            13.235    84.1205    22.0365
100.       150.            13.295    63.2656    19.1723
100.       150.            13.355    58.7335    18.5435
100.       150.            13.415    79.8121    21.6844
100.       150.            13.475    68.9706    20.2209
100.       150.            13.535    86.2401    22.6814
100.       150.            13.595    55.6174    18.2711
100.       150.            13.655    62.0256    19.3547
100.       150.            13.735    34.7419     14.539
100.       150.            13.775    71.2795    20.8897
100.       150.            13.835    102.738     25.157
100.       150.            13.895    59.2877      19.17
100.       150.            13.975    53.4683    18.2729
100.       150.            14.035    74.6029    21.6518
100.       150.            14.075    77.8159    22.1825
100.       150.            14.155    92.6324    24.2938
100.       150.            14.215    95.3333     24.739
100.       150.            14.275     45.043    17.0588
100.       150.            14.335    69.4748    21.2669
100.       150.            14.395    60.5749    19.9341
100.       150.            14.455    85.6582    23.7958
100.       150.            14.515     79.357    22.9919
100.       150.            14.575    44.0824    17.2021
100.       150.            14.635    74.9296    22.5135
100.       150.            14.715    77.2645    22.9493
100.       150.            14.775    38.0733    16.1714
100.       150.            14.835    47.0125    18.0497
100.       150.            14.895    56.7744    19.9104
100.       150.            14.955     67.522    21.7949
100.       150.            15.015    39.1368    16.6547
100.       150.            15.075    23.9248    13.0695
100.       150.            15.155    60.9827    20.9416
100.       150.            15.215    33.5564    15.5899
100.       150.            15.275    63.1398    21.4607
100.       150.            15.335    51.5156     19.453
100.       150.            15.415    42.0011    17.6264
100.       150.            15.475    24.6552    13.5517
100.       150.            15.535    33.5195     15.856
100.       150.            15.595    30.6578    15.2077
100.       150.            15.655    35.3518     16.387
100.       150.            15.715    21.8367    12.9236
100.       150.            15.795    12.4303     9.7843
100.       150.            15.855    25.6984    14.1251
100.       150.            15.915     8.0054      7.911
100.       150.            15.995    44.2098    18.6554
100.       150.            16.055    20.1661    12.6434
100.       150.            16.115    33.2284    16.2955
100.       150.            16.175     8.2403     8.1432
100.       150.            16.255     6.5471      7.288
100.       150.            16.315    71.2313    24.1372
100.       150.            16.375    30.1609    15.7611
100.       150.            16.495    26.9206    15.0116
100.       150.            16.555    22.9269    13.9015
100.       150.            16.635    51.9344     21.007
100.       150.            16.695    60.8745    22.8345
100.       150.            16.755    46.6141    20.0614
100.       150.            16.835    24.8451    14.7041
100.       150.            16.875    35.2433    17.5712
100.       150.            16.955    96.5903    29.2002
100.       150.            17.015    56.4158    22.3879
100.       150.            17.095    54.3368    22.0528
ENDDATA            716
ENDSUBENT          725
SUBENT        C2854003   20221121   20240405   20240405       C230
BIB                  3          7
REACTION  1(2-HE-4(8-O-14,0),,EN)
          2(2-HE-4(8-O-14,TOT),,WID)
          3(2-HE-4(8-O-14,EL),,WID)
          4(2-HE-4(8-O-14,P),,WID)
ANALYSIS   Data obtained from experimental results measured in
           this work
STATUS     (TABLE,,M.Barbui+,J,PR/C,106,054310,2022) Table 1
ENDBIB               7
NOCOMMON             0          0
DATA                 5         28
DATA      1DATA-ERR  1DATA      2DATA      3DATA      4
MEV        MEV        KEV        KEV        KEV
       7.93       0.02        75.        50.        25.
       8.16        1.1        90.        30.        60.
       8.76       0.08       870.       440.       430.
       9.13       0.02       990.       390.       600.
       9.21       0.03       540.       270.       270.
       9.61       0.02      1640.      1120.       520.
        9.8        0.3      4200.      4200.         0.
      10.56       0.04       380.       320.        60.
       10.8        0.1      1580.      1350.       230.
        11.        0.1      1130.       380.       750.
      11.23       0.08        15.         5.        10.
      11.74       0.05       360.       310.        50.
       11.8        0.2       260.        40.       220.
      12.13       0.04       280.       180.       100.
       12.4        0.2       350.       170.       180.
      12.45       0.02       390.       180.       210.
       12.7        0.2      2300.      2000.       240.
       12.9        0.2       670.       530.       140.
       13.3        0.3       870.       850.        20.
       13.4        0.2      1800.      1750.        50.
      13.73       0.01      1200.       780.       410.
      13.79       0.08       290.       220.        70.
      14.15       0.21       620.       380.       250.
       14.6        0.7      1180.       520.       660.
      14.80        0.2      5300.      4000.      1300.
       14.9        0.1        90.        60.        30.
      16.26       0.02      1100.      1000.       100.
       16.9       0.02      2400.      1500.         9.
ENDDATA             30
ENDSUBENT           42
ENDENTRY             3
