ENTRY            23242   20150522   20160302   20151123       2244
SUBENT        23242001   20150522   20160302   20151123       2244
BIB                 14         77
TITLE      The Beta-Decay of 95-Rb and 97-Rb.
AUTHOR     (K.-L.Kratz,H.Ohm,A.Schroeder,H.Gabelmann,W.Ziegert,
           B.Pfeiffer,G.Jung,E.Monnand,J.A.Pinston,F.Schussler,
           G.I.Crawford,S.G.Prussin,Z.M.de Oliveira)
INSTITUTE  (2GERMNZ) K.-L.Kratz,H.Ohm,A.Schroeder,H.Gabelmann,
                     W.Ziegert.
           (2FR ILL) B.Pfeiffer,G.Jung.
           (2FR GRE) Departement de Recherche Fondamentale, Centre
           d'Etudes Nucleaires de Grenoble,France.
                    E.Monnand,J.A.Pinston,F.Schussler.
           (2UK GLS) G.I.Crawford.
           (1USAUCX) S.G.Prussin,Z.M.de Oliveira
REFERENCE  (J,ZP/A,312,43,1983)
FACILITY   (REAC,2FR ILL) High-flux reactor.
SAMPLE      Samples were produced from the Isol-system OSTIS at
           exp. neutron beam of reactor.The mass contamination
           about 10**-5 .
METHOD     (COINC)Gamma-ray, conversion and beta-delayed neutron
           spectroscopy.
           (TOF) Flight paths 0.6 m - 2.5 m; 30 - 50 cm.
DETECTOR   *** For Gamma-ray and Conversion electron Spectroscopy:
           (GELI,SILI) For spectra of gamma-rays and conversion
           electrons. Placed at 3 cm distance from the source.
           Ge(Li) - relative efficiency 25%, resolution 2.1 keV at
           1.3 MeV.
           Si(Li) - 5 mm thickness, 300 mm2 surface, resolution
           1.7 keV at 624 keV.
           (SCIN) Ge(Li) or Si(Li) detector could be replaced by
           1 mm thick plastic scintillator to define life-time of
           excited states from delayed beta-electron or beta-gamma
           coincidence. Resolving time 2TAU = 5 nsec.
           (GELI) Second Ge(Li) replacing Si(Li) detector - for
           gamma-gamma coincidence, resolving time 15 nsec.
           Transitions used for internal calibration of conversion
           electrons :
           Isotope    E-gamma,keV           Multipolarity
           Sr-96      815.0                 E2
           Y-96       122.3                 M1
           Zr-97      161.3                 E2
           Nb-97m     743.4                 M4
                      289.4                 E2
           Mo-98      787.4                 E2
           *** For Spectroscopy of Beta-Delayed Neutrons :
           (HE3SP,GELI) Three identical He-3 ionization chambers
           for neutron detection; 100 cm3 Ge(Li) diode for
           gamma-ray detection.
           Energy resolution 12 keV for thermal neutrons, about
           20 keV for 1 MeV neutrons. Resolving time 5 microsec.
           (SCIN) 5 inch diameter liquid scintillator NE213 for
           TOF (paths 0.6 m - 2.5 m) measurement of neutron single
           and neutron-gamma coincidence spectra in energy range
           180 keV - 3 MeV.
           (GLASD) Li-glass detector to measure low-energy (5 keV
            - 150 keV) spectrum at flight paths 30 -50  cm.
ANALYSIS    The intensities of beta-branches were determined from
           a filiation measurement assuming
           - for Rb-95 - the 954 keV gamma-line
           of Zr-95 intensity of 0.19+-0.02 from REL-REF of
           P.Cavallini+ and taking the neutron emission
           probability Pn=(8.6+-0.5)% from REL-REF of C.Ristory+;
           - for Rb-97 - intensity of the 743 keV gamma-line of
           Nb-97 0.928 from REL-REF of C.M.Lederer+ and Pn value
           of Rb-97 25.2% from REL-REF of C.Ristori+ .
REL-REF    (R,,P.Cavallini+,J,RRL,21,157,1975) ASSUM1
           (R,,C.Ristori+,J,ZP/A,290,311,1979) Pn values.
           (R,,C.M.Lederer+,B,LEDERER-7,,1978) ASSUM2
ASSUMED    (ASSUM1,37-RB-95(0,B-)38-SR-95,,PN)
           (ASSUM2,37-RB-97(0,B-)38-SR-97,,PN)
DECAY-DATA (40-ZR-95,,G,954.,0.19) 0.19+-0.02 .
           (41-NB-97,,G,743.,0.928)
ADD-RES    (DECAY) Sr-95 level scheme - Fig.1 .
           Exp. internal conversion coefficients of most intense g
           transition in Sr-95 - Table 2.
           Sr-97 level scheme - Fig.3.
           Exp. internal conversion coefficients of most intense g
           transition in Sr-97 - Table 3.
HISTORY    (20150522C) M.M.
ENDBIB              77
COMMON               3          3
ASSUM1     ASSUM1-ERR ASSUM2
NO-DIM     NO-DIM     NO-DIM
0.086       0.005     0.252
ENDCOMMON            3
ENDSUBENT           84
SUBENT        23242002   20150522   20160302   20151123       2244
BIB                  8         16
REACTION   (37-RB-95(0,B-)38-SR-95,,PN/DE,,REL)
            Relative beta- delayed neutrons spectrum in arb.units.
DECAY-DATA (37-RB-95,377.MSEC)
DETECTOR   (HE3SP) He-3 ionization chambers.
EN-SEC     (E,N) Energy of delayed neutrons.
ERR-ANALYS (E-ERR-DIG) Digitizing error of E ( X scale)
           (ERR-DIG)    Digitizing error of DATA ( Y scale)
           Quantization errors:
           scale X - 0.604 keV, scale Y - 0.006 arb.units.
STATUS     (CURVE) Fig.6 upper of J,ZP/A,312,43,1983
COMMENT    Of compiler. Data were digitized and coefficient 4. was
           applied ( as mentioned on Fig.6).
           There are lot of confluent lines, so digitized data are
           rather raw at such points.
REL-REF    (O,,K.Kratz,R,INDC(NDS)-107,103,1979)
           The almost same spectrum is presented on Fig.20d lower.
ENDBIB              16
COMMON               2          3
E-ERR-DIG  ERR-DIG
KEV        ARB-UNITS
0.74       0.0060
ENDCOMMON            3
DATA                 3        692
E-MIN      E-MAX      DATA
KEV        KEV        ARB-UNITS
              2.31    0.4211
   2.31       4.58    1.1443
   4.58       6.32    1.5396
   6.32       6.55    1.7388
   6.55       6.79    2.0636
   6.79       8.55    2.2414
   8.55       9.67    2.4713
   9.67      11.09    2.9523
  11.09      12.53    3.2128
  12.53      13.67    3.4978
  13.67      14.48    3.6848
  14.48      16.51    4.2578
  16.51      17.39    4.3681
  17.39      18.26    4.4540
  18.26      20.44    4.7053
  20.44      22.71    3.8749
  22.71      24.67    3.5226
  24.67      26.69    2.7230
  26.69      28.66    1.8803
  28.66      30.23    1.4974
  30.23      32.72    1.3534
  32.72      33.69    0.9551
  33.69      35.86    0.8203
  35.86      37.10    0.5691
  37.10      39.52    0.5446
  39.52      40.74    0.5141
  40.74      43.15    0.4957
  43.15      44.96    0.5203
  44.96      48.28    0.5449
  48.28      49.20    0.5143
  49.20      51.32    0.4867
  51.32      52.83    0.4684
  52.83      54.96    0.4347
  54.96      58.29    0.3768
  58.29      59.47    0.4052
  59.47      60.68    0.4259
  60.68      63.70    0.4113
  63.70      64.60    0.4167
  64.60      66.09    0.4359
  66.09      66.66    0.4558
  66.66      68.14    0.5010
  68.14      69.32    0.5224
  69.32      71.11    0.5470
  71.11      72.90    0.5677
  72.90      73.78    0.5853
  73.78      74.66    0.6205
  74.66      77.04    0.6466
  77.04      77.92    0.6803
  77.92      78.79    0.7048
  78.79      79.96    0.7424
  79.96      81.43    0.7891
  81.43      82.90    0.8305
  82.90      83.75    0.8673
  83.75      84.89    0.9240
  84.89      86.34    1.0128
  86.34      87.56    1.0335
  87.56      88.78    0.9998
  88.78      89.36    1.0105
  89.36      90.83    1.0435
  90.83      92.29    1.0933
  92.29      92.84    1.1316
  92.84      94.61    1.2051
  94.61      95.81    1.2105
  95.81      98.24    1.2251
  98.24     101.33    1.1776
 101.33     102.91    1.1033
 102.91     103.87    1.0535
 103.87     105.73    0.9815
 105.73     106.67    0.9685
 106.67     108.23    0.9134
 108.23     109.79    0.8613
 109.79     110.75    0.8230
 110.75     112.03    0.7548
 112.03     113.92    0.6805
 113.92     115.17    0.6070
 115.17     117.27    0.6001
 117.27     119.07    0.6201
 119.07     120.26    0.6339
 120.26     121.45    0.6469
 121.45     122.95    0.6691
 122.95     124.46    0.6745
 124.46     126.86    0.6829
 126.86     128.04    0.6929
 128.04     129.21    0.7373
 129.21     130.38    0.7664
 130.38     130.94    0.8139
 130.94     132.75    0.8484
 132.75     133.40    0.8239
 133.40     134.32    0.7665
 134.32     136.13    0.7895
 136.13     137.65    0.7810
 137.65     141.59    0.7634
 141.59     142.54    0.7481
 142.54     144.66    0.6830
 144.66     146.17    0.7328
 146.17     148.89    0.6915
 148.89     150.68    0.7176
 150.68     151.57    0.7329
 151.57     153.06    0.7574
 153.06     154.54    0.7804
 154.54     156.03    0.8026
 156.03     157.21    0.8279
 157.21     161.14    0.8463
 161.14     163.86    0.8394
 163.86     165.09    0.8302
 165.09     166.31    0.8180
 166.31     167.85    0.7935
 167.85     169.06    0.7514
 169.06     170.84    0.7989
 170.84     172.03    0.8089
 172.03     174.42    0.8418
 174.42     175.61    0.8663
 175.61     177.09    0.8817
 177.09     178.58    0.9077
 178.58     180.06    0.9353
 180.06     181.24    0.9606
 181.24     182.11    0.9905
 182.11     182.98    1.0364
 182.98     184.75    1.0701
 184.75     185.32    1.1161
 185.32     186.52    1.1391
 186.52     187.75    1.1238
 187.75     189.58    1.0993
 189.58     191.99    1.0916
 191.99     193.82    1.1008
 193.82     195.37    1.0641
 195.37     196.93    1.0212
 196.93     199.09    0.9752
 199.09     200.65    0.9155
 200.65     202.73    0.8925
 202.73     204.24    0.9738
 204.24     206.05    0.8972
 206.05     206.64    0.9814
 206.64     208.46    0.9240
 208.46     209.93    0.9623
 209.93     211.41    1.0060
 211.41     213.19    1.0320
 213.19     213.76    1.0581
 213.76     215.24    1.0964
 215.24     216.42    1.1179
 216.42     217.60    1.1500
 217.60     218.82    1.1722
 218.82     220.62    1.1409
 220.62     221.21    1.1968
 221.21     222.43    1.1623
 222.43     223.91    1.1776
 223.91     225.11    1.2060
 225.11     226.03    1.1991
 226.03     227.57    1.1792
 227.57     229.39    1.1340
 229.39     231.20    1.1808
 231.20     232.47    1.1348
 232.47     234.06    1.0643
 234.06     235.03    0.9724
 235.03     236.52    0.9433
 236.52     238.33    1.0146
 238.33     239.26    0.9449
 239.26     240.79    0.9648
 240.79     242.02    0.9066
 242.02     243.21    0.9150
 243.21     243.80    0.9541
 243.80     245.29    0.9373
 245.29     246.77    0.9840
 246.77     247.96    0.9970
 247.96     248.51    1.0384
 248.51     249.10    1.0966
 249.10     249.97    1.0752
 249.97     251.16    1.1456
 251.16     252.98    1.1158
 252.98     253.52    1.1342
 253.52     255.26    1.2315
 255.26     256.40    1.2997
 256.40     262.74    1.3426
 262.74     264.64    1.3074
 264.64     266.85    1.1772
 266.85     269.03    1.1136
 269.03     269.71    1.0646
 269.71     272.24    0.9673
 272.24     274.50    0.8241
 274.50     275.48    0.6870
 275.48     276.72    0.6770
 276.72     277.99    0.6196
 277.99     279.56    0.5621
 279.56     280.50    0.5024
 280.50     281.69    0.4963
 281.69     282.90    0.5361
 282.90     283.53    0.4978
 283.53     285.07    0.4748
 285.07     286.58    0.4503
 286.58     288.39    0.4741
 288.39     289.92    0.4565
 289.92     291.73    0.4327
 291.73     292.91    0.4626
 292.91     294.42    0.4764
 294.42     295.60    0.4810
 295.60     296.77    0.5224
 296.77     297.70    0.5538
 297.70     299.54    0.4818
 299.54     300.13    0.4910
 300.13     302.23    0.5194
 302.23     304.02    0.5286
 304.02     304.90    0.5508
 304.90     306.39    0.5753
 306.39     308.49    0.5914
 308.49     309.98    0.6037
 309.98     311.18    0.6228
 311.18     313.00    0.6389
 313.00     313.64    0.6022
 313.64     316.06    0.5631
 316.06     316.96    0.5999
 316.96     318.49    0.5762
 318.49     321.20    0.5624
 321.20     322.07    0.5961
 322.07     323.90    0.6260
 323.90     326.00    0.5601
 326.00     326.90    0.6589
 326.90     328.14    0.5778
 328.14     329.02    0.5962
 329.02     330.21    0.6138
 330.21     331.09    0.6429
 331.09     332.25    0.6697
 332.25     334.64    0.7364
 334.64     335.87    0.7234
 335.87     336.50    0.6835
 336.50     338.00    0.6667
 338.00     339.51    0.7081
 339.51     341.01    0.6790
 341.01     342.20    0.7111
 342.20     343.97    0.7372
 343.97     345.19    0.7801
 345.19     346.11    0.7196
 346.11     347.03    0.7518
 347.03     349.14    0.6997
 349.14     350.01    0.7480
 350.01     351.51    0.7710
 351.51     353.00    0.7771
 353.00     353.88    0.8001
 353.88     355.39    0.8369
 355.39     356.60    0.8001
 356.60     357.76    0.8369
 357.76     358.30    0.8928
 358.30     359.82    0.9549
 359.82     361.05    0.8706
 361.05     362.56    0.9166
 362.56     363.79    0.8721
 363.79     365.27    0.8752
 365.27     367.37    0.9273
 367.37     368.92    0.9059
 368.92     370.19    0.8469
 370.19     371.44    0.7895
 371.44     373.88    0.7619
 373.88     375.12    0.7489
 375.12     376.09    0.6945
 376.09     378.83    0.6310
 378.83     379.38    0.6562
 379.38     380.87    0.7252
 380.87     381.80    0.7037
 381.80     383.34    0.6777
 383.34     385.15    0.6517
 385.15     386.66    0.6731
 386.66     387.59    0.6578
 387.59     388.80    0.6256
 388.80     390.01    0.6425
 390.01     391.56    0.6149
 391.56     392.84    0.5705
 392.84     395.00    0.4878
 395.00     397.12    0.4794
 397.12     399.84    0.4672
 399.84     402.23    0.4878
 402.23     403.42    0.5039
 403.42     404.91    0.5231
 404.91     406.10    0.5461
 406.10     408.80    0.5622
 408.80     409.99    0.5844
 409.99     410.56    0.6097
 410.56     413.28    0.6327
 413.28     415.69    0.6151
 415.69     417.79    0.6373
 417.79     419.24    0.6603
 419.24     420.39    0.7469
 420.39     421.87    0.7668
 421.87     422.73    0.8036
 422.73     425.04    0.8618
 425.04     426.75    1.0158
 426.75     428.21    1.0633
 428.21     429.33    1.1192
 429.33     431.06    1.2265
 431.06     432.84    1.3039
 432.84     434.35    1.2786
 434.35     436.18    1.2978
 436.18     438.31    1.2426
 438.31     439.79    1.2740
 439.79     441.65    1.2978
 441.65     443.25    1.1798
 443.25     444.52    1.1163
 444.52     445.80    1.0680
 445.80     446.76    0.9738
 446.76     448.26    0.9593
 448.26     449.75    0.9922
 449.75     451.24    1.0060
 451.24     451.83    1.0229
 451.83     453.32    1.0382
 453.32     454.52    1.0597
 454.52     456.01    1.0727
 456.01     457.20    1.0934
 457.20     458.72    1.1141
 458.72     461.15    1.0658
 461.15     461.43    1.0858
 461.43     462.32    1.1133
 462.32     463.51    1.1264
 463.51     464.12    1.1363
 464.12     464.77    1.1133
 464.77     466.34    1.0436
 466.34     467.52    1.0099
 467.52     469.31    1.0827
 469.31     470.88    1.0605
 470.88     471.85    0.9709
 471.85     473.97    0.9318
 473.97     475.48    0.9587
 475.48     476.69    0.9380
 476.69     477.91    0.9503
 477.91     478.86    0.9058
 478.86     480.40    0.8698
 480.40     481.63    0.8461
 481.63     482.52    0.8308
 482.52     483.38    0.8867
 483.38     485.48    0.9212
 485.48     485.81    0.9097
 485.81     487.03    0.8638
 487.03     488.54    0.8852
 488.54     489.79    0.8592
 489.79     491.03    0.8186
 491.03     495.23    0.7903
 495.23     497.41    0.7780
 497.41     498.65    0.7520
 498.65     499.54    0.7152
 499.54     501.28    0.7972
 501.28     502.80    0.8416
 502.80     504.62    0.7957
 504.62     505.52    0.8171
 505.52     506.42    0.8026
 506.42     508.21    0.8233
 508.21     509.69    0.8517
 509.69     509.95    0.8907
 509.95     512.67    0.9237
 512.67     513.33    0.8946
 513.33     515.81    0.8241
 515.81     517.66    0.7475
 517.66     519.16    0.7598
 519.16     520.66    0.7644
 520.66     522.16    0.7912
 522.16     522.79    0.7767
 522.79     524.03    0.7384
 524.03     525.22    0.7246
 525.22     526.69    0.7660
 526.69     528.82    0.7989
 528.82     530.95    0.7331
 530.95     531.82    0.7890
 531.82     533.30    0.8012
 533.30     535.11    0.8503
 535.11     536.63    0.8020
 536.63     538.12    0.8197
 538.12     539.30    0.8381
 539.30     540.15    0.8902
 540.15     541.90    0.9400
 541.90     542.13    1.0204
 542.13     544.19    1.0733
 544.19     545.00    1.1338
 545.00     545.46    1.2648
 545.46     547.84    1.4027
 547.84     549.66    1.3529
 549.66     552.35    1.3843
 552.35     553.58    1.4020
 553.58     554.85    1.3506
 554.85     556.38    1.2687
 556.38     557.59    1.3070
 557.59     559.44    1.2810
 559.44     560.70    1.2319
 560.70     561.94    1.1783
 561.94     564.40    1.1668
 564.40     564.77    1.1048
 564.77     566.35    1.0236
 566.35     569.44    0.9746
 569.44     571.29    0.8865
 571.29     571.85    0.8942
 571.85     572.74    0.9769
 572.74     574.52    0.9333
 574.52     575.66    1.0206
 575.66     576.80    1.0788
 576.80     578.22    1.1493
 578.22     579.67    1.2497
 579.67     580.49    1.2750
 580.49     582.56    1.4343
 582.56     584.74    1.3432
 584.74     585.73    1.3164
 585.73     589.14    1.1793
 589.14     591.66    1.1433
 591.66     594.53    0.9717
 594.53     595.79    0.8446
 595.79     596.39    0.8683
 596.39     598.55    0.8568
 598.55     600.39    0.7810
 600.39     600.98    0.7925
 600.98     601.87    0.8155
 601.87     602.78    0.8239
 602.78     604.59    0.8017
 604.59     605.47    0.8400
 605.47     606.70    0.8500
 606.70     608.53    0.7979
 608.53     610.94    0.8171
 610.94     613.07    0.7918
 613.07     614.88    0.8064
 614.88     616.42    0.7918
 616.42     617.08    0.7421
 617.08     618.64    0.6831
 618.64     619.88    0.6540
 619.88     621.08    0.6095
 621.08     623.49    0.6777
 623.49     626.55    0.6295
 626.55     627.49    0.5797
 627.49     629.29    0.5682
 629.29     630.84    0.6088
 630.84     632.39    0.4985
 632.39     633.25    0.5261
 633.25     634.73    0.5813
 634.73     636.26    0.5890
 636.26     637.48    0.5315
 637.48     638.68    0.5805
 638.68     639.60    0.5453
 639.60     640.18    0.5584
 640.18     641.08    0.5737
 641.08     642.27    0.5898
 642.27     643.48    0.6059
 643.48     645.01    0.5775
 645.01     646.21    0.5668
 646.21     647.99    0.5998
 647.99     649.16    0.6289
 649.16     650.64    0.6641
 650.64     653.05    0.6978
 653.05     654.62    0.6749
 654.62     657.36    0.5738
 657.36     659.17    0.6458
 659.17     661.32    0.5822
 661.32     663.15    0.5761
 663.15     665.56    0.5485
 665.56     667.37    0.5815
 667.37     668.01    0.5616
 668.01     669.85    0.4988
 669.85     671.03    0.5226
 671.03     672.23    0.5341
 672.23     673.42    0.5509
 673.42     674.31    0.5655
 674.31     676.11    0.5808
 676.11     681.55    0.5923
 681.55     683.64    0.5870
 683.64     684.52    0.6215
 684.52     686.04    0.6398
 686.04     687.87    0.6016
 687.87     689.06    0.6115
 689.06     690.25    0.6337
 690.25     691.14    0.6552
 691.14     692.36    0.6621
 692.36     694.17    0.6307
 694.17     695.33    0.6698
 695.33     697.43    0.7372
 697.43     699.59    0.6836
 699.59     701.12    0.6591
 701.12     702.06    0.6262
 702.06     703.88    0.6017
 703.88     705.99    0.6170
 705.99     707.24    0.5986
 707.24     708.79    0.5389
 708.79     711.24    0.5174
 711.24     713.38    0.4784
 713.38     715.52    0.4593
 715.52     717.33    0.4470
 717.33     718.23    0.4516
 718.23     719.41    0.4646
 719.41     720.91    0.5053
 720.91     722.72    0.4853
 722.72     724.22    0.4991
 724.22     725.10    0.5183
 725.10     726.29    0.5421
 726.29     728.40    0.5566
 728.40     728.68    0.5658
 728.68     729.85    0.5949
 729.85     730.73    0.6325
 730.73     731.62    0.6601
 731.62     732.86    0.6539
 732.86     734.39    0.5942
 734.39     734.95    0.6256
 734.95     735.53    0.6670
 735.53     737.66    0.6792
 737.66     740.09    0.6371
 740.09     742.80    0.6509
 742.80     744.91    0.6601
 744.91     746.13    0.6487
 746.13     747.66    0.6334
 747.66     748.89    0.6242
 748.89     750.70    0.5928
 750.70     752.84    0.6188
 752.84     754.99    0.5353
 754.99     757.11    0.5537
 757.11     758.35    0.5354
 758.35     759.29    0.4894
 759.29     761.12    0.4764
 761.12     762.34    0.4450
 762.34     764.17    0.4374
 764.17     766.30    0.4251
 766.30     768.42    0.4159
 768.42     770.23    0.3953
 770.23     772.66    0.4206
 772.66     773.58    0.3876
 773.58     775.39    0.3823
 775.39     778.40    0.3969
 778.40     781.73    0.4045
 781.73     784.45    0.3839
 784.45     785.04    0.3961
 785.04     785.92    0.4160
 785.92     788.03    0.4292
 788.03     789.48    0.4421
 789.48     792.47    0.5417
 792.47     794.27    0.5142
 794.27     795.41    0.5624
 795.41     796.27    0.6398
 796.27     798.09    0.6574
 798.09     799.90    0.6283
 799.90     801.41    0.6575
 801.41     802.97    0.6345
 802.97     804.79    0.5541
 804.79     806.27    0.6276
 806.27     808.40    0.5954
 808.40     809.89    0.6115
 809.89     811.42    0.6200
 811.42     813.82    0.5878
 813.82     815.66    0.6376
 815.66     817.20    0.5403
 817.20     821.40    0.5848
 821.40     823.23    0.5879
 823.23     824.46    0.5465
 824.46     826.61    0.5580
 826.61     829.99    0.4784
 829.99     832.78    0.4401
 832.78     836.15    0.3459
 836.15     837.99    0.3383
 837.99     840.13    0.2931
 840.13     842.26    0.2870
 842.26     843.51    0.2494
 843.51     845.33    0.2127
 845.33     846.83    0.2426
 846.83     849.54    0.2303
 849.54     851.04    0.2594
 851.04     852.55    0.2380
 852.55     853.74    0.2687
 853.74     856.18    0.2786
 856.18     858.62    0.2143
 858.62     860.12    0.2419
 860.12     861.04    0.2281
 861.04     862.29    0.2036
 862.29     863.82    0.1722
 863.82     865.33    0.1531
 865.33     868.04    0.1676
 868.04     871.66    0.1853
 871.66     874.36    0.1623
 874.36     876.15    0.2198
 876.15     876.77    0.2091
 876.77     878.59    0.1807
 878.59     879.80    0.1983
 879.80     881.62    0.1907
 881.62     884.35    0.1823
 884.35     886.47    0.1708
 886.47     887.99    0.1601
 887.99     889.81    0.1563
 889.81     892.84    0.1507
 892.84     895.26    0.1287
 895.26     897.35    0.1441
 897.35     899.77    0.1885
 899.77     901.60    0.1211
 901.60     905.80    0.1587
 905.80     907.57    0.1893
 907.57     909.37    0.2299
 909.37     910.61    0.2100
 910.61     913.36    0.1786
 913.36     914.87    0.1350
 914.87     916.04    0.1894
 916.04     917.87    0.2101
 917.87     919.39    0.1435
 919.39     921.20    0.2009
 921.20     923.91    0.1573
 923.91     925.11    0.2002
 925.11     931.18    0.1764
 931.18     933.32    0.1550
 933.32     936.05    0.1060
 936.05     937.87    0.1390
 937.87     939.99    0.1030
 939.99     940.87    0.1313
 940.87     942.65    0.1566
 942.65     943.24    0.1773
 943.24     945.65    0.2017
 945.65     947.48    0.1819
 947.48     949.30    0.1712
 949.30     951.12    0.1574
 951.12     952.61    0.1682
 952.61     953.81    0.1789
 953.81     955.33    0.1904
 955.33     956.84    0.1697
 956.84     958.66    0.1820
 958.66     961.69    0.1659
 961.69     963.53    0.1514
 963.53     965.65    0.1231
 965.65     965.94    0.1300
 965.94     967.12    0.1583
 967.12     968.34    0.1713
 968.34     970.77    0.1407
 970.77     972.58    0.1530
 972.58     974.69    0.1415
 974.69     975.91    0.1584
 975.91     978.62    0.1231
 978.62     979.82    0.1638
 979.82     981.33    0.1454
 981.33     985.26    0.1523
 985.26     987.37    0.1447
 987.37     989.17    0.1585
 989.17     989.75    0.1791
 989.75     990.94    0.2037
 990.94     992.76    0.2144
 992.76     993.65    0.1830
 993.65     995.75    0.2634
 995.75     997.28    0.2060
 997.28     999.11    0.2221
 999.11    1001.80    0.1769
1001.80    1003.60    0.2076
1003.60    1004.80    0.2145
1004.80    1005.70    0.2398
1005.70    1006.90    0.2459
1006.90    1008.70    0.2268
1008.70    1010.30    0.2191
1010.30    1012.10    0.2107
1012.10    1013.60    0.2237
1013.60    1014.80    0.2100
1014.80    1015.80    0.1632
1015.80    1017.30    0.1464
1017.30    1018.80    0.1694
1018.80    1020.60    0.1548
1020.60    1028.45    0.1618
1028.45    1030.60    0.1388
1030.60    1033.90    0.1541
1033.90    1035.10    0.1411
1035.10    1036.60    0.1304
1036.60    1040.55    0.1228
1040.55    1041.70    0.1427
1041.70    1046.60    0.1550
1046.60    1048.70    0.1382
1048.70    1050.80    0.1612
1050.80    1053.50    0.1451
1053.50    1055.00    0.1520
1055.00    1056.80    0.1719
1056.80    1057.75    0.1934
1057.75    1058.70    0.1505
1058.70    1059.90    0.1283
1059.90    1061.40    0.1153
1061.40    1062.90    0.1482
1062.90    1064.70    0.1766
1064.70    1068.05    0.1429
1068.05    1070.45    0.1237
1070.45    1072.90    0.1552
1072.90    1073.50    0.1276
1073.50    1075.60    0.0893
1075.60    1079.90    0.1047
1079.90    1083.20    0.1001
1083.20    1085.60    0.0825
1085.60    1086.80    0.0947
1086.80    1088.30    0.1124
1088.30    1090.40    0.1338
1090.40    1092.80    0.1178
1092.80    1095.80    0.1231
1095.80    1097.35    0.1377
1097.35    1099.20    0.1140
1099.20    1100.70    0.1324
1100.70    1102.50    0.1469
1102.50    1102.80    0.1393
1102.80    1104.30    0.1140
1104.30    1105.80    0.1041
1105.80    1107.60    0.1232
1107.60    1110.00    0.1608
1110.00    1117.90    0.1294
1117.90    1118.80    0.1248
1118.80    1121.50    0.1118
1121.50    1124.50    0.1494
1124.50    1128.45    0.1448
1128.45    1130.90    0.1333
1130.90    1135.10    0.1433
ENDDATA            694
ENDSUBENT          719
SUBENT        23242003   20150522   20160302   20151123       2244
BIB                  8         13
REACTION   (37-RB-95(0,B-)38-SR-95,,PN/DE,,REL)
            Relative beta- delayed neutrons spectrum in arb.units.
DECAY-DATA (37-RB-95,377.MSEC)
DETECTOR   (GLASD) Li-glass scintillator at TOF technique
EN-SEC     (E,N) Energy of delayed neutrons.
ERR-ANALYS (E-ERR-DIG) Digitizing error of E ( X scale)
           (ERR-DIG)    Digitizing error of DATA ( Y scale)
           Quantization errors:
           scale X - 0.045 keV, scale Y - 0.015 arb.units.
STATUS     (CURVE) Fig.6 upper insert of J,ZP/A,312,43,1983
COMMENT    Of authors. FWHM of 13.7 keV peak is 0.9 keV.
REL-REF    (O,,K.Kratz,R,INDC(NDS)-107,103,1979)
            The same data in earlier publication on Fig. 7 .
ENDBIB              13
COMMON               2          3
E-ERR-DIG  ERR-DIG
KEV        ARB-UNITS
0.045       0.0140
ENDCOMMON            3
DATA                 3        108
E-MIN      E-MAX      DATA
KEV        KEV        ARB-UNITS
            10.120    0.8865
10.120      10.432    0.7756
10.432      10.495    0.9388
10.495      10.626    1.3463
10.626      10.804    1.5465
10.804      10.916    1.4355
10.916      11.385    1.3322
11.385      11.497    1.2288
11.497      11.587    1.1474
11.587      11.677    1.0512
11.677      11.790    0.9402
11.790      11.945    0.8588
11.945      12.056    0.9627
12.056      12.188    1.0518
12.188      12.255    1.1111
12.255      12.366    1.1631
12.366      12.476    1.2447
12.476      12.589    1.1929
12.589      12.658    1.0227
12.658      12.792    0.8672
12.792      12.857    0.9192
12.857      12.966    1.1490
12.966      13.053    1.2898
13.053      13.119    1.6454
13.119      13.183    1.5122
13.183      13.266    2.0456
13.266      13.303    2.9197
13.303      13.430    3.4605
13.430      13.537    4.2163
13.537      13.627    4.3868
13.627      13.719    3.9572
13.719      13.833    3.8610
13.833      13.927    3.5130
13.927      14.000    2.8168
14.000      14.207    2.2095
14.207      14.323    1.5578
14.323      14.438    1.1506
14.438      14.552    0.8988
14.552      14.643    0.6989
14.643      14.733    0.4916
14.733      14.823    0.4621
14.823      14.934    0.4252
14.934      15.046    0.3586
15.046      15.225    0.3218
15.225      15.359    0.2849
15.359      15.782    0.2556
15.782      16.406    0.2191
16.406      16.895    0.2494
16.895      17.274    0.2943
17.274      17.451    0.3243
17.451      17.563    0.3614
17.563      17.675    0.3172
17.675      17.831    0.2506
17.831      17.988    0.1989
17.988      18.299    0.1548
18.299      18.411    0.1698
18.411      18.566    0.2218
18.566      18.766    0.2442
18.766      19.545    0.2966
19.545      19.857    0.2528
19.857      20.148    0.2309
20.148      20.303    0.1867
20.303      20.571    0.1499
20.571      20.660    0.1797
20.660      20.882    0.2170
20.882      21.082    0.2839
21.082      21.282    0.3285
21.282      21.370    0.3806
21.370      21.459    0.4325
21.459      21.592    0.4993
21.592      21.704    0.4550
21.704      21.816    0.4032
21.816      21.950    0.3664
21.950      22.217    0.2703
22.217      22.373    0.3668
22.373      22.483    0.4114
22.483      22.661    0.4856
22.661      23.774    0.4493
23.774      24.197    0.4872
24.197      24.420    0.5172
24.420      24.620    0.5545
24.620      24.753    0.5917
24.753      24.953    0.6215
24.953      25.131    0.6588
25.131      25.220    0.6812
25.220      25.353    0.7183
25.353      25.419    0.7406
25.419      25.486    0.7852
25.486      25.641    0.8149
25.641      25.953    0.8522
25.953      26.153    0.8229
26.153      26.288    0.7860
26.288      26.377    0.7565
26.377      26.511    0.7122
26.511      26.645    0.6679
26.645      26.779    0.6236
26.779      26.869    0.5645
26.869      26.981    0.5127
26.981      27.071    0.4314
27.071      27.294    0.3945
27.294      27.672    0.3652
27.672      28.095    0.3953
28.095      28.340    0.4327
28.340      28.630    0.3959
28.630      29.009    0.3593
29.009      29.187    0.3892
29.187      29.499    0.3599
29.499      29.788    0.3380
ENDDATA            110
ENDSUBENT          132
SUBENT        23242004   20150522   20160302   20151123       2244
BIB                  7         12
REACTION   (37-RB-95(0,B-)38-SR-95,,PN/DE,,REL)
            Relative beta- delayed neutrons spectrum in arb.units.
DECAY-DATA (37-RB-95,377.MSEC)
DETECTOR   (SCIN) NE213 liquid scintillator with TOF .
EN-SEC     (E,N) Energy of delayed neutrons.
ERR-ANALYS (E-ERR-DIG) Digitizing error of E ( X scale)
           (ERR-DIG)    Digitizing error of DATA ( Y scale)
           Quantization errors:
           scale X - 0.604 keV, scale Y - 0.006 arb.units.
STATUS     (CURVE) Fig.6 lower of J,ZP/A,312,43,1983
REL-REF    (O,,K.Kratz,R,INDC(NDS)-107,103,1979)
            Earlier preliminary publication for Rb-95 on Fig. 6 .
ENDBIB              12
COMMON               2          3
E-ERR-DIG  ERR-DIG
KEV        ARB-UNITS
0.88       0.016
ENDCOMMON            3
DATA                 3         82
E-MIN      E-MAX      DATA
KEV        KEV        ARB-UNITS
            181.57       0.047
  181.57    185.06       2.865
  185.06    189.90       3.317
  189.90    190.55       2.835
  190.55    193.00       2.048
  193.00    194.50       2.119
  194.50    198.70       2.134
  198.70    204.72       2.905
  204.72    210.43       2.749
  210.43    213.75       3.370
  213.75    214.75       2.798
  214.75    214.82       1.046
  214.82    216.93       1.283
  216.93    218.72       1.049
  218.72    223.50       1.658
  223.50    224.61       2.359
  224.61    229.73       4.147
  229.73    234.60       2.814
  234.60    239.71       3.136
  239.71    245.41       3.385
  245.41    249.30       4.240
  249.30    251.44       4.212
  251.44    254.58       3.662
  254.58    258.32       1.006
  258.32    263.16       0.887
  263.16    264.99       0.841
  264.99    269.21       0.493
  269.21    273.12       1.016
  273.12    274.95       0.856
  274.95    278.53       0.650
  278.53    283.65       1.913
  283.65    288.49       1.016
  288.49    293.30       1.708
  293.30    298.12       1.658
  298.12    306.60       1.969
  306.60    315.65       0.866
  315.65    327.68       2.298
  327.68    336.76       2.101
  336.76    347.30       2.028
  347.30    357.55       2.753
  357.55    367.57       2.403
  367.57    376.67       1.493
  376.67    386.91       1.376
  386.91    398.05       2.117
  398.05    407.38       2.277
  407.38    416.98       3.110
  416.98    427.24       3.725
  427.24    438.44       3.175
  438.44    447.20       3.113
  447.20    457.78       3.239
  457.78    467.17       2.723
  467.17    478.03       2.643
  478.03    488.28       3.083
  488.28    497.35       3.052
  497.35    507.01       2.972
  507.01    515.73       3.077
  515.73    526.23       3.978
  526.23    536.78       4.789
  536.78    546.79       4.337
  546.79    556.46       3.981
  556.46    566.42       4.043
  566.42    575.50       4.218
  575.50    587.02       3.551
  587.02    596.42       2.970
  596.42    610.93       2.727
  610.93    630.55       2.476
  630.55    650.49       2.977
  650.49    669.84       2.485
  669.84    690.07       2.424
  690.07    709.99       2.532
  709.99    729.63       2.778
  729.63    767.11       2.255
  767.11    786.15       2.123
  786.15    807.62       1.915
  807.62    827.59       1.318
  827.59    846.63       1.060
  846.63    876.23       0.959
  876.23    920.02       0.935
  920.02    970.46       1.068
  970.46   1020.30       0.954
 1020.30   1119.40       0.712
 1119.40   1135.70       0.633
ENDDATA             84
ENDSUBENT          105
SUBENT        23242005   20150522   20160302   20151123       2244
BIB                  9         17
REACTION   (37-RB-97(0,B-)38-SR-97,,PN/DE,,REL)
            Relative beta- delayed neutrons spectrum in arb.units.
DECAY-DATA (37-RB-97,168.MSEC)
DETECTOR   (HE3SP) He-3 ionization chambers.
CORRECTION  For complete detector response.
EN-SEC     (E,N) Energy of delayed neutrons.
ERR-ANALYS (E-ERR-DIG) Digitizing error of E ( X scale)
           (ERR-DIG)    Digitizing error of DATA ( Y scale)
           Quantization errors:
           scale X - 0.94 keV, scale Y - 0.014 arb.units.
STATUS     (CURVE) Fig.9 of J,ZP/A,312,43,1983
REL-REF    (O,,K.Kratz,R,INDC(NDS)-107,103,1979)
            The same data in earlier publication, Fig. 21 left .
COMMENT    On insert of Fig.9 - the low-energy ( 0-160 keV) part
           of pulse height distribution ( counts per 4 keV) after
           subtraction of the thermal neutron peak is given as
           histogram.
ENDBIB              17
COMMON               2          3
E-ERR-DIG  ERR-DIG
KEV        ARB-UNITS
0.74        0.037
ENDCOMMON            3
DATA                 3        356
E-MIN      E-MAX      DATA
KEV        KEV        ARB-UNITS
   0.01       0.01     0.018
   0.01       4.34     0.694
   4.34       7.98     2.152
   7.98       8.82     2.533
   8.82      12.91     3.914
  12.91      16.13     4.724
  16.13      17.97     5.083
  17.97      21.24     5.189
  21.24      23.10     5.217
  23.10      29.63     5.450
  29.63      31.48     5.682
  31.48      33.33     5.739
  33.33      37.52     6.063
  37.52      40.34     6.119
  40.34      45.05     5.936
  45.05      47.41     5.647
  47.41      49.75     5.598
  49.75      52.56     5.542
  52.56      56.75     5.584
  56.75      60.89     6.035
  60.89      63.60     6.796
  63.60      67.73     7.817
  67.73      69.08     8.360
  69.08      72.31     8.677
  72.31      76.47     9.304
  76.47      80.19     9.614
  80.19      84.41     9.685
  84.41      86.76     9.558
  86.76      88.66     9.516
  88.66      91.97     9.051
  91.97      94.32     8.910
  94.32      96.64     8.861
  96.64     100.82     9.171
 100.82     105.95     9.516
 105.95     109.69     9.587
 109.69     111.58     9.425
 111.58     113.47     9.361
 113.47     115.83     9.178
 115.83     118.67     8.847
 118.67     121.01     8.671
 121.01     123.35     8.826
 123.35     126.16     8.643
 126.16     128.47     8.869
 128.47     131.73     9.101
 131.73     133.59     9.256
 133.59     138.74     9.298
 138.74     141.08     9.284
 141.08     143.89     9.228
 143.89     148.08     9.355
 148.08     151.31     9.566
 151.31     155.93    10.236
 155.93     159.14    10.694
 159.14     161.44    11.349
 161.44     166.13    11.476
 166.13     168.03    11.110
 168.03     170.88    11.053
 170.88     174.69    10.419
 174.69     180.38     9.856
 180.38     184.65     9.081
 184.65     192.61     8.743
 192.61     195.39     9.011
 195.39     199.56     9.335
 199.56     203.75     9.681
 203.75     207.52     9.758
 207.52     211.30     9.300
 211.30     216.00     8.998
 216.00     220.22     8.941
 220.22     224.41     8.857
 224.41     227.61     9.491
 227.61     230.86     10.15
 230.86     239.30     10.07
 239.30     246.33     9.921
 246.33     251.00     9.794
 251.00     255.17     9.985
 255.17     258.84    10.633
 258.84     262.06    11.359
 262.06     265.29    11.577
 265.29     268.95    12.352
 268.95     274.08    13.092
 274.08     277.40    12.606
 277.40     281.21    12.282
 281.21     285.49    11.415
 285.49     288.30    11.127
 288.30     290.18    11.289
 290.18     294.39    11.113
 294.39     297.20    11.282
 297.20     300.48    11.050
 300.48     304.70    11.275
 304.70     308.00    11.007
 308.00     312.27    10.740
 312.27     317.04     9.902
 317.04     320.84     9.183
 320.84     325.54     8.909
 325.54     329.75     8.803
 329.75     333.97     8.916
 333.97     337.23     8.803
 337.23     340.48     9.085
 340.48     344.67     9.290
 344.67     348.44     9.466
 348.44     352.23     8.902
 352.23     356.02     8.600
 356.02     360.27     8.184
 360.27     364.53     7.860
 364.53     368.32     7.290
 368.32     371.61     7.036
 371.61     375.81     7.128
 375.81     380.95     7.170
 380.95     385.63     7.325
 385.63     388.45     7.170
 388.45     392.18     7.030
 392.18     399.64     7.445
 399.64     403.80     7.636
 403.80     408.41     8.340
 408.41     413.51     8.960
 413.51     417.20     9.249
 417.20     419.95     9.982
 419.95     425.08    10.285
 425.08     428.85    10.144
 428.85     433.11     9.975
 433.11     437.40     9.207
 437.40     440.73     8.595
 440.73     444.05     8.193
 444.05     447.35     7.890
 447.35     451.59     7.735
 451.59     454.88     7.412
 454.88     459.09     7.496
 459.09     460.98     7.384
 460.98     463.79     7.165
 463.79     467.50     7.440
 467.50     471.21     7.799
 471.21     475.89     7.962
 475.89     484.32     7.793
 484.32     488.07     7.828
 488.07     491.36     7.863
 491.36     495.59     7.469
 495.59     500.72     7.694
 500.72     504.01     7.666
 504.01     511.05     7.476
 511.05     516.67     7.427
 516.67     523.23     7.315
 523.23     527.48     7.258
 527.48     534.06     6.794
 534.06     537.36     6.716
 537.36     541.12     6.435
 541.12     543.93     6.294
 543.93     544.85     6.512
 544.85     548.13     6.562
 548.13     553.77     6.428
 553.77     557.08     6.033
 557.08     560.38     5.794
 560.38     564.62     5.724
 564.62     568.86     5.301
 568.86     572.15     5.238
 572.15     575.89     5.118
 575.89     580.55     5.309
 580.55     583.83     5.337
 583.83     591.75     5.379
 591.75     596.88     5.887
 596.88     601.07     5.774
 601.07     605.71     6.373
 605.71     609.90     6.493
 609.90     613.14     6.775
 613.14     624.38     7.071
 624.38     628.15     6.747
 628.15     633.31     6.543
 633.31     636.58     6.620
 636.58     640.81     6.486
 640.81     646.47     6.367
 646.47     648.83     5.796
 648.83     653.48     5.994
 653.48     658.16     6.219
 658.16     661.43     6.078
 661.43     665.15     6.290
 665.15     669.35     6.593
 669.35     674.05     6.459
 674.05     677.36     6.241
 677.36     679.25     5.959
 679.25     682.09     5.910
 682.09     684.94     5.375
 684.94     696.66     5.121
 696.66     699.01     5.051
 699.01     705.10     4.995
 705.10     709.33     4.798
 709.33     716.34     4.854
 716.34     721.03     4.812
 721.03     726.63     4.791
 726.63     732.25     4.974
 732.25     734.60     4.784
 734.60     737.88     4.742
 737.88     740.68     4.925
 740.68     749.13     4.728
 749.13     753.34     4.489
 753.34     761.29     4.728
 761.29     768.78     4.792
 768.78     773.00     4.630
 773.00     776.75     4.729
 776.75     781.45     4.482
 781.45     786.14     4.398
 786.14     789.89     4.264
 789.89     794.57     4.370
 794.57     797.37     4.236
 797.37     802.05     4.398
 802.05     804.40     4.250
 804.40     809.55     4.314
 809.55     814.71     4.159
 814.71     818.94     4.096
 818.94     822.69     3.983
 822.69     827.39     3.864
 827.39     830.68     3.765
 830.68     838.63     3.617
 838.63     841.44     3.786
 841.44     846.58     3.667
 846.58     850.30     3.899
 850.30     854.02     4.054
 854.02     857.26     4.442
 857.26     860.99     4.703
 860.99     866.15     4.604
 866.15     869.42     4.513
 869.42     873.63     4.752
 873.63     877.40     4.555
 877.40     885.85     4.267
 885.85     890.55     4.119
 890.55     894.75     4.013
 894.75     898.01     4.175
 898.01     901.76     4.366
 901.76     905.05     4.140
 905.05     909.74     4.056
 909.74     914.45     3.971
 914.45     917.29     3.605
 917.29     922.47     3.338
 922.47     925.31     2.943
 925.31     928.12     2.887
 928.12     934.21     2.958
 934.21     953.41     2.810
 953.41     962.31     2.747
 962.31     968.41     2.571
 968.41     973.10     2.451
 973.10     977.32     2.409
 977.32     989.50     2.276
 989.50     993.23     2.339
 993.23     997.92     2.473
 997.92    1005.00     2.227
1005.00    1012.90     2.164
1012.90    1016.20     2.114
1016.20    1020.90     2.199
1020.90    1025.10     2.171
1025.10    1028.85     2.051
1028.85    1037.70     2.122
1037.70    1041.50     2.023
1041.50    1045.25     1.946
1045.25    1049.45     1.855
1049.45    1059.30     1.728
1059.30    1064.90     1.777
1064.90    1073.35     1.637
1073.35    1077.55     1.799
1077.55    1085.05     1.651
1085.05    1090.20     1.560
1090.20    1093.95     1.609
1093.95    1104.25     1.652
1104.25    1110.35     1.546
1110.35    1113.60     1.377
1113.60    1118.30     1.455
1118.30    1122.05     1.497
1122.05    1124.85     1.455
1124.85    1134.20     1.357
1134.20    1137.50     1.392
1137.50    1140.80     1.491
1140.80    1150.15     1.427
1150.15    1153.45     1.251
1153.45    1165.10     1.393
1165.10    1174.05     1.294
1174.05    1177.75     1.428
1177.75    1181.55     1.294
1181.55    1186.70     1.245
1186.70    1189.00     1.189
1189.00    1193.20     1.323
1193.20    1197.90     1.372
1197.90    1201.60     1.400
1201.60    1207.30     1.316
1207.30    1211.00     1.267
1211.00    1214.30     1.225
1214.30    1221.75     1.331
1221.75    1230.20     1.232
1230.20    1233.95     1.204
1233.95    1237.65     1.275
1237.65    1245.70     1.127
1245.70    1249.85     0.979
1249.85    1254.55     1.099
1254.55    1256.90     0.965
1256.90    1265.35     1.036
1265.35    1288.70     0.959
1288.70    1293.40     0.818
1293.40    1297.20     0.959
1297.20    1300.45     0.847
1300.45    1309.80     0.776
1309.80    1314.00     0.875
1314.00    1317.30     0.713
1317.30    1324.80     0.756
1324.80    1329.00     1.037
1329.00    1337.40     0.833
1337.40    1345.85     0.953
1345.85    1349.60     0.791
1349.60    1353.30     0.911
1353.30    1357.10     0.806
1357.10    1361.75     0.764
1361.75    1365.05     1.010
1365.05    1373.90     0.940
1373.90    1376.70     0.806
1376.70    1380.95     0.933
1380.95    1386.55     0.975
1386.55    1390.30     0.863
1390.30    1394.50     0.997
1394.50    1397.80     0.856
1397.80    1403.40     0.969
1403.40    1407.60     0.941
1407.60    1411.40     0.899
1411.40    1415.10     0.863
1415.10    1417.90     0.920
1417.90    1422.15     0.681
1422.15    1425.40     0.885
1425.40    1428.70     0.737
1428.70    1431.00     0.822
1431.00    1432.90     0.864
1432.90    1436.20     0.751
1436.20    1439.50     0.674
1439.50    1442.30     0.801
1442.30    1446.00     0.850
1446.00    1462.90     0.681
1462.90    1473.65     0.823
1473.65    1476.90     0.788
1476.90    1481.10     0.647
1481.10    1485.30     0.872
1485.30    1495.60     0.689
1495.60    1501.30     0.746
1501.30    1505.45     0.612
1505.45    1517.65     0.725
1517.65    1530.30     0.634
1530.30    1536.80     0.585
1536.80    1542.90     0.705
1542.90    1555.55     0.627
1555.55    1563.00     0.656
1563.00    1570.05     0.705
1570.05    1573.85     0.536
1573.85    1577.10     0.635
1577.10    1580.80     0.537
1580.80    1595.80     0.635
1595.80    1598.60     0.523
1598.60    1601.90     0.488
1601.90    1604.20     0.621
1604.20    1614.50     0.551
1614.50    1618.75     0.608
1618.75    1623.00     0.643
1623.00    1632.80     0.573
1632.80    1637.95     0.460
1637.95    1640.30     0.552
1640.30                0.594
ENDDATA            358
ENDSUBENT          384
SUBENT        23242006   20150522   20160302   20151123       2244
BIB                  7         18
REACTION   (37-RB-95(0,B-)38-SR-95,,PN/DE,,REL/MSC)
            Relative beta- delayed neutrons spectrum in arb.units
           for ground state in residual nucleus Sr-94.
DECAY-DATA (37-RB-95,377.MSEC)
ANALYSIS   Partial spectrum to ground state was derived by
           subtracting all n-gamma coincidence spectra weighted
           according to their integral branching ratios Pn-i from
           the singles neutron spectrum.
EN-SEC     (E,N) Energy of delayed neutrons.
           (E-LVL,38-SR-94)
ERR-ANALYS (E-ERR-DIG) Digitizing error of E ( X scale)
           (ERR-DIG)    Digitizing error of DATA ( Y scale)
           Quantization errors:
           scale X - 0.84  keV, scale Y - 0.144 arb.units.
           (DATA-ERR) Not specified.
STATUS     (CURVE) Fig.7 lower of J,ZP/A,312,43,1983
REL-REF    (O,,K.Kratz,R,INDC(NDS)-107,103,1979)
            The same data in earlier publication, Fig. 23 lower .
ENDBIB              18
COMMON               3          3
E-ERR-DIG  ERR-DIG    E-LVL
KEV        ARB-UNITS  KEV
 1.52      0.429       0.
ENDCOMMON            3
DATA                 4        120
E-MIN      E-MAX      DATA       DATA-ERR
KEV        KEV        ARB-UNITS  ARB-UNITS
   0.34      10.43       2.069
  10.43      21.09       4.015
  21.09      31.36      88.361     2.015
  31.36      46.30      77.353     2.447
  46.30      59.57      19.998
  59.57      70.53       4.887     2.591
  70.53      81.89      11.870
  81.89      94.89       2.229     3.165
  94.89     105.75      22.454
 105.75     117.52      25.839     3.598
 117.52     130.17      24.401
 130.17     141.13      16.775
 141.13     153.73      15.122
 153.73     166.32      21.746
 166.32     178.53      23.331
 178.53     189.86      16.353
 189.86     201.63      30.964
 201.63     214.26      16.429
 214.26     227.29      27.946
 227.29     238.24      19.744
 238.24     259.64      21.258
 259.64     271.79      34.431
 271.79     285.71      35.729     4.894
 285.71     299.67      21.915
 299.67     309.78      11.122
 309.78     321.55      15.514
 321.55     332.49      10.766
 332.49     354.71      14.008
 354.71     368.54      31.787     6.045
 368.54     393.40      28.048
 393.40     403.97      15.385
 403.97     415.32      12.724
 415.32     428.31      15.822
 428.31     441.72      27.843
 441.72     462.71      28.997
 462.71     476.15      38.572     5.326
 476.15     488.83      35.120
 488.83     501.05      19.649
 501.05     522.45      26.921
 522.45     533.38      32.609
 533.38     547.23      29.662
 547.23     559.38      40.603
 559.38     571.19      44.419     5.470
 571.19     583.83      28.805
 583.83     594.32      37.227     4.749
 594.32     606.97      35.142
 606.97     631.85      26.870
 631.85     653.74      15.863
 653.74     668.03      17.234
 668.03     681.05      19.899
 681.05     691.57      21.556
 691.57     703.38      15.585
 703.38     714.74      14.076
 714.74     727.37      10.768
 727.37     739.14      12.354
 739.14     751.75      10.557
 751.75     763.08      13.582
 763.08     775.30      16.750
 775.30     787.52       7.397
 787.52     797.58       8.982
 797.58     808.93      15.965
 808.93     821.14      10.282
 821.14     833.75      15.034
 833.75     845.11      11.006
 845.11     858.18      12.736
 858.18     871.67       1.943
 871.67     881.75       0.
 881.75     893.52       6.409
 893.52     906.57       0.
 906.57     918.34       3.104
 918.34     929.71       0.
 929.71     941.06       0.805
 941.06     953.25       1.671
 953.25     965.85       0.
 965.85     977.21       7.145
 977.21     990.25       0.
 990.25     999.89       4.990
 999.89    1011.65       9.022
1011.65    1023.45       5.282
1023.45    1035.65       7.732
1035.65    1049.10       2.264
1049.10    1060.50       0.180
1060.50    1072.65       1.981
1072.65    1084.00       7.381
1084.00    1097.90       5.512
1097.90    1107.10       4.435
1107.10    1120.20       3.933
1120.20    1131.95       2.064
1131.95    1142.90       5.089
1142.90    1156.80       2.069
1156.80    1167.30       3.438
1167.30    1181.20       0.
1181.20    1194.20       2.148
1194.20    1205.15       1.863
1205.15    1215.20       0.
1215.20    1227.00       4.313
1227.00    1239.20       2.948
1239.20    1252.65       6.189
1252.65    1261.90       3.456
1261.90    1274.50       2.379
1274.50    1286.70       1.086
1286.70    1298.50       4.614
1298.50    1311.50       2.890
1311.50    1323.70       2.172
1323.70    1335.10       4.909
1335.10    1347.65       0.
1347.65    1359.45       3.115
1359.45    1370.85       6.283
1370.85    1408.25       0.
1408.25    1420.45       3.270
1420.45    1430.90       6.079
1430.90    1442.70       9.032
1442.70    1454.95       5.435
1454.95    1469.20       0.
1469.20    1479.30       2.850
1479.30    1490.65       5.370
1490.65    1503.70       0.
1503.70    1515.05       4.295
1515.05    1526.80       1.418
1526.80                  0.
ENDDATA            122
ENDSUBENT          149
SUBENT        23242007   20150522   20160302   20151123       2244
BIB                  8         18
REACTION   (37-RB-95(0,B-)38-SR-95,,PN/DE,,REL/MSC)
            Relative beta- delayed neutrons spectrum in arb.units
           for first excited 2+ level in residual nucleus Sr-94.
DECAY-DATA (37-RB-95,377.MSEC)
METHOD      Neutron-gamma coincidence with 837 keV gamma line.
CORRECTION For random coincidences,
           for the weak neutron branches to higher excited states
           in Sr-94, which gamma-deexcite to 2+ first level.
EN-SEC     (E,N) Energy of delayed neutrons.
           (E-LVL,38-SR-94)
ERR-ANALYS (E-ERR-DIG) Digitizing error of E ( X scale)
           (ERR-DIG)    Digitizing error of DATA ( Y scale)
           Quantization errors:
           scale X - 0.85  keV, scale Y - 0.144 arb.units.
           (DATA-ERR) Not specified.
STATUS     (CURVE) Fig.7 upper of J,ZP/A,312,43,1983
REL-REF    (O,,K.Kratz,R,INDC(NDS)-107,103,1979)
            The same data in earlier publication, Fig. 23 middle.
ENDBIB              18
COMMON               3          3
E-ERR-DIG  ERR-DIG    E-LVL
KEV        ARB-UNITS  KEV
 1.52       0.159      832.
ENDCOMMON            3
DATA                 4        118
E-MIN      E-MAX      DATA       DATA-ERR
KEV        KEV        ARB-UNITS  ARB-UNITS
              6.96      0.058
   6.96      18.63      3.722
  18.63      30.32     19.882       2.442
  30.32      42.09     19.024       2.155
  42.09      53.42     19.890
  53.42      66.46     24.489       3.303
  66.46      78.19     18.030
  78.19      89.08     33.544       3.878
  89.08     100.46     26.583
 100.46     113.12     28.023       4.452
 113.12     125.77     19.482
 125.77     136.65     21.711
 136.65     149.26     29.542
 149.26     161.07     22.796
 161.07     173.64     21.723
 173.64     185.82     31.134
 185.82     198.38     25.034
 198.38     211.42     40.907       6.606
 211.42     221.95     24.395
 221.95     235.75     38.115       6.319
 235.75     246.30     36.969
 246.30     256.88     32.880
 256.88     269.97     24.985
 269.97     282.63     22.476
 282.63     294.81     17.597
 294.81     305.72     25.068
 305.72     316.65     20.763
 316.65     338.46     27.518
 338.46     353.66     29.607       6.606
 353.66     365.48     16.470
 365.48     377.69     21.644
 377.69     389.47     14.037
 389.47     401.22     20.790
 401.22     413.84     18.424
 413.84     426.86     19.649
 426.86     438.17     21.592
 438.17     450.36     27.699       6.893
 450.36     462.21     22.964
 462.21     485.34     13.563
 485.34     497.95     22.688
 497.95     509.75     14.362
 509.75     521.56     17.453
 521.56     534.24      8.194
 534.24     558.17     5.1124
 558.17     569.01     16.463
 569.01     582.05     21.637       5.745
 582.05     593.46     15.322
 593.46     605.25     11.448
 605.25     618.30     12.960
 618.30     629.23      9.302
 629.23     640.16     13.039
 640.16     654.02     10.817
 654.02     665.80     15.632
 665.80     678.02      9.963
 678.02     688.93     11.547
 688.93     701.55     13.274
 701.55     712.06     11.482
 712.06     724.25     14.215
 724.25     737.29     11.275
 737.29     749.48     14.366
 749.48     760.85     11.642
 760.85     773.44     12.507
 773.44     786.91     14.163
 786.91     796.61     11.868
 796.61     807.94      7.779
 807.94     820.96     17.763       5.027
 820.96     832.77     10.085
 832.77     843.32     11.452
 843.32     857.20      2.552
 857.20     881.15     11.247
 881.15     893.35      5.364
 893.35     905.96     10.466
 905.96     916.44      6.664
 916.44     928.63     15.859
 928.63     940.45      9.903
 940.45     951.80      6.388
 951.80     964.43     11.419
 964.43     975.77      3.236
 975.77     988.80     12.934
 988.80     998.94      5.111
 998.94    1010.30      3.606
1010.30    1023.30      6.698
1023.30    1035.95      2.609
1035.95    1047.25      8.214
1047.25    1060.30     10.156
1060.30    1071.65      6.570
1071.65    1082.65      2.696
1082.65    1118.40      4.068
1118.40    1130.15      4.578
1130.15    1141.95      1.709
1141.95    1166.65      5.377
1166.65    1179.35      9.907
1179.35    1203.70      4.743
1203.70    1215.90      7.334
1215.90    1225.20      3.890
1225.20    1237.40      2.673
1237.40    1251.30      0.
1251.30    1260.50      2.681
1260.50    1285.75      5.559
1285.75    1297.10      2.333
1297.10    1310.10      4.563
1310.10    1321.10      3.202
1321.10    1332.45      1.483
1332.45    1344.60      5.436
1344.60    1354.70      3.644
1354.70    1368.60      0.560
1368.60    1379.50      4.657
1379.50    1403.50      6.314
1403.50    1415.25      1.796
1415.25    1452.70      0.
1452.70    1464.90      5.690
1464.90    1475.00      1.169
1475.00    1487.60      0.
1487.60    1497.70      6.634
1497.70    1509.50      0.892
1509.50    1520.80      3.625
1520.80    1535.90      5.927
1535.90    1545.60      4.638
ENDDATA            120
ENDSUBENT          147
ENDENTRY             7
