ENTRY            23242   20170706   20180122   20180122       2260
SUBENT        23242001   20170706   20180122   20180122       2260
BIB                 14         95
TITLE      The Beta-Decay of 95-Rb and 97-Rb.
AUTHOR     (K.-L.Kratz,H.Ohm,A.Schroeder,H.Gabelmann,W.Ziegert,
           B.Pfeiffer,G.Jung,E.Monnand,J.A.Pinston,F.Schussler,
           G.I.Crawford,S.G.Prussin,Z.M.de Oliveira)
INSTITUTE  (2GERMNZ) K.-L.Kratz,H.Ohm,A.Schroeder,H.Gabelmann,
                     W.Ziegert.
           (2FR ILL) B.Pfeiffer,G.Jung.
           (2FR GRE) Departement de Recherche Fondamentale, Centre
           d'Etudes Nucleaires de Grenoble,France.
                    E.Monnand,J.A.Pinston,F.Schussler.
           (2UK GLS) G.I.Crawford.
           (1USAUCX) S.G.Prussin,Z.M.de Oliveira
REFERENCE  (J,ZP/A,312,43,1983) Rb-95,-97 data.
           (P,MAINZ-78,37,1979) First author H.Ohm .
            Rb-95 del.neutron spectra .
           (P,MAINZ-78,41,1979) First author A.Schroeder
            Rb-94 delayed neutron partial spectra on Fig.22a-f.
           (P,MAINZ-76,37,1977) First author K.-L.Kratz.In German
             Rb-93 - 97 delayed neutron spectra on figs.
           (P,MAINZ-76,41,1977) Pn values in Table
            See also 77HIRSCHEGG,,208,1977 (Proc.Int.Workshop on
           Gross Properties of Nuclei and Nuclear Excitations V,
           Hirschegg,Austria,1977.
           In English. First author K.-L.Kratz.
           Rb-93-97 delayed neutron rel. intensities on Fig.1 a-e
           -the same as in P,MAINZ-76,37,1977 ;
           Pn values in Table - the same as in P,MAINZ-76,41,1977.
           Preliminary data ( see conclusion in 77HIRSCHEGG )
FACILITY   (REAC,2FR ILL) High-flux reactor.
SAMPLE      Samples were produced from the Isol-system OSTIS at
           exp. neutron beam of reactor.The mass contamination
           about 10**-5 .
METHOD     (COINC)Gamma-ray, conversion and beta-delayed neutron
           spectroscopy.
           (TOF) Flight paths 0.6 m - 2.5 m; 30 - 50 cm.
DETECTOR   *** For Gamma-ray and Conversion electron Spectroscopy:
           (GELI,SILI) For spectra of gamma-rays and conversion
           electrons. Placed at 3 cm distance from the source.
           Ge(Li) - relative efficiency 25%, resolution 2.1 keV at
           1.3 MeV.
           Si(Li) - 5 mm thickness, 300 mm2 surface, resolution
           1.7 keV at 624 keV.
           (SCIN) Ge(Li) or Si(Li) detector could be replaced by
           1 mm thick plastic scintillator to define life-time of
           excited states from delayed beta-electron or beta-gamma
           coincidence. Resolving time 2TAU = 5 nsec.
           (GELI) Second Ge(Li) replacing Si(Li) detector - for
           gamma-gamma coincidence, resolving time 15 nsec.
           Transitions used for internal calibration of conversion
           electrons :
           Isotope    E-gamma,keV           Multipolarity
           Sr-96      815.0                 E2
           Y-96       122.3                 M1
           Zr-97      161.3                 E2
           Nb-97m     743.4                 M4
                      289.4                 E2
           Mo-98      787.4                 E2
           *** For Spectroscopy of Beta-Delayed Neutrons :
           (HE3SP,GELI) Three identical He-3 ionization chambers
           for neutron detection; 100 cm3 Ge(Li) diode for
           gamma-ray detection.
           Energy resolution 12 keV for thermal neutrons, about
           20 keV for 1 MeV neutrons. Resolving time 5 microsec.
           (SCIN) 5 inch diameter liquid scintillator NE213 for
           TOF (paths 0.6 m - 2.5 m) measurement of neutron single
           and neutron-gamma coincidence spectra in energy range
           180 keV - 3 MeV.
           (GLASD) Li-glass detector to measure low-energy (5 keV
            - 150 keV) spectrum at flight paths 30 -50  cm.
ANALYSIS    The intensities of beta-branches were determined from
           a filiation measurement assuming
           - for Rb-95 - the 954 keV gamma-line
           of Zr-95 intensity of 0.19+-0.02 from REL-REF of
           P.Cavallini+ and taking the neutron emission
           probability Pn=(8.6+-0.5)% from REL-REF of C.Ristory+;
           - for Rb-97 - intensity of the 743 keV gamma-line of
           Nb-97 0.928 from REL-REF of C.M.Lederer+ and Pn value
           of Rb-97 25.2% from REL-REF of C.Ristori+ .
REL-REF    (R,,P.Cavallini+,J,RRL,21,157,1975) ASSUM1
           (R,,C.Ristori+,J,ZP/A,290,311,1979) Pn values.
           (R,,C.M.Lederer+,B,LEDERER-7,,1978) ASSUM2
ASSUMED    (ASSUM1,37-RB-95(0,B-)38-SR-95,,PN)
           (ASSUM2,37-RB-97(0,B-)38-SR-97,,PN)
DECAY-DATA (40-ZR-95,,G,954.,0.19) 0.19+-0.02 .
           (41-NB-97,,G,743.,0.928)
ADD-RES    (DECAY) Sr-95 level scheme - Fig.1, ZP/A,312,43,1983
           Exp. internal conversion coefficients of most intense
           gamma transition in Sr-95 - Table 2, ZP/A,312,43,1983
           Sr-97 level scheme - Fig.3.
           Exp. internal conversion coefficients of most intense
           gamma transition in Sr-97 - Table 3, ZP/A,312,43,1983
HISTORY    (20150522C) M.M.
           (20170706A) M.M. Refs. P,MAINZ-76,37,1977,
           P,MAINZ-76,41,1977 were added.
            Subents 008-025 were added.
ENDBIB              95
COMMON               3          3
ASSUM1     ASSUM1-ERR ASSUM2
NO-DIM     NO-DIM     NO-DIM
0.086       0.005     0.252
ENDCOMMON            3
ENDSUBENT          102
SUBENT        23242002   20170706   20180122   20180122       2260
BIB                  8         17
REACTION   (37-RB-95(0,B-)38-SR-95,,PN/DE,,REL)
            Relative beta- delayed neutrons spectrum in arb.units.
DECAY-DATA (37-RB-95,377.MSEC)
DETECTOR   (HE3SP) He-3 ionization chambers.
EN-SEC     (E,N) Energy of delayed neutrons.
ERR-ANALYS (E-ERR-DIG) Digitizing error of E ( X scale)
           (ERR-DIG)    Digitizing error of DATA ( Y scale)
           Quantization errors:
           scale X - 0.604 keV, scale Y - 0.006 arb.units.
STATUS     (CURVE) Fig.6 upper of J,ZP/A,312,43,1983
            Fig.14c of P,MAINZ-76,37,1977 -previous publication.
COMMENT    Of compiler. Data were digitized and coefficient 4. was
           applied ( as mentioned on Fig.6).
           There are lot of confluent lines, so digitized data are
           rather raw at such points.
REL-REF    (O,,K.Kratz,R,INDC(NDS)-107,103,1979)
           The almost same spectrum is presented on Fig.20d lower.
ENDBIB              17
COMMON               2          3
E-ERR-DIG  ERR-DIG
KEV        ARB-UNITS
0.74       0.0060
ENDCOMMON            3
DATA                 3        692
E-MIN      E-MAX      DATA
KEV        KEV        ARB-UNITS
              2.31    0.4211
   2.31       4.58    1.1443
   4.58       6.32    1.5396
   6.32       6.55    1.7388
   6.55       6.79    2.0636
   6.79       8.55    2.2414
   8.55       9.67    2.4713
   9.67      11.09    2.9523
  11.09      12.53    3.2128
  12.53      13.67    3.4978
  13.67      14.48    3.6848
  14.48      16.51    4.2578
  16.51      17.39    4.3681
  17.39      18.26    4.4540
  18.26      20.44    4.7053
  20.44      22.71    3.8749
  22.71      24.67    3.5226
  24.67      26.69    2.7230
  26.69      28.66    1.8803
  28.66      30.23    1.4974
  30.23      32.72    1.3534
  32.72      33.69    0.9551
  33.69      35.86    0.8203
  35.86      37.10    0.5691
  37.10      39.52    0.5446
  39.52      40.74    0.5141
  40.74      43.15    0.4957
  43.15      44.96    0.5203
  44.96      48.28    0.5449
  48.28      49.20    0.5143
  49.20      51.32    0.4867
  51.32      52.83    0.4684
  52.83      54.96    0.4347
  54.96      58.29    0.3768
  58.29      59.47    0.4052
  59.47      60.68    0.4259
  60.68      63.70    0.4113
  63.70      64.60    0.4167
  64.60      66.09    0.4359
  66.09      66.66    0.4558
  66.66      68.14    0.5010
  68.14      69.32    0.5224
  69.32      71.11    0.5470
  71.11      72.90    0.5677
  72.90      73.78    0.5853
  73.78      74.66    0.6205
  74.66      77.04    0.6466
  77.04      77.92    0.6803
  77.92      78.79    0.7048
  78.79      79.96    0.7424
  79.96      81.43    0.7891
  81.43      82.90    0.8305
  82.90      83.75    0.8673
  83.75      84.89    0.9240
  84.89      86.34    1.0128
  86.34      87.56    1.0335
  87.56      88.78    0.9998
  88.78      89.36    1.0105
  89.36      90.83    1.0435
  90.83      92.29    1.0933
  92.29      92.84    1.1316
  92.84      94.61    1.2051
  94.61      95.81    1.2105
  95.81      98.24    1.2251
  98.24     101.33    1.1776
 101.33     102.91    1.1033
 102.91     103.87    1.0535
 103.87     105.73    0.9815
 105.73     106.67    0.9685
 106.67     108.23    0.9134
 108.23     109.79    0.8613
 109.79     110.75    0.8230
 110.75     112.03    0.7548
 112.03     113.92    0.6805
 113.92     115.17    0.6070
 115.17     117.27    0.6001
 117.27     119.07    0.6201
 119.07     120.26    0.6339
 120.26     121.45    0.6469
 121.45     122.95    0.6691
 122.95     124.46    0.6745
 124.46     126.86    0.6829
 126.86     128.04    0.6929
 128.04     129.21    0.7373
 129.21     130.38    0.7664
 130.38     130.94    0.8139
 130.94     132.75    0.8484
 132.75     133.40    0.8239
 133.40     134.32    0.7665
 134.32     136.13    0.7895
 136.13     137.65    0.7810
 137.65     141.59    0.7634
 141.59     142.54    0.7481
 142.54     144.66    0.6830
 144.66     146.17    0.7328
 146.17     148.89    0.6915
 148.89     150.68    0.7176
 150.68     151.57    0.7329
 151.57     153.06    0.7574
 153.06     154.54    0.7804
 154.54     156.03    0.8026
 156.03     157.21    0.8279
 157.21     161.14    0.8463
 161.14     163.86    0.8394
 163.86     165.09    0.8302
 165.09     166.31    0.8180
 166.31     167.85    0.7935
 167.85     169.06    0.7514
 169.06     170.84    0.7989
 170.84     172.03    0.8089
 172.03     174.42    0.8418
 174.42     175.61    0.8663
 175.61     177.09    0.8817
 177.09     178.58    0.9077
 178.58     180.06    0.9353
 180.06     181.24    0.9606
 181.24     182.11    0.9905
 182.11     182.98    1.0364
 182.98     184.75    1.0701
 184.75     185.32    1.1161
 185.32     186.52    1.1391
 186.52     187.75    1.1238
 187.75     189.58    1.0993
 189.58     191.99    1.0916
 191.99     193.82    1.1008
 193.82     195.37    1.0641
 195.37     196.93    1.0212
 196.93     199.09    0.9752
 199.09     200.65    0.9155
 200.65     202.73    0.8925
 202.73     204.24    0.9738
 204.24     206.05    0.8972
 206.05     206.64    0.9814
 206.64     208.46    0.9240
 208.46     209.93    0.9623
 209.93     211.41    1.0060
 211.41     213.19    1.0320
 213.19     213.76    1.0581
 213.76     215.24    1.0964
 215.24     216.42    1.1179
 216.42     217.60    1.1500
 217.60     218.82    1.1722
 218.82     220.62    1.1409
 220.62     221.21    1.1968
 221.21     222.43    1.1623
 222.43     223.91    1.1776
 223.91     225.11    1.2060
 225.11     226.03    1.1991
 226.03     227.57    1.1792
 227.57     229.39    1.1340
 229.39     231.20    1.1808
 231.20     232.47    1.1348
 232.47     234.06    1.0643
 234.06     235.03    0.9724
 235.03     236.52    0.9433
 236.52     238.33    1.0146
 238.33     239.26    0.9449
 239.26     240.79    0.9648
 240.79     242.02    0.9066
 242.02     243.21    0.9150
 243.21     243.80    0.9541
 243.80     245.29    0.9373
 245.29     246.77    0.9840
 246.77     247.96    0.9970
 247.96     248.51    1.0384
 248.51     249.10    1.0966
 249.10     249.97    1.0752
 249.97     251.16    1.1456
 251.16     252.98    1.1158
 252.98     253.52    1.1342
 253.52     255.26    1.2315
 255.26     256.40    1.2997
 256.40     262.74    1.3426
 262.74     264.64    1.3074
 264.64     266.85    1.1772
 266.85     269.03    1.1136
 269.03     269.71    1.0646
 269.71     272.24    0.9673
 272.24     274.50    0.8241
 274.50     275.48    0.6870
 275.48     276.72    0.6770
 276.72     277.99    0.6196
 277.99     279.56    0.5621
 279.56     280.50    0.5024
 280.50     281.69    0.4963
 281.69     282.90    0.5361
 282.90     283.53    0.4978
 283.53     285.07    0.4748
 285.07     286.58    0.4503
 286.58     288.39    0.4741
 288.39     289.92    0.4565
 289.92     291.73    0.4327
 291.73     292.91    0.4626
 292.91     294.42    0.4764
 294.42     295.60    0.4810
 295.60     296.77    0.5224
 296.77     297.70    0.5538
 297.70     299.54    0.4818
 299.54     300.13    0.4910
 300.13     302.23    0.5194
 302.23     304.02    0.5286
 304.02     304.90    0.5508
 304.90     306.39    0.5753
 306.39     308.49    0.5914
 308.49     309.98    0.6037
 309.98     311.18    0.6228
 311.18     313.00    0.6389
 313.00     313.64    0.6022
 313.64     316.06    0.5631
 316.06     316.96    0.5999
 316.96     318.49    0.5762
 318.49     321.20    0.5624
 321.20     322.07    0.5961
 322.07     323.90    0.6260
 323.90     326.00    0.5601
 326.00     326.90    0.6589
 326.90     328.14    0.5778
 328.14     329.02    0.5962
 329.02     330.21    0.6138
 330.21     331.09    0.6429
 331.09     332.25    0.6697
 332.25     334.64    0.7364
 334.64     335.87    0.7234
 335.87     336.50    0.6835
 336.50     338.00    0.6667
 338.00     339.51    0.7081
 339.51     341.01    0.6790
 341.01     342.20    0.7111
 342.20     343.97    0.7372
 343.97     345.19    0.7801
 345.19     346.11    0.7196
 346.11     347.03    0.7518
 347.03     349.14    0.6997
 349.14     350.01    0.7480
 350.01     351.51    0.7710
 351.51     353.00    0.7771
 353.00     353.88    0.8001
 353.88     355.39    0.8369
 355.39     356.60    0.8001
 356.60     357.76    0.8369
 357.76     358.30    0.8928
 358.30     359.82    0.9549
 359.82     361.05    0.8706
 361.05     362.56    0.9166
 362.56     363.79    0.8721
 363.79     365.27    0.8752
 365.27     367.37    0.9273
 367.37     368.92    0.9059
 368.92     370.19    0.8469
 370.19     371.44    0.7895
 371.44     373.88    0.7619
 373.88     375.12    0.7489
 375.12     376.09    0.6945
 376.09     378.83    0.6310
 378.83     379.38    0.6562
 379.38     380.87    0.7252
 380.87     381.80    0.7037
 381.80     383.34    0.6777
 383.34     385.15    0.6517
 385.15     386.66    0.6731
 386.66     387.59    0.6578
 387.59     388.80    0.6256
 388.80     390.01    0.6425
 390.01     391.56    0.6149
 391.56     392.84    0.5705
 392.84     395.00    0.4878
 395.00     397.12    0.4794
 397.12     399.84    0.4672
 399.84     402.23    0.4878
 402.23     403.42    0.5039
 403.42     404.91    0.5231
 404.91     406.10    0.5461
 406.10     408.80    0.5622
 408.80     409.99    0.5844
 409.99     410.56    0.6097
 410.56     413.28    0.6327
 413.28     415.69    0.6151
 415.69     417.79    0.6373
 417.79     419.24    0.6603
 419.24     420.39    0.7469
 420.39     421.87    0.7668
 421.87     422.73    0.8036
 422.73     425.04    0.8618
 425.04     426.75    1.0158
 426.75     428.21    1.0633
 428.21     429.33    1.1192
 429.33     431.06    1.2265
 431.06     432.84    1.3039
 432.84     434.35    1.2786
 434.35     436.18    1.2978
 436.18     438.31    1.2426
 438.31     439.79    1.2740
 439.79     441.65    1.2978
 441.65     443.25    1.1798
 443.25     444.52    1.1163
 444.52     445.80    1.0680
 445.80     446.76    0.9738
 446.76     448.26    0.9593
 448.26     449.75    0.9922
 449.75     451.24    1.0060
 451.24     451.83    1.0229
 451.83     453.32    1.0382
 453.32     454.52    1.0597
 454.52     456.01    1.0727
 456.01     457.20    1.0934
 457.20     458.72    1.1141
 458.72     461.15    1.0658
 461.15     461.43    1.0858
 461.43     462.32    1.1133
 462.32     463.51    1.1264
 463.51     464.12    1.1363
 464.12     464.77    1.1133
 464.77     466.34    1.0436
 466.34     467.52    1.0099
 467.52     469.31    1.0827
 469.31     470.88    1.0605
 470.88     471.85    0.9709
 471.85     473.97    0.9318
 473.97     475.48    0.9587
 475.48     476.69    0.9380
 476.69     477.91    0.9503
 477.91     478.86    0.9058
 478.86     480.40    0.8698
 480.40     481.63    0.8461
 481.63     482.52    0.8308
 482.52     483.38    0.8867
 483.38     485.48    0.9212
 485.48     485.81    0.9097
 485.81     487.03    0.8638
 487.03     488.54    0.8852
 488.54     489.79    0.8592
 489.79     491.03    0.8186
 491.03     495.23    0.7903
 495.23     497.41    0.7780
 497.41     498.65    0.7520
 498.65     499.54    0.7152
 499.54     501.28    0.7972
 501.28     502.80    0.8416
 502.80     504.62    0.7957
 504.62     505.52    0.8171
 505.52     506.42    0.8026
 506.42     508.21    0.8233
 508.21     509.69    0.8517
 509.69     509.95    0.8907
 509.95     512.67    0.9237
 512.67     513.33    0.8946
 513.33     515.81    0.8241
 515.81     517.66    0.7475
 517.66     519.16    0.7598
 519.16     520.66    0.7644
 520.66     522.16    0.7912
 522.16     522.79    0.7767
 522.79     524.03    0.7384
 524.03     525.22    0.7246
 525.22     526.69    0.7660
 526.69     528.82    0.7989
 528.82     530.95    0.7331
 530.95     531.82    0.7890
 531.82     533.30    0.8012
 533.30     535.11    0.8503
 535.11     536.63    0.8020
 536.63     538.12    0.8197
 538.12     539.30    0.8381
 539.30     540.15    0.8902
 540.15     541.90    0.9400
 541.90     542.13    1.0204
 542.13     544.19    1.0733
 544.19     545.00    1.1338
 545.00     545.46    1.2648
 545.46     547.84    1.4027
 547.84     549.66    1.3529
 549.66     552.35    1.3843
 552.35     553.58    1.4020
 553.58     554.85    1.3506
 554.85     556.38    1.2687
 556.38     557.59    1.3070
 557.59     559.44    1.2810
 559.44     560.70    1.2319
 560.70     561.94    1.1783
 561.94     564.40    1.1668
 564.40     564.77    1.1048
 564.77     566.35    1.0236
 566.35     569.44    0.9746
 569.44     571.29    0.8865
 571.29     571.85    0.8942
 571.85     572.74    0.9769
 572.74     574.52    0.9333
 574.52     575.66    1.0206
 575.66     576.80    1.0788
 576.80     578.22    1.1493
 578.22     579.67    1.2497
 579.67     580.49    1.2750
 580.49     582.56    1.4343
 582.56     584.74    1.3432
 584.74     585.73    1.3164
 585.73     589.14    1.1793
 589.14     591.66    1.1433
 591.66     594.53    0.9717
 594.53     595.79    0.8446
 595.79     596.39    0.8683
 596.39     598.55    0.8568
 598.55     600.39    0.7810
 600.39     600.98    0.7925
 600.98     601.87    0.8155
 601.87     602.78    0.8239
 602.78     604.59    0.8017
 604.59     605.47    0.8400
 605.47     606.70    0.8500
 606.70     608.53    0.7979
 608.53     610.94    0.8171
 610.94     613.07    0.7918
 613.07     614.88    0.8064
 614.88     616.42    0.7918
 616.42     617.08    0.7421
 617.08     618.64    0.6831
 618.64     619.88    0.6540
 619.88     621.08    0.6095
 621.08     623.49    0.6777
 623.49     626.55    0.6295
 626.55     627.49    0.5797
 627.49     629.29    0.5682
 629.29     630.84    0.6088
 630.84     632.39    0.4985
 632.39     633.25    0.5261
 633.25     634.73    0.5813
 634.73     636.26    0.5890
 636.26     637.48    0.5315
 637.48     638.68    0.5805
 638.68     639.60    0.5453
 639.60     640.18    0.5584
 640.18     641.08    0.5737
 641.08     642.27    0.5898
 642.27     643.48    0.6059
 643.48     645.01    0.5775
 645.01     646.21    0.5668
 646.21     647.99    0.5998
 647.99     649.16    0.6289
 649.16     650.64    0.6641
 650.64     653.05    0.6978
 653.05     654.62    0.6749
 654.62     657.36    0.5738
 657.36     659.17    0.6458
 659.17     661.32    0.5822
 661.32     663.15    0.5761
 663.15     665.56    0.5485
 665.56     667.37    0.5815
 667.37     668.01    0.5616
 668.01     669.85    0.4988
 669.85     671.03    0.5226
 671.03     672.23    0.5341
 672.23     673.42    0.5509
 673.42     674.31    0.5655
 674.31     676.11    0.5808
 676.11     681.55    0.5923
 681.55     683.64    0.5870
 683.64     684.52    0.6215
 684.52     686.04    0.6398
 686.04     687.87    0.6016
 687.87     689.06    0.6115
 689.06     690.25    0.6337
 690.25     691.14    0.6552
 691.14     692.36    0.6621
 692.36     694.17    0.6307
 694.17     695.33    0.6698
 695.33     697.43    0.7372
 697.43     699.59    0.6836
 699.59     701.12    0.6591
 701.12     702.06    0.6262
 702.06     703.88    0.6017
 703.88     705.99    0.6170
 705.99     707.24    0.5986
 707.24     708.79    0.5389
 708.79     711.24    0.5174
 711.24     713.38    0.4784
 713.38     715.52    0.4593
 715.52     717.33    0.4470
 717.33     718.23    0.4516
 718.23     719.41    0.4646
 719.41     720.91    0.5053
 720.91     722.72    0.4853
 722.72     724.22    0.4991
 724.22     725.10    0.5183
 725.10     726.29    0.5421
 726.29     728.40    0.5566
 728.40     728.68    0.5658
 728.68     729.85    0.5949
 729.85     730.73    0.6325
 730.73     731.62    0.6601
 731.62     732.86    0.6539
 732.86     734.39    0.5942
 734.39     734.95    0.6256
 734.95     735.53    0.6670
 735.53     737.66    0.6792
 737.66     740.09    0.6371
 740.09     742.80    0.6509
 742.80     744.91    0.6601
 744.91     746.13    0.6487
 746.13     747.66    0.6334
 747.66     748.89    0.6242
 748.89     750.70    0.5928
 750.70     752.84    0.6188
 752.84     754.99    0.5353
 754.99     757.11    0.5537
 757.11     758.35    0.5354
 758.35     759.29    0.4894
 759.29     761.12    0.4764
 761.12     762.34    0.4450
 762.34     764.17    0.4374
 764.17     766.30    0.4251
 766.30     768.42    0.4159
 768.42     770.23    0.3953
 770.23     772.66    0.4206
 772.66     773.58    0.3876
 773.58     775.39    0.3823
 775.39     778.40    0.3969
 778.40     781.73    0.4045
 781.73     784.45    0.3839
 784.45     785.04    0.3961
 785.04     785.92    0.4160
 785.92     788.03    0.4292
 788.03     789.48    0.4421
 789.48     792.47    0.5417
 792.47     794.27    0.5142
 794.27     795.41    0.5624
 795.41     796.27    0.6398
 796.27     798.09    0.6574
 798.09     799.90    0.6283
 799.90     801.41    0.6575
 801.41     802.97    0.6345
 802.97     804.79    0.5541
 804.79     806.27    0.6276
 806.27     808.40    0.5954
 808.40     809.89    0.6115
 809.89     811.42    0.6200
 811.42     813.82    0.5878
 813.82     815.66    0.6376
 815.66     817.20    0.5403
 817.20     821.40    0.5848
 821.40     823.23    0.5879
 823.23     824.46    0.5465
 824.46     826.61    0.5580
 826.61     829.99    0.4784
 829.99     832.78    0.4401
 832.78     836.15    0.3459
 836.15     837.99    0.3383
 837.99     840.13    0.2931
 840.13     842.26    0.2870
 842.26     843.51    0.2494
 843.51     845.33    0.2127
 845.33     846.83    0.2426
 846.83     849.54    0.2303
 849.54     851.04    0.2594
 851.04     852.55    0.2380
 852.55     853.74    0.2687
 853.74     856.18    0.2786
 856.18     858.62    0.2143
 858.62     860.12    0.2419
 860.12     861.04    0.2281
 861.04     862.29    0.2036
 862.29     863.82    0.1722
 863.82     865.33    0.1531
 865.33     868.04    0.1676
 868.04     871.66    0.1853
 871.66     874.36    0.1623
 874.36     876.15    0.2198
 876.15     876.77    0.2091
 876.77     878.59    0.1807
 878.59     879.80    0.1983
 879.80     881.62    0.1907
 881.62     884.35    0.1823
 884.35     886.47    0.1708
 886.47     887.99    0.1601
 887.99     889.81    0.1563
 889.81     892.84    0.1507
 892.84     895.26    0.1287
 895.26     897.35    0.1441
 897.35     899.77    0.1885
 899.77     901.60    0.1211
 901.60     905.80    0.1587
 905.80     907.57    0.1893
 907.57     909.37    0.2299
 909.37     910.61    0.2100
 910.61     913.36    0.1786
 913.36     914.87    0.1350
 914.87     916.04    0.1894
 916.04     917.87    0.2101
 917.87     919.39    0.1435
 919.39     921.20    0.2009
 921.20     923.91    0.1573
 923.91     925.11    0.2002
 925.11     931.18    0.1764
 931.18     933.32    0.1550
 933.32     936.05    0.1060
 936.05     937.87    0.1390
 937.87     939.99    0.1030
 939.99     940.87    0.1313
 940.87     942.65    0.1566
 942.65     943.24    0.1773
 943.24     945.65    0.2017
 945.65     947.48    0.1819
 947.48     949.30    0.1712
 949.30     951.12    0.1574
 951.12     952.61    0.1682
 952.61     953.81    0.1789
 953.81     955.33    0.1904
 955.33     956.84    0.1697
 956.84     958.66    0.1820
 958.66     961.69    0.1659
 961.69     963.53    0.1514
 963.53     965.65    0.1231
 965.65     965.94    0.1300
 965.94     967.12    0.1583
 967.12     968.34    0.1713
 968.34     970.77    0.1407
 970.77     972.58    0.1530
 972.58     974.69    0.1415
 974.69     975.91    0.1584
 975.91     978.62    0.1231
 978.62     979.82    0.1638
 979.82     981.33    0.1454
 981.33     985.26    0.1523
 985.26     987.37    0.1447
 987.37     989.17    0.1585
 989.17     989.75    0.1791
 989.75     990.94    0.2037
 990.94     992.76    0.2144
 992.76     993.65    0.1830
 993.65     995.75    0.2634
 995.75     997.28    0.2060
 997.28     999.11    0.2221
 999.11    1001.80    0.1769
1001.80    1003.60    0.2076
1003.60    1004.80    0.2145
1004.80    1005.70    0.2398
1005.70    1006.90    0.2459
1006.90    1008.70    0.2268
1008.70    1010.30    0.2191
1010.30    1012.10    0.2107
1012.10    1013.60    0.2237
1013.60    1014.80    0.2100
1014.80    1015.80    0.1632
1015.80    1017.30    0.1464
1017.30    1018.80    0.1694
1018.80    1020.60    0.1548
1020.60    1028.45    0.1618
1028.45    1030.60    0.1388
1030.60    1033.90    0.1541
1033.90    1035.10    0.1411
1035.10    1036.60    0.1304
1036.60    1040.55    0.1228
1040.55    1041.70    0.1427
1041.70    1046.60    0.1550
1046.60    1048.70    0.1382
1048.70    1050.80    0.1612
1050.80    1053.50    0.1451
1053.50    1055.00    0.1520
1055.00    1056.80    0.1719
1056.80    1057.75    0.1934
1057.75    1058.70    0.1505
1058.70    1059.90    0.1283
1059.90    1061.40    0.1153
1061.40    1062.90    0.1482
1062.90    1064.70    0.1766
1064.70    1068.05    0.1429
1068.05    1070.45    0.1237
1070.45    1072.90    0.1552
1072.90    1073.50    0.1276
1073.50    1075.60    0.0893
1075.60    1079.90    0.1047
1079.90    1083.20    0.1001
1083.20    1085.60    0.0825
1085.60    1086.80    0.0947
1086.80    1088.30    0.1124
1088.30    1090.40    0.1338
1090.40    1092.80    0.1178
1092.80    1095.80    0.1231
1095.80    1097.35    0.1377
1097.35    1099.20    0.1140
1099.20    1100.70    0.1324
1100.70    1102.50    0.1469
1102.50    1102.80    0.1393
1102.80    1104.30    0.1140
1104.30    1105.80    0.1041
1105.80    1107.60    0.1232
1107.60    1110.00    0.1608
1110.00    1117.90    0.1294
1117.90    1118.80    0.1248
1118.80    1121.50    0.1118
1121.50    1124.50    0.1494
1124.50    1128.45    0.1448
1128.45    1130.90    0.1333
1130.90    1135.10    0.1433
ENDDATA            694
ENDSUBENT          720
SUBENT        23242003   20150522   20160302   20151123       2244
BIB                  8         13
REACTION   (37-RB-95(0,B-)38-SR-95,,PN/DE,,REL)
            Relative beta- delayed neutrons spectrum in arb.units.
DECAY-DATA (37-RB-95,377.MSEC)
DETECTOR   (GLASD) Li-glass scintillator at TOF technique
EN-SEC     (E,N) Energy of delayed neutrons.
ERR-ANALYS (E-ERR-DIG) Digitizing error of E ( X scale)
           (ERR-DIG)    Digitizing error of DATA ( Y scale)
           Quantization errors:
           scale X - 0.045 keV, scale Y - 0.015 arb.units.
STATUS     (CURVE) Fig.6 upper insert of J,ZP/A,312,43,1983
COMMENT    Of authors. FWHM of 13.7 keV peak is 0.9 keV.
REL-REF    (O,,K.Kratz,R,INDC(NDS)-107,103,1979)
            The same data in earlier publication on Fig. 7 .
ENDBIB              13
COMMON               2          3
E-ERR-DIG  ERR-DIG
KEV        ARB-UNITS
0.045       0.0140
ENDCOMMON            3
DATA                 3        108
E-MIN      E-MAX      DATA
KEV        KEV        ARB-UNITS
            10.120    0.8865
10.120      10.432    0.7756
10.432      10.495    0.9388
10.495      10.626    1.3463
10.626      10.804    1.5465
10.804      10.916    1.4355
10.916      11.385    1.3322
11.385      11.497    1.2288
11.497      11.587    1.1474
11.587      11.677    1.0512
11.677      11.790    0.9402
11.790      11.945    0.8588
11.945      12.056    0.9627
12.056      12.188    1.0518
12.188      12.255    1.1111
12.255      12.366    1.1631
12.366      12.476    1.2447
12.476      12.589    1.1929
12.589      12.658    1.0227
12.658      12.792    0.8672
12.792      12.857    0.9192
12.857      12.966    1.1490
12.966      13.053    1.2898
13.053      13.119    1.6454
13.119      13.183    1.5122
13.183      13.266    2.0456
13.266      13.303    2.9197
13.303      13.430    3.4605
13.430      13.537    4.2163
13.537      13.627    4.3868
13.627      13.719    3.9572
13.719      13.833    3.8610
13.833      13.927    3.5130
13.927      14.000    2.8168
14.000      14.207    2.2095
14.207      14.323    1.5578
14.323      14.438    1.1506
14.438      14.552    0.8988
14.552      14.643    0.6989
14.643      14.733    0.4916
14.733      14.823    0.4621
14.823      14.934    0.4252
14.934      15.046    0.3586
15.046      15.225    0.3218
15.225      15.359    0.2849
15.359      15.782    0.2556
15.782      16.406    0.2191
16.406      16.895    0.2494
16.895      17.274    0.2943
17.274      17.451    0.3243
17.451      17.563    0.3614
17.563      17.675    0.3172
17.675      17.831    0.2506
17.831      17.988    0.1989
17.988      18.299    0.1548
18.299      18.411    0.1698
18.411      18.566    0.2218
18.566      18.766    0.2442
18.766      19.545    0.2966
19.545      19.857    0.2528
19.857      20.148    0.2309
20.148      20.303    0.1867
20.303      20.571    0.1499
20.571      20.660    0.1797
20.660      20.882    0.2170
20.882      21.082    0.2839
21.082      21.282    0.3285
21.282      21.370    0.3806
21.370      21.459    0.4325
21.459      21.592    0.4993
21.592      21.704    0.4550
21.704      21.816    0.4032
21.816      21.950    0.3664
21.950      22.217    0.2703
22.217      22.373    0.3668
22.373      22.483    0.4114
22.483      22.661    0.4856
22.661      23.774    0.4493
23.774      24.197    0.4872
24.197      24.420    0.5172
24.420      24.620    0.5545
24.620      24.753    0.5917
24.753      24.953    0.6215
24.953      25.131    0.6588
25.131      25.220    0.6812
25.220      25.353    0.7183
25.353      25.419    0.7406
25.419      25.486    0.7852
25.486      25.641    0.8149
25.641      25.953    0.8522
25.953      26.153    0.8229
26.153      26.288    0.7860
26.288      26.377    0.7565
26.377      26.511    0.7122
26.511      26.645    0.6679
26.645      26.779    0.6236
26.779      26.869    0.5645
26.869      26.981    0.5127
26.981      27.071    0.4314
27.071      27.294    0.3945
27.294      27.672    0.3652
27.672      28.095    0.3953
28.095      28.340    0.4327
28.340      28.630    0.3959
28.630      29.009    0.3593
29.009      29.187    0.3892
29.187      29.499    0.3599
29.499      29.788    0.3380
ENDDATA            110
ENDSUBENT          132
SUBENT        23242004   20150522   20160302   20151123       2244
BIB                  7         12
REACTION   (37-RB-95(0,B-)38-SR-95,,PN/DE,,REL)
            Relative beta- delayed neutrons spectrum in arb.units.
DECAY-DATA (37-RB-95,377.MSEC)
DETECTOR   (SCIN) NE213 liquid scintillator with TOF .
EN-SEC     (E,N) Energy of delayed neutrons.
ERR-ANALYS (E-ERR-DIG) Digitizing error of E ( X scale)
           (ERR-DIG)    Digitizing error of DATA ( Y scale)
           Quantization errors:
           scale X - 0.604 keV, scale Y - 0.006 arb.units.
STATUS     (CURVE) Fig.6 lower of J,ZP/A,312,43,1983
REL-REF    (O,,K.Kratz,R,INDC(NDS)-107,103,1979)
            Earlier preliminary publication for Rb-95 on Fig. 6 .
ENDBIB              12
COMMON               2          3
E-ERR-DIG  ERR-DIG
KEV        ARB-UNITS
0.88       0.016
ENDCOMMON            3
DATA                 3         82
E-MIN      E-MAX      DATA
KEV        KEV        ARB-UNITS
            181.57       0.047
  181.57    185.06       2.865
  185.06    189.90       3.317
  189.90    190.55       2.835
  190.55    193.00       2.048
  193.00    194.50       2.119
  194.50    198.70       2.134
  198.70    204.72       2.905
  204.72    210.43       2.749
  210.43    213.75       3.370
  213.75    214.75       2.798
  214.75    214.82       1.046
  214.82    216.93       1.283
  216.93    218.72       1.049
  218.72    223.50       1.658
  223.50    224.61       2.359
  224.61    229.73       4.147
  229.73    234.60       2.814
  234.60    239.71       3.136
  239.71    245.41       3.385
  245.41    249.30       4.240
  249.30    251.44       4.212
  251.44    254.58       3.662
  254.58    258.32       1.006
  258.32    263.16       0.887
  263.16    264.99       0.841
  264.99    269.21       0.493
  269.21    273.12       1.016
  273.12    274.95       0.856
  274.95    278.53       0.650
  278.53    283.65       1.913
  283.65    288.49       1.016
  288.49    293.30       1.708
  293.30    298.12       1.658
  298.12    306.60       1.969
  306.60    315.65       0.866
  315.65    327.68       2.298
  327.68    336.76       2.101
  336.76    347.30       2.028
  347.30    357.55       2.753
  357.55    367.57       2.403
  367.57    376.67       1.493
  376.67    386.91       1.376
  386.91    398.05       2.117
  398.05    407.38       2.277
  407.38    416.98       3.110
  416.98    427.24       3.725
  427.24    438.44       3.175
  438.44    447.20       3.113
  447.20    457.78       3.239
  457.78    467.17       2.723
  467.17    478.03       2.643
  478.03    488.28       3.083
  488.28    497.35       3.052
  497.35    507.01       2.972
  507.01    515.73       3.077
  515.73    526.23       3.978
  526.23    536.78       4.789
  536.78    546.79       4.337
  546.79    556.46       3.981
  556.46    566.42       4.043
  566.42    575.50       4.218
  575.50    587.02       3.551
  587.02    596.42       2.970
  596.42    610.93       2.727
  610.93    630.55       2.476
  630.55    650.49       2.977
  650.49    669.84       2.485
  669.84    690.07       2.424
  690.07    709.99       2.532
  709.99    729.63       2.778
  729.63    767.11       2.255
  767.11    786.15       2.123
  786.15    807.62       1.915
  807.62    827.59       1.318
  827.59    846.63       1.060
  846.63    876.23       0.959
  876.23    920.02       0.935
  920.02    970.46       1.068
  970.46   1020.30       0.954
 1020.30   1119.40       0.712
 1119.40   1135.70       0.633
ENDDATA             84
ENDSUBENT          105
SUBENT        23242005   20170706   20180122   20180122       2260
BIB                  9         18
REACTION   (37-RB-97(0,B-)38-SR-97,,PN/DE,,REL)
            Relative beta- delayed neutrons spectrum in arb.units.
DECAY-DATA (37-RB-97,168.MSEC)
DETECTOR   (HE3SP) He-3 ionization chambers.
CORRECTION  For complete detector response.
EN-SEC     (E,N) Energy of delayed neutrons.
ERR-ANALYS (E-ERR-DIG) Digitizing error of E ( X scale)
           (ERR-DIG)    Digitizing error of DATA ( Y scale)
           Quantization errors:
           scale X - 0.94 keV, scale Y - 0.014 arb.units.
STATUS     (CURVE) Fig.9 of J,ZP/A,312,43,1983
            Fig.14e of P,MAINZ-76,37,1977 -previous publication.
REL-REF    (O,,K.Kratz,R,INDC(NDS)-107,103,1979)
            The same data in earlier publication, Fig. 21 left .
COMMENT    On insert of Fig.9 - the low-energy ( 0-160 keV) part
           of pulse height distribution ( counts per 4 keV) after
           subtraction of the thermal neutron peak is given as
           histogram.
ENDBIB              18
COMMON               2          3
E-ERR-DIG  ERR-DIG
KEV        ARB-UNITS
0.74        0.037
ENDCOMMON            3
DATA                 3        356
E-MIN      E-MAX      DATA
KEV        KEV        ARB-UNITS
   0.01       0.01     0.018
   0.01       4.34     0.694
   4.34       7.98     2.152
   7.98       8.82     2.533
   8.82      12.91     3.914
  12.91      16.13     4.724
  16.13      17.97     5.083
  17.97      21.24     5.189
  21.24      23.10     5.217
  23.10      29.63     5.450
  29.63      31.48     5.682
  31.48      33.33     5.739
  33.33      37.52     6.063
  37.52      40.34     6.119
  40.34      45.05     5.936
  45.05      47.41     5.647
  47.41      49.75     5.598
  49.75      52.56     5.542
  52.56      56.75     5.584
  56.75      60.89     6.035
  60.89      63.60     6.796
  63.60      67.73     7.817
  67.73      69.08     8.360
  69.08      72.31     8.677
  72.31      76.47     9.304
  76.47      80.19     9.614
  80.19      84.41     9.685
  84.41      86.76     9.558
  86.76      88.66     9.516
  88.66      91.97     9.051
  91.97      94.32     8.910
  94.32      96.64     8.861
  96.64     100.82     9.171
 100.82     105.95     9.516
 105.95     109.69     9.587
 109.69     111.58     9.425
 111.58     113.47     9.361
 113.47     115.83     9.178
 115.83     118.67     8.847
 118.67     121.01     8.671
 121.01     123.35     8.826
 123.35     126.16     8.643
 126.16     128.47     8.869
 128.47     131.73     9.101
 131.73     133.59     9.256
 133.59     138.74     9.298
 138.74     141.08     9.284
 141.08     143.89     9.228
 143.89     148.08     9.355
 148.08     151.31     9.566
 151.31     155.93    10.236
 155.93     159.14    10.694
 159.14     161.44    11.349
 161.44     166.13    11.476
 166.13     168.03    11.110
 168.03     170.88    11.053
 170.88     174.69    10.419
 174.69     180.38     9.856
 180.38     184.65     9.081
 184.65     192.61     8.743
 192.61     195.39     9.011
 195.39     199.56     9.335
 199.56     203.75     9.681
 203.75     207.52     9.758
 207.52     211.30     9.300
 211.30     216.00     8.998
 216.00     220.22     8.941
 220.22     224.41     8.857
 224.41     227.61     9.491
 227.61     230.86     10.15
 230.86     239.30     10.07
 239.30     246.33     9.921
 246.33     251.00     9.794
 251.00     255.17     9.985
 255.17     258.84    10.633
 258.84     262.06    11.359
 262.06     265.29    11.577
 265.29     268.95    12.352
 268.95     274.08    13.092
 274.08     277.40    12.606
 277.40     281.21    12.282
 281.21     285.49    11.415
 285.49     288.30    11.127
 288.30     290.18    11.289
 290.18     294.39    11.113
 294.39     297.20    11.282
 297.20     300.48    11.050
 300.48     304.70    11.275
 304.70     308.00    11.007
 308.00     312.27    10.740
 312.27     317.04     9.902
 317.04     320.84     9.183
 320.84     325.54     8.909
 325.54     329.75     8.803
 329.75     333.97     8.916
 333.97     337.23     8.803
 337.23     340.48     9.085
 340.48     344.67     9.290
 344.67     348.44     9.466
 348.44     352.23     8.902
 352.23     356.02     8.600
 356.02     360.27     8.184
 360.27     364.53     7.860
 364.53     368.32     7.290
 368.32     371.61     7.036
 371.61     375.81     7.128
 375.81     380.95     7.170
 380.95     385.63     7.325
 385.63     388.45     7.170
 388.45     392.18     7.030
 392.18     399.64     7.445
 399.64     403.80     7.636
 403.80     408.41     8.340
 408.41     413.51     8.960
 413.51     417.20     9.249
 417.20     419.95     9.982
 419.95     425.08    10.285
 425.08     428.85    10.144
 428.85     433.11     9.975
 433.11     437.40     9.207
 437.40     440.73     8.595
 440.73     444.05     8.193
 444.05     447.35     7.890
 447.35     451.59     7.735
 451.59     454.88     7.412
 454.88     459.09     7.496
 459.09     460.98     7.384
 460.98     463.79     7.165
 463.79     467.50     7.440
 467.50     471.21     7.799
 471.21     475.89     7.962
 475.89     484.32     7.793
 484.32     488.07     7.828
 488.07     491.36     7.863
 491.36     495.59     7.469
 495.59     500.72     7.694
 500.72     504.01     7.666
 504.01     511.05     7.476
 511.05     516.67     7.427
 516.67     523.23     7.315
 523.23     527.48     7.258
 527.48     534.06     6.794
 534.06     537.36     6.716
 537.36     541.12     6.435
 541.12     543.93     6.294
 543.93     544.85     6.512
 544.85     548.13     6.562
 548.13     553.77     6.428
 553.77     557.08     6.033
 557.08     560.38     5.794
 560.38     564.62     5.724
 564.62     568.86     5.301
 568.86     572.15     5.238
 572.15     575.89     5.118
 575.89     580.55     5.309
 580.55     583.83     5.337
 583.83     591.75     5.379
 591.75     596.88     5.887
 596.88     601.07     5.774
 601.07     605.71     6.373
 605.71     609.90     6.493
 609.90     613.14     6.775
 613.14     624.38     7.071
 624.38     628.15     6.747
 628.15     633.31     6.543
 633.31     636.58     6.620
 636.58     640.81     6.486
 640.81     646.47     6.367
 646.47     648.83     5.796
 648.83     653.48     5.994
 653.48     658.16     6.219
 658.16     661.43     6.078
 661.43     665.15     6.290
 665.15     669.35     6.593
 669.35     674.05     6.459
 674.05     677.36     6.241
 677.36     679.25     5.959
 679.25     682.09     5.910
 682.09     684.94     5.375
 684.94     696.66     5.121
 696.66     699.01     5.051
 699.01     705.10     4.995
 705.10     709.33     4.798
 709.33     716.34     4.854
 716.34     721.03     4.812
 721.03     726.63     4.791
 726.63     732.25     4.974
 732.25     734.60     4.784
 734.60     737.88     4.742
 737.88     740.68     4.925
 740.68     749.13     4.728
 749.13     753.34     4.489
 753.34     761.29     4.728
 761.29     768.78     4.792
 768.78     773.00     4.630
 773.00     776.75     4.729
 776.75     781.45     4.482
 781.45     786.14     4.398
 786.14     789.89     4.264
 789.89     794.57     4.370
 794.57     797.37     4.236
 797.37     802.05     4.398
 802.05     804.40     4.250
 804.40     809.55     4.314
 809.55     814.71     4.159
 814.71     818.94     4.096
 818.94     822.69     3.983
 822.69     827.39     3.864
 827.39     830.68     3.765
 830.68     838.63     3.617
 838.63     841.44     3.786
 841.44     846.58     3.667
 846.58     850.30     3.899
 850.30     854.02     4.054
 854.02     857.26     4.442
 857.26     860.99     4.703
 860.99     866.15     4.604
 866.15     869.42     4.513
 869.42     873.63     4.752
 873.63     877.40     4.555
 877.40     885.85     4.267
 885.85     890.55     4.119
 890.55     894.75     4.013
 894.75     898.01     4.175
 898.01     901.76     4.366
 901.76     905.05     4.140
 905.05     909.74     4.056
 909.74     914.45     3.971
 914.45     917.29     3.605
 917.29     922.47     3.338
 922.47     925.31     2.943
 925.31     928.12     2.887
 928.12     934.21     2.958
 934.21     953.41     2.810
 953.41     962.31     2.747
 962.31     968.41     2.571
 968.41     973.10     2.451
 973.10     977.32     2.409
 977.32     989.50     2.276
 989.50     993.23     2.339
 993.23     997.92     2.473
 997.92    1005.00     2.227
1005.00    1012.90     2.164
1012.90    1016.20     2.114
1016.20    1020.90     2.199
1020.90    1025.10     2.171
1025.10    1028.85     2.051
1028.85    1037.70     2.122
1037.70    1041.50     2.023
1041.50    1045.25     1.946
1045.25    1049.45     1.855
1049.45    1059.30     1.728
1059.30    1064.90     1.777
1064.90    1073.35     1.637
1073.35    1077.55     1.799
1077.55    1085.05     1.651
1085.05    1090.20     1.560
1090.20    1093.95     1.609
1093.95    1104.25     1.652
1104.25    1110.35     1.546
1110.35    1113.60     1.377
1113.60    1118.30     1.455
1118.30    1122.05     1.497
1122.05    1124.85     1.455
1124.85    1134.20     1.357
1134.20    1137.50     1.392
1137.50    1140.80     1.491
1140.80    1150.15     1.427
1150.15    1153.45     1.251
1153.45    1165.10     1.393
1165.10    1174.05     1.294
1174.05    1177.75     1.428
1177.75    1181.55     1.294
1181.55    1186.70     1.245
1186.70    1189.00     1.189
1189.00    1193.20     1.323
1193.20    1197.90     1.372
1197.90    1201.60     1.400
1201.60    1207.30     1.316
1207.30    1211.00     1.267
1211.00    1214.30     1.225
1214.30    1221.75     1.331
1221.75    1230.20     1.232
1230.20    1233.95     1.204
1233.95    1237.65     1.275
1237.65    1245.70     1.127
1245.70    1249.85     0.979
1249.85    1254.55     1.099
1254.55    1256.90     0.965
1256.90    1265.35     1.036
1265.35    1288.70     0.959
1288.70    1293.40     0.818
1293.40    1297.20     0.959
1297.20    1300.45     0.847
1300.45    1309.80     0.776
1309.80    1314.00     0.875
1314.00    1317.30     0.713
1317.30    1324.80     0.756
1324.80    1329.00     1.037
1329.00    1337.40     0.833
1337.40    1345.85     0.953
1345.85    1349.60     0.791
1349.60    1353.30     0.911
1353.30    1357.10     0.806
1357.10    1361.75     0.764
1361.75    1365.05     1.010
1365.05    1373.90     0.940
1373.90    1376.70     0.806
1376.70    1380.95     0.933
1380.95    1386.55     0.975
1386.55    1390.30     0.863
1390.30    1394.50     0.997
1394.50    1397.80     0.856
1397.80    1403.40     0.969
1403.40    1407.60     0.941
1407.60    1411.40     0.899
1411.40    1415.10     0.863
1415.10    1417.90     0.920
1417.90    1422.15     0.681
1422.15    1425.40     0.885
1425.40    1428.70     0.737
1428.70    1431.00     0.822
1431.00    1432.90     0.864
1432.90    1436.20     0.751
1436.20    1439.50     0.674
1439.50    1442.30     0.801
1442.30    1446.00     0.850
1446.00    1462.90     0.681
1462.90    1473.65     0.823
1473.65    1476.90     0.788
1476.90    1481.10     0.647
1481.10    1485.30     0.872
1485.30    1495.60     0.689
1495.60    1501.30     0.746
1501.30    1505.45     0.612
1505.45    1517.65     0.725
1517.65    1530.30     0.634
1530.30    1536.80     0.585
1536.80    1542.90     0.705
1542.90    1555.55     0.627
1555.55    1563.00     0.656
1563.00    1570.05     0.705
1570.05    1573.85     0.536
1573.85    1577.10     0.635
1577.10    1580.80     0.537
1580.80    1595.80     0.635
1595.80    1598.60     0.523
1598.60    1601.90     0.488
1601.90    1604.20     0.621
1604.20    1614.50     0.551
1614.50    1618.75     0.608
1618.75    1623.00     0.643
1623.00    1632.80     0.573
1632.80    1637.95     0.460
1637.95    1640.30     0.552
1640.30                0.594
ENDDATA            358
ENDSUBENT          385
SUBENT        23242006   20150522   20160302   20151123       2244
BIB                  7         18
REACTION   (37-RB-95(0,B-)38-SR-95,,PN/DE,,REL/MSC)
            Relative beta- delayed neutrons spectrum in arb.units
           for ground state in residual nucleus Sr-94.
DECAY-DATA (37-RB-95,377.MSEC)
ANALYSIS   Partial spectrum to ground state was derived by
           subtracting all n-gamma coincidence spectra weighted
           according to their integral branching ratios Pn-i from
           the singles neutron spectrum.
EN-SEC     (E,N) Energy of delayed neutrons.
           (E-LVL,38-SR-94)
ERR-ANALYS (E-ERR-DIG) Digitizing error of E ( X scale)
           (ERR-DIG)    Digitizing error of DATA ( Y scale)
           Quantization errors:
           scale X - 0.84  keV, scale Y - 0.144 arb.units.
           (DATA-ERR) Not specified.
STATUS     (CURVE) Fig.7 lower of J,ZP/A,312,43,1983
REL-REF    (O,,K.Kratz,R,INDC(NDS)-107,103,1979)
            The same data in earlier publication, Fig. 23 lower .
ENDBIB              18
COMMON               3          3
E-ERR-DIG  ERR-DIG    E-LVL
KEV        ARB-UNITS  KEV
 1.52      0.429       0.
ENDCOMMON            3
DATA                 4        120
E-MIN      E-MAX      DATA       DATA-ERR
KEV        KEV        ARB-UNITS  ARB-UNITS
   0.34      10.43       2.069
  10.43      21.09       4.015
  21.09      31.36      88.361     2.015
  31.36      46.30      77.353     2.447
  46.30      59.57      19.998
  59.57      70.53       4.887     2.591
  70.53      81.89      11.870
  81.89      94.89       2.229     3.165
  94.89     105.75      22.454
 105.75     117.52      25.839     3.598
 117.52     130.17      24.401
 130.17     141.13      16.775
 141.13     153.73      15.122
 153.73     166.32      21.746
 166.32     178.53      23.331
 178.53     189.86      16.353
 189.86     201.63      30.964
 201.63     214.26      16.429
 214.26     227.29      27.946
 227.29     238.24      19.744
 238.24     259.64      21.258
 259.64     271.79      34.431
 271.79     285.71      35.729     4.894
 285.71     299.67      21.915
 299.67     309.78      11.122
 309.78     321.55      15.514
 321.55     332.49      10.766
 332.49     354.71      14.008
 354.71     368.54      31.787     6.045
 368.54     393.40      28.048
 393.40     403.97      15.385
 403.97     415.32      12.724
 415.32     428.31      15.822
 428.31     441.72      27.843
 441.72     462.71      28.997
 462.71     476.15      38.572     5.326
 476.15     488.83      35.120
 488.83     501.05      19.649
 501.05     522.45      26.921
 522.45     533.38      32.609
 533.38     547.23      29.662
 547.23     559.38      40.603
 559.38     571.19      44.419     5.470
 571.19     583.83      28.805
 583.83     594.32      37.227     4.749
 594.32     606.97      35.142
 606.97     631.85      26.870
 631.85     653.74      15.863
 653.74     668.03      17.234
 668.03     681.05      19.899
 681.05     691.57      21.556
 691.57     703.38      15.585
 703.38     714.74      14.076
 714.74     727.37      10.768
 727.37     739.14      12.354
 739.14     751.75      10.557
 751.75     763.08      13.582
 763.08     775.30      16.750
 775.30     787.52       7.397
 787.52     797.58       8.982
 797.58     808.93      15.965
 808.93     821.14      10.282
 821.14     833.75      15.034
 833.75     845.11      11.006
 845.11     858.18      12.736
 858.18     871.67       1.943
 871.67     881.75       0.
 881.75     893.52       6.409
 893.52     906.57       0.
 906.57     918.34       3.104
 918.34     929.71       0.
 929.71     941.06       0.805
 941.06     953.25       1.671
 953.25     965.85       0.
 965.85     977.21       7.145
 977.21     990.25       0.
 990.25     999.89       4.990
 999.89    1011.65       9.022
1011.65    1023.45       5.282
1023.45    1035.65       7.732
1035.65    1049.10       2.264
1049.10    1060.50       0.180
1060.50    1072.65       1.981
1072.65    1084.00       7.381
1084.00    1097.90       5.512
1097.90    1107.10       4.435
1107.10    1120.20       3.933
1120.20    1131.95       2.064
1131.95    1142.90       5.089
1142.90    1156.80       2.069
1156.80    1167.30       3.438
1167.30    1181.20       0.
1181.20    1194.20       2.148
1194.20    1205.15       1.863
1205.15    1215.20       0.
1215.20    1227.00       4.313
1227.00    1239.20       2.948
1239.20    1252.65       6.189
1252.65    1261.90       3.456
1261.90    1274.50       2.379
1274.50    1286.70       1.086
1286.70    1298.50       4.614
1298.50    1311.50       2.890
1311.50    1323.70       2.172
1323.70    1335.10       4.909
1335.10    1347.65       0.
1347.65    1359.45       3.115
1359.45    1370.85       6.283
1370.85    1408.25       0.
1408.25    1420.45       3.270
1420.45    1430.90       6.079
1430.90    1442.70       9.032
1442.70    1454.95       5.435
1454.95    1469.20       0.
1469.20    1479.30       2.850
1479.30    1490.65       5.370
1490.65    1503.70       0.
1503.70    1515.05       4.295
1515.05    1526.80       1.418
1526.80                  0.
ENDDATA            122
ENDSUBENT          149
SUBENT        23242007   20150522   20160302   20151123       2244
BIB                  8         18
REACTION   (37-RB-95(0,B-)38-SR-95,,PN/DE,,REL/MSC)
            Relative beta- delayed neutrons spectrum in arb.units
           for first excited 2+ level in residual nucleus Sr-94.
DECAY-DATA (37-RB-95,377.MSEC)
METHOD      Neutron-gamma coincidence with 837 keV gamma line.
CORRECTION For random coincidences,
           for the weak neutron branches to higher excited states
           in Sr-94, which gamma-deexcite to 2+ first level.
EN-SEC     (E,N) Energy of delayed neutrons.
           (E-LVL,38-SR-94)
ERR-ANALYS (E-ERR-DIG) Digitizing error of E ( X scale)
           (ERR-DIG)    Digitizing error of DATA ( Y scale)
           Quantization errors:
           scale X - 0.85  keV, scale Y - 0.144 arb.units.
           (DATA-ERR) Not specified.
STATUS     (CURVE) Fig.7 upper of J,ZP/A,312,43,1983
REL-REF    (O,,K.Kratz,R,INDC(NDS)-107,103,1979)
            The same data in earlier publication, Fig. 23 middle.
ENDBIB              18
COMMON               3          3
E-ERR-DIG  ERR-DIG    E-LVL
KEV        ARB-UNITS  KEV
 1.52       0.159      832.
ENDCOMMON            3
DATA                 4        118
E-MIN      E-MAX      DATA       DATA-ERR
KEV        KEV        ARB-UNITS  ARB-UNITS
              6.96      0.058
   6.96      18.63      3.722
  18.63      30.32     19.882       2.442
  30.32      42.09     19.024       2.155
  42.09      53.42     19.890
  53.42      66.46     24.489       3.303
  66.46      78.19     18.030
  78.19      89.08     33.544       3.878
  89.08     100.46     26.583
 100.46     113.12     28.023       4.452
 113.12     125.77     19.482
 125.77     136.65     21.711
 136.65     149.26     29.542
 149.26     161.07     22.796
 161.07     173.64     21.723
 173.64     185.82     31.134
 185.82     198.38     25.034
 198.38     211.42     40.907       6.606
 211.42     221.95     24.395
 221.95     235.75     38.115       6.319
 235.75     246.30     36.969
 246.30     256.88     32.880
 256.88     269.97     24.985
 269.97     282.63     22.476
 282.63     294.81     17.597
 294.81     305.72     25.068
 305.72     316.65     20.763
 316.65     338.46     27.518
 338.46     353.66     29.607       6.606
 353.66     365.48     16.470
 365.48     377.69     21.644
 377.69     389.47     14.037
 389.47     401.22     20.790
 401.22     413.84     18.424
 413.84     426.86     19.649
 426.86     438.17     21.592
 438.17     450.36     27.699       6.893
 450.36     462.21     22.964
 462.21     485.34     13.563
 485.34     497.95     22.688
 497.95     509.75     14.362
 509.75     521.56     17.453
 521.56     534.24      8.194
 534.24     558.17     5.1124
 558.17     569.01     16.463
 569.01     582.05     21.637       5.745
 582.05     593.46     15.322
 593.46     605.25     11.448
 605.25     618.30     12.960
 618.30     629.23      9.302
 629.23     640.16     13.039
 640.16     654.02     10.817
 654.02     665.80     15.632
 665.80     678.02      9.963
 678.02     688.93     11.547
 688.93     701.55     13.274
 701.55     712.06     11.482
 712.06     724.25     14.215
 724.25     737.29     11.275
 737.29     749.48     14.366
 749.48     760.85     11.642
 760.85     773.44     12.507
 773.44     786.91     14.163
 786.91     796.61     11.868
 796.61     807.94      7.779
 807.94     820.96     17.763       5.027
 820.96     832.77     10.085
 832.77     843.32     11.452
 843.32     857.20      2.552
 857.20     881.15     11.247
 881.15     893.35      5.364
 893.35     905.96     10.466
 905.96     916.44      6.664
 916.44     928.63     15.859
 928.63     940.45      9.903
 940.45     951.80      6.388
 951.80     964.43     11.419
 964.43     975.77      3.236
 975.77     988.80     12.934
 988.80     998.94      5.111
 998.94    1010.30      3.606
1010.30    1023.30      6.698
1023.30    1035.95      2.609
1035.95    1047.25      8.214
1047.25    1060.30     10.156
1060.30    1071.65      6.570
1071.65    1082.65      2.696
1082.65    1118.40      4.068
1118.40    1130.15      4.578
1130.15    1141.95      1.709
1141.95    1166.65      5.377
1166.65    1179.35      9.907
1179.35    1203.70      4.743
1203.70    1215.90      7.334
1215.90    1225.20      3.890
1225.20    1237.40      2.673
1237.40    1251.30      0.
1251.30    1260.50      2.681
1260.50    1285.75      5.559
1285.75    1297.10      2.333
1297.10    1310.10      4.563
1310.10    1321.10      3.202
1321.10    1332.45      1.483
1332.45    1344.60      5.436
1344.60    1354.70      3.644
1354.70    1368.60      0.560
1368.60    1379.50      4.657
1379.50    1403.50      6.314
1403.50    1415.25      1.796
1415.25    1452.70      0.
1452.70    1464.90      5.690
1464.90    1475.00      1.169
1475.00    1487.60      0.
1487.60    1497.70      6.634
1497.70    1509.50      0.892
1509.50    1520.80      3.625
1520.80    1535.90      5.927
1535.90    1545.60      4.638
ENDDATA            120
ENDSUBENT          147
SUBENT        23242008   20170706   20180122   20180122       2260
BIB                  7         13
REACTION   (37-RB-93(0,B-)38-SR-93,,PN/DE,,REL)
            Relative beta- delayed neutrons spectrum in arb.units.
DECAY-DATA (37-RB-93,5.8SEC)
EN-SEC     (E,N) Energy of delayed neutrons.
ERR-ANALYS (E-ERR-DIG) Digitizing error of E ( X scale)
           (ERR-DIG)    Digitizing error of DATA ( Y scale)
           Quantization errors:
           scale X - 2.71 keV, scale Y - 2.24 arb.units.
STATUS     (CURVE) Fig.14a of P,MAINZ-76,37,1977
           (PRELM) Preliminary data (see conclusion in 77HIRSCHEG)
REL-REF    (O,,K.Kratz,R,INDC(NDS)-107,103,1979)
           The same spectrum is presented on Fig.20b.
HISTORY    (20170706C) M.M. Subent was added.
ENDBIB              13
COMMON               2          3
E-ERR-DIG  ERR-DIG
KEV        ARB-UNITS
 1.37       1.61
ENDCOMMON            3
DATA                 3        230
E-MIN      E-MAX      DATA
KEV        KEV        ARB-UNITS
-5.93         -0.51       113.77
  -0.51        6.29       202.02
   6.29       17.13       394.16
  17.13       23.89       401.98
  23.89       29.30       434.37
  29.30       34.69       398.62
  34.69       40.08       332.71
  40.08       46.83       298.08
  46.83       52.25       302.55
  52.25       57.69       390.80
  57.69       67.16       505.86
  67.16       72.55       490.22
  72.55       77.96       431.01
  77.96       83.38       467.87
  83.38       90.16       534.90
  90.16       94.26       657.78
  94.26       99.70       794.07
  99.70      103.76       867.80
 103.76      107.84       875.62
 107.84      113.26       971.69
 113.26      121.37       1001.9
 121.37      126.74       969.46
 126.74      132.11       819.76
 132.11      137.51       744.91
 137.51      144.27       757.20
 144.27      151.04       806.35
 151.04      155.09       798.53
 155.09      161.82       757.20
 161.82      167.21       680.11
 167.21      172.61       642.13
 172.61      178.01       622.02
 178.01      184.78       642.12
 184.78      192.90       683.46
 192.90      199.65       704.68
 199.65      202.35       680.10
 202.35      210.48       676.75
 210.48      218.67       847.67
 218.67      221.49      1194.00
 221.49      226.97      1600.60
 226.97      235.07      1663.20
 235.07      241.80      1569.30
 241.80      247.16      1472.15
 247.16      253.89      1333.60
 253.89      262.00      1272.20
 262.00      267.41      1352.60
 267.41      272.78      1246.50
 272.78      278.16      1144.80
 278.16      283.55      1090.10
 283.55      288.95      1085.60
 288.95      294.38      1042.00
 294.38      299.84      1205.10
 299.84      306.62      1402.85
 306.62      313.37      1382.75
 313.37      320.09      1323.50
 320.09      325.45      1205.10
 325.45      332.17      1013.00
 332.17      336.20       970.53
 336.20      342.94       877.81
 342.94      348.36       849.88
 348.36      353.78       970.52
 353.78      359.19       916.90
 359.19      365.97       1055.4
 365.97      372.73      1062.10
 372.73      378.13      1031.95
 378.13      386.22      1009.60
 386.22      397.00       959.34
 397.00      403.72       815.23
 403.72      407.75       733.68
 407.75      414.48       675.59
 414.48      421.22       540.42
 421.22      423.94       586.22
 423.94      428.02       608.56
 428.02      436.19       800.70
 436.19      442.98       968.27
 442.98      451.10      1028.60
 451.10      457.85      1033.10
 457.85      463.24       983.91
 463.24      469.98       939.22
 469.98      475.37       868.84
 475.37      482.10       842.03
 482.10      490.17       686.75
 490.17      498.28       642.06
 498.28      503.71       721.38
 503.71      509.13       750.42
 509.13      515.90       861.01
 515.90      522.62       810.74
 522.62      529.36       665.51
 529.36      534.76       637.58
 534.76      540.18       690.09
 540.18      545.57       678.91
 545.57      549.60       613.00
 549.60      556.33       524.75
 556.33      560.39       470.01
 560.39      567.14       501.29
 567.14      575.23       455.48
 575.23      580.64       407.44
 580.64      586.06       465.53
 586.06      594.18       519.15
 594.18      599.60       577.24
 599.60      604.98       543.73
 604.98      610.39       474.47
 610.39      615.80       525.85
 615.80      623.91       510.21
 623.91      627.96       539.26
 627.96      634.71       520.26
 634.71      641.44       499.04
 641.44      648.19       360.51
 648.19      653.61       429.77
 653.61      659.00       435.36
 659.00      665.75       369.44
 665.75      671.17       385.08
 671.17      675.22       420.83
 675.22      681.99       407.42
 681.99      687.41       474.45
 687.41      695.51       487.85
 695.51      702.26       455.46
 702.26      707.66       434.23
 707.66      713.07       398.48
 713.07      719.83       474.44
 719.83      731.97       425.29
 731.97      737.36       347.09
 737.36      742.76       315.81
 742.76      748.17       347.08
 748.17      753.58       315.80
 753.58      758.99       378.36
 758.99      765.76       391.77
 765.76      771.16       452.09
 771.16      777.90       361.60
 777.90      786.01       351.55
 786.01      791.40       343.73
 791.40      796.79       276.70
 796.79      800.85       268.87
 800.85      804.90       274.46
 804.90      817.04       217.48
 817.04      822.43       176.15
 822.43      829.18       112.47
 829.18      842.70       139.28
 842.70      848.10       135.93
 848.10      854.86       145.98
 854.86      858.91       122.52
 858.91      862.96        96.83
 862.96      871.06       114.70
 871.06      875.11        81.182
 875.11      879.16        74.48
 879.16      883.22        81.18
 883.22      887.28        92.35
 887.28      892.68        81.18
 892.68      899.44        63.30
 899.44      904.84        91.23
 904.84      912.94        76.71
 912.94      919.70        55.48
 919.70      925.11        77.82
 925.11      931.86        55.48
 931.86      935.91        51.01
 935.91      942.67        56.59
 942.67      945.38        73.35
 945.38      953.50        83.40
 953.50      958.90       121.38
 958.90      967.01       111.33
 967.01      972.41       100.15
 972.41      977.81        81.16
 977.81      983.21        72.22
 983.21      985.92        78.92
 985.92      989.97        81.16
 989.97      994.03        87.86
 994.03      998.08        83.39
 998.08     1004.80        76.69
1004.80     1008.85        84.50
1008.85     1018.35        92.32
1018.35     1025.10        65.51
1025.10     1031.90        78.92
1031.90     1037.30        87.85
1037.30     1044.05        45.40
1044.05     1048.10        66.62
1048.10     1056.20        56.57
1056.20     1062.95        47.63
1062.95     1077.80        64.38
1077.80     1084.55        56.56
1084.55     1092.65        69.96
1092.65     1096.70        61.03
1096.70     1102.10        47.62
1102.10     1104.80        61.02
1104.80     1114.25        71.08
1114.25     1125.05        56.55
1125.05     1137.30        49.85
1137.30     1145.40        61.02
1145.40     1150.80        53.20
1150.80     1161.60        45.37
1161.60     1168.35        63.25
1168.35     1183.20        47.60
1183.20     1218.30        40.90
1218.30     1227.75        45.36
1227.75     1239.95        54.29
1239.95     1252.15        43.12
1252.15     1256.20        30.83
1256.20     1261.60        49.82
1261.60     1276.45        43.12
1276.45     1284.55        49.82
1284.55     1298.05        53.16
1298.05     1307.50        60.98
1307.50     1318.30        39.76
1318.30     1323.70        48.69
1323.70     1331.80        40.87
1331.80     1345.35        37.51
1345.35     1356.20        45.33
1356.20     1364.30        36.39
1364.30     1383.20        47.56
1383.20     1398.05        37.50
1398.05     1411.55        47.56
1411.55     1418.30        28.56
1418.30     1423.70        36.38
1423.70     1429.10        31.91
1429.10     1442.60        39.73
1442.60     1450.75        29.67
1450.75     1456.20        38.61
1456.20     1464.30        29.67
1464.30     1479.15        34.14
1479.15     1491.30        29.66
1491.30     1507.50        37.48
1507.50     1531.80        34.13
1531.80     1539.90        40.82
1539.90     1550.70        31.89
1550.70     1567.00        22.95
1567.00     1573.75        27.41
1573.75     1588.60        31.88
1588.60     1598.05        26.29
1598.05     1610.20        29.64
1610.20     1615.60        20.70
1615.60     1621.00        27.40
1621.00     1629.10        36.34
ENDDATA            232
ENDSUBENT          254
SUBENT        23242009   20150522   20180122   20180122       2260
BIB                  7         15
REACTION   (37-RB-94(0,B-)38-SR-94,,PN/DE,,REL)
            Relative beta- delayed neutrons spectrum in arb.units.
DECAY-DATA (37-RB-94,2.7SEC)
EN-SEC     (E,N) Energy of delayed neutrons.
ERR-ANALYS (E-ERR-DIG) Digitizing error of E ( X scale)
           (ERR-DIG)    Digitizing error of DATA ( Y scale)
           Quantization errors:
           scale X - 1.48 keV, scale Y - 2.44 arb.units.
STATUS     (CURVE) Fig.14b upper of P,MAINZ-76,37,1977
           (PRELM) Preliminary data (see conclusion in 77HIRSCHEG)
           (SPSDD,23242017) Newer publication P,MAINZ-78,41,1979,
            different Y scale units - counts/12 keV .
REL-REF    (O,,K.Kratz,R,INDC(NDS)-107,103,1979)
           The same spectrum is presented on Fig.20c.
HISTORY    (20170706C) M.M. Subent was added.
ENDBIB              15
COMMON               2          3
E-ERR-DIG  ERR-DIG
KEV        ARB-UNITS
  1.67       2.70
ENDCOMMON            3
DATA                 3        243
E-MIN      E-MAX      DATA
KEV        KEV        ARB-UNITS
 0.00         0.89       128.84
   0.89       7.76       327.30
   7.76      13.68       604.88
  13.68      20.75       697.37
  20.75      28.06       820.27
  28.06      32.15      1034.55
  32.15      39.18      1019.85
  39.18      44.51       876.11
  44.51      50.05       751.82
  50.05      56.74       711.56
  56.74      61.42       788.23
  61.42      69.66       838.08
  69.66      74.06       859.92
  74.06      82.85       831.85
  82.85      88.04       843.93
  88.04      92.66       852.41
  92.66      98.03       940.05
  98.03     104.84       958.24
 104.84     109.72      1036.10
 109.72     116.32      1182.20
 116.32     120.09      1380.60
 120.09     123.45      1581.55
 123.45     127.11      1586.40
 127.11     133.50      1570.45
 133.50     139.68      1475.45
 139.68     145.15      1357.20
 145.15     153.13      1276.75
 153.13     165.19      1305.90
 165.19     169.80      1412.95
 169.80     175.71      1399.55
 175.71     180.83      1432.30
 180.83     188.83      1384.75
 188.83     194.71      1390.75
 194.71     200.57      1380.95
 200.57     204.88      1374.80
 204.88     212.24      1332.10
 212.24     217.56      1380.75
 217.56     224.20      1409.90
 224.20     229.29      1397.70
 229.29     234.17      1379.35
 234.17     242.09      1267.25
 242.09     247.25      1297.60
 247.25     251.58      1271.95
 251.58     259.01      1262.15
 259.01     265.72      1305.90
 265.72     272.99      1300.95
 272.99     277.69      1265.60
 277.69     282.94      1438.45
 282.94     289.52      1319.05
 289.52     295.34      1421.30
 295.34     302.43      1640.45
 302.43     307.73      1644.00
 307.73     312.94      1719.45
 312.94     320.95      1673.10
 320.95     325.96      1681.55
 325.96     333.20      1601.15
 333.20     337.73      1629.00
 337.73     342.96      1658.20
 342.96     350.99      1666.65
 350.99     356.69      1628.85
 356.69     361.66      1583.70
 361.66     367.91      1538.55
 367.91     373.32      1407.00
 373.32     378.92      1309.55
 378.92     385.57      1271.70
 385.57     390.69      1320.35
 390.69     397.31      1256.95
 397.31     403.19      1322.60
 403.19     409.44      1249.50
 409.44     415.12      1154.45
 415.12     421.52      1145.85
 421.52     427.34      1050.75
 427.34     433.99      1112.85
 433.99     438.18      1065.25
 438.18     446.19      1005.55
 446.19     451.94      1022.50
 451.94     457.01       942.06
 457.01     464.38       988.26
 464.38     468.64       949.22
 468.64     473.76       915.07
 473.76     481.07       935.70
 481.07     486.10       890.58
 486.10     492.71       878.33
 492.71     498.49       886.78
 498.49     504.19       827.04
 504.19     510.85       801.40
 510.85     515.96       843.94
 515.96     520.22       779.36
 520.22     527.62       769.55
 527.62     535.17       807.23
 535.17     540.89       860.72
 540.89     546.64       731.57
 546.64     551.17       794.84
 551.17     557.64       786.26
 557.64     564.10       722.85
 564.10     574.52       710.58
 574.52     583.25       781.10
 583.25     588.88       664.11
 588.88     594.67       656.74
 594.67     599.65       622.58
 599.65     606.14       577.44
 606.14     612.80       556.67
 612.80     618.13       596.80
 618.13     622.67       645.44
 622.67     629.28       658.79
 629.28     635.88       635.57
 635.88     642.46       652.55
 642.46     646.02       617.16
 646.02     654.78       595.18
 654.78     660.58       589.01
 660.58     666.33       547.54
 666.33     673.03       530.41
 673.03     678.15       583.92
 678.15     684.08       515.67
 684.08     689.36       605.73
 689.36     695.12       578.88
 695.12     702.37       545.91
 702.37     707.47       528.79
 707.47     714.62       521.42
 714.62     719.55       431.23
 719.55     726.33       414.11
 726.33     732.35       510.25
 732.35     738.97       480.96
 738.97     749.38       512.52
 749.38     756.67       534.34
 756.67     762.40       479.46
 762.40     767.48       459.91
 767.48     773.25       446.47
 773.25     779.25       408.63
 779.25     785.23       495.04
 785.23     791.72       458.42
 791.72     796.79       432.78
 796.79     801.34       424.22
 801.34     808.78       493.56
 808.78     814.55       464.26
 814.55     821.07       439.83
 821.07     826.85       420.27
 826.85     834.93       384.88
 834.93     840.25       418.90
 840.25     846.85       465.11
 846.85     851.90       409.02
 851.90     858.45       421.13
 858.45     863.46       376.01
 863.46     868.60       355.25
 868.60     875.88       367.36
 875.88     881.65       322.23
 881.65     887.55       311.20
 887.55     900.14       328.14
 900.14     906.85       354.82
 906.85     912.69       369.37
 912.69     917.02       337.64
 917.02     924.48       330.27
 924.48     928.95       386.23
 928.95     935.50       359.38
 935.50     940.68       352.00
 940.68     947.29       371.42
 947.29     950.93       348.22
 950.93     958.86       359.12
 958.86     966.07       262.82
 966.07     970.51       293.19
 970.51     976.52       274.88
 976.52     982.45       352.75
 982.45     987.52       297.88
 987.52     992.77       318.53
 992.77    1000.80       341.58
1000.80    1005.05       296.45
1005.05    1011.65       261.09
1011.65    1020.35       269.52
1020.35    1026.95       212.19
1026.95    1036.55       264.47
1036.55    1040.80       221.76
1040.80    1047.40       208.30
1047.40    1054.80       200.92
1054.80    1059.30       230.08
1059.30    1066.60       243.41
1066.60    1073.85       198.27
1073.85    1080.45       187.23
1080.45    1085.70       194.47
1085.70    1093.05       228.50
1093.05    1097.35       193.11
1097.35    1104.65       182.09
1104.65    1110.40       149.13
1110.40    1115.60       140.55
1115.60    1122.20       170.91
1122.20    1126.55       131.89
1126.55    1133.95       135.48
1133.95    1139.10       154.89
1139.10    1144.20       130.47
1144.20    1150.15       142.59
1150.15    1156.80       149.83
1156.80    1170.20       167.98
1170.20    1176.05       208.06
1176.05    1181.10       161.72
1181.10    1187.60       155.57
1187.60    1194.90       117.74
1194.90    1200.85       128.62
1200.85    1206.10       144.39
1206.10    1212.60       157.70
1212.60    1217.65       115.03
1217.65    1222.05       107.66
1222.05    1230.20       105.16
1230.20    1236.90       140.38
1236.90    1242.00       128.15
1242.00    1255.10       115.87
1255.10    1259.45        91.40
1259.45    1266.10        85.26
1266.10    1273.50        92.48
1273.50    1277.95        99.72
1277.95    1289.00       115.47
1289.00    1295.50       105.62
1295.50    1302.05        56.84
1302.05    1308.00        75.03
1308.00    1315.35        88.35
1315.35    1325.75        93.13
1325.75    1333.85       107.63
1333.85    1339.70        95.38
1339.70    1350.65        89.20
1350.65    1357.25        67.17
1357.25    1360.25        91.47
1360.25    1374.25        81.64
1374.25    1379.40       103.44
1379.40    1383.80        86.34
1383.80    1391.85        83.84
1391.85    1398.45        91.06
1398.45    1405.10        71.50
1405.10    1415.40       103.07
1415.40    1427.10        72.50
1427.10    1438.90        62.61
1438.90    1445.55        80.79
1445.55    1452.95        86.79
1452.95    1458.85       102.55
1458.85    1463.15        76.92
1463.15    1469.70        67.12
1469.70    1476.35        58.51
1476.35    1480.75        80.37
1480.75    1488.10        49.86
1488.10    1492.50        58.31
1492.50    1517.50        44.75
1517.50    1524.90        65.27
1524.90    1531.45        60.32
1531.45    1540.25        37.09
1540.25    1546.15        39.46
1546.15    1552.80        55.20
ENDDATA            245
ENDSUBENT          269
SUBENT        23242010   20150522   20180122   20180122       2260
BIB                  6         11
REACTION   (37-RB-94(0,B-)38-SR-94,,PN/DE,,REL)
            Relative beta- delayed neutrons spectrum in arb.units.
DECAY-DATA (37-RB-94,2.7SEC)
EN-SEC     (E,N) Energy of delayed neutrons.
ERR-ANALYS (E-ERR-DIG) Digitizing error of E ( X scale)
           (ERR-DIG)    Digitizing error of DATA ( Y scale)
           Quantization errors:
           scale X - 1.48 keV, scale Y - 0.242 arb.units.
STATUS     (CURVE) Fig.14b lower of P,MAINZ-76,37,1977
           (PRELM) Preliminary data (see conclusion in 77HIRSCHEG)
HISTORY    (20170706C) M.M. Subent was added.
ENDBIB              11
COMMON               2          3
E-ERR-DIG  ERR-DIG
KEV        ARB-UNITS
  1.42      0.118
ENDCOMMON            3
DATA                 3        154
E-MIN      E-MAX      DATA
KEV        KEV        ARB-UNITS
1498.2      1504.25    33.839
1504.25     1510.25    40.377
1510.25     1517.00    38.432
1517.00     1521.15    43.758
1521.15     1527.45    61.814
1527.45     1532.80    59.746
1532.80     1538.25    36.831
1538.25     1545.70    34.764
1545.70     1551.45    39.605
1551.45     1557.80    64.689
1557.80     1563.25    23.349
1563.25     1568.85    41.284
1568.85     1575.20    44.549
1575.20     1580.95    61.028
1580.95     1586.70    72.779
1586.70     1592.70    55.196
1592.70     1599.40    38.341
1599.40     1603.95    57.002
1603.95     1611.75    45.965
1611.75     1616.95    41.230
1616.95     1622.85    45.588
1622.85     1629.75    39.277
1629.75     1634.60    57.696
1634.60     1641.60    60.840
1641.60     1646.50    39.016
1646.50     1652.70    45.314
1652.70     1659.25    55.850
1659.25     1665.35    36.692
1665.35     1672.20    30.262
1672.20     1676.10    46.740
1676.10     1683.20    39.098
1683.20     1689.45    32.304
1689.45     1694.70    54.720
1694.70     1700.75    37.261
1700.75     1706.95    25.253
1706.95     1712.25    15.188
1712.25     1720.30    29.967
1720.30     1725.55    47.657
1725.55     1744.00    32.978
1744.00     1749.45    45.691
1749.45     1755.75    10.535
1755.75     1764.20    25.919
1764.20     1772.20    25.669
1772.20     1779.50    22.993
1779.50     1790.55    21.044
1790.55     1796.65    18.489
1796.65     1801.85    30.361
1801.85     1808.05    21.142
1808.05     1815.45     8.409
1815.45     1827.70    20.640
1827.70     1831.95    26.086
1831.95     1839.35    13.474
1839.35     1844.10    25.952
1844.10     1851.85    28.733
1851.85     1858.15    42.421
1858.15     1862.35    13.446
1862.35     1867.80    28.351
1867.80     1875.00    26.767
1875.00     1882.25    19.487
1882.25     1887.50    21.663
1887.50     1892.85    19.474
1892.85     1899.50    32.680
1899.50     1904.25    16.188
1904.25     1911.85    14.364
1911.85     1922.80    24.899
1922.80     1929.90     8.283
1929.90     1935.75    10.822
1935.75     1941.95     6.452
1941.95     1948.70    21.716
1948.70     1953.75    11.287
1953.75     1958.95    16.855
1958.95     1966.25    11.274
1966.25     1970.10    12.966
1970.10     1976.95    17.201
1976.95     1983.70    24.709
1983.70     1989.30    22.035
1989.30     1994.90     8.696
1994.90     2005.10     6.142
2005.10     2014.75     0.
2014.75     2019.30     7.820
2019.30     2027.70     6.602
2027.70     2032.15    19.685
2032.15     2038.95     6.708
2038.95     2044.10    28.642
2044.10     2049.65     3.666
2049.65     2056.55    12.024
2056.55     2061.75    14.320
2061.75     2067.60    15.162
2067.60     2073.25     8.973
2073.25     2079.20     3.393
2079.20     2085.45    11.749
2085.45     2092.00    17.923
2092.00     2098.50     6.401
2098.50     2104.40     8.941
2104.40     2121.70     6.382
2121.70     2127.50    21.279
2127.50     2134.25     3.454
2134.25     2145.30     23.443
2145.30     2151.80     3.920
2151.80     2157.90    14.821
2157.90     2163.85    12.269
2163.85     2171.15    17.717
2171.15     2176.25     6.679
2176.25     2181.45    15.159
2181.45     2187.10     6.304
2187.10     2198.20     3.264
2198.20     2205.80     6.042
2205.80     2212.35    11.853
2212.35     2219.05     3.482
2219.05     2224.30    12.081
2224.30     2230.75     6.257
2230.75     2242.65     3.217
2242.65     2248.00     9.026
2248.00     2253.80    12.171
2253.80     2260.40     3.558
2260.40     2265.45     8.643
2265.45     2273.10     0.
2273.10     2278.35    20.628
2278.35     2284.80     3.532
2284.80     2290.75     8.736
2290.75     2297.20     3.397
2297.20     2307.05     0.
2307.05     2313.75    15.015
2313.75     2319.40     3.373
2319.40     2326.05     0.456
2326.05     2332.15     3.236
2332.15     2338.10     8.928
2338.10     2345.35     6.374
2345.35     2351.30     0.549
2351.30     2356.60     9.148
2356.60     2367.45     3.565
2367.45     2375.75     0.
2375.75     2381.10    11.789
2381.10     2387.50     8.994
2387.50     2403.80     0.
2403.80     2410.55     9.091
2410.55     2416.40     3.629
2416.40     2422.95     6.167
2422.95     2439.90     0.
2439.90     2446.60     3.233
2446.60     2457.80     0.
2457.80     2464.45     7.939
2464.45     2475.45     0.
2475.45     2481.35     3.195
2481.35     2494.75     0.
2494.75     2501.40     5.839
2501.40     2505.05     0.501
2505.05     2510.35     5.829
2510.35     2518.35     3.277
2518.35     2526.45     0.
2526.45     2531.65     3.018
2531.65     2542.75     0.
2542.75     2561.25     3.357
2561.25                 0.0
ENDDATA            156
ENDSUBENT          176
SUBENT        23242011   20150522   20180122   20180122       2260
BIB                  7         13
REACTION   (37-RB-96(0,B-)38-SR-96,,PN/DE,,REL)
            Relative beta- delayed neutrons spectrum in arb.units.
DECAY-DATA (37-RB-96,0.20SEC)
EN-SEC     (E,N) Energy of delayed neutrons.
ERR-ANALYS (E-ERR-DIG) Digitizing error of E ( X scale)
           (ERR-DIG)    Digitizing error of DATA ( Y scale)
           Quantization errors:
           scale X - 1.96 keV, scale Y - 0.318 arb.units.
STATUS     (CURVE) Fig.14d of P,MAINZ-76,37,1977
           (PRELM) Preliminary data (see conclusion in 77HIRSCHEG)
REL-REF    (O,,K.Kratz,R,INDC(NDS)-107,103,1979)
           The same spectrum is presented on Fig.20e.
HISTORY    (20170706C) M.M. Subent was added.
ENDBIB              13
COMMON               2          3
E-ERR-DIG  ERR-DIG
KEV        ARB-UNITS
 0.570      0.108
ENDCOMMON            3
DATA                 3        230
E-MIN      E-MAX      DATA
KEV        KEV        ARB-UNITS
               5.605    53.252
    5.605     11.537     66.930
   11.537     17.907    144.855
   17.907     25.511    148.055
   25.511     35.315    126.765
   35.315     39.742    170.505
   39.742     48.859    184.670
   48.859     53.379    162.585
   53.379     61.586    147.175
   61.586     67.027    153.235
   67.027     72.431    180.595
   72.431     77.872    210.975
   77.872     84.511    213.695
   84.511     89.471    192.715
   89.471     97.124    165.225
   97.124    102.705    150.450
  102.705    108.530    148.555
  108.530    114.495    151.430
  114.495    121.070    169.570
  121.070    126.785    181.035
  126.785    131.725    173.095
  131.725    139.020    156.575
  139.020    143.805    162.310
  143.805    149.890    182.355
  149.890    158.345    180.300
  158.345    165.680    167.445
  165.680    172.890    168.575
  172.890    178.685    181.625
  178.685    189.320    193.730
  189.320    193.175    184.675
  193.175    197.935    171.655
  197.935    204.260    164.190
  204.260    212.395    161.030
  212.395    218.080    156.750
  218.080    222.970    141.655
  222.970    227.630    133.875
  227.630    234.410    146.925
  234.410    240.615    158.705
  240.615    247.755    185.435
  247.755    252.795    198.165
  252.795    259.875    205.175
  259.875    266.255    215.685
  266.255    271.465    216.335
  271.465    279.285    184.550
  279.285    283.690    169.935
  283.690    290.335    196.025
  290.335    296.295    197.785
  296.295    303.765    194.145
  303.765    308.815    205.925
  308.815    313.545    213.405
  313.545    319.670    209.920
  319.670    324.540    183.860
  324.540    331.005    163.995
  331.005    337.445    169.575
  337.445    342.845    173.245
  342.845    356.590    180.895
  356.590    361.955    148.325
  361.955    372.040    123.540
  372.040    379.755    117.040
  379.755    385.780    126.275
  385.780    392.700    113.090
  392.700    397.880    101.495
  397.880    408.260    105.970
  408.260    421.355    110.605
  421.355    425.300     96.313
  425.300    431.990     86.785
  431.990    440.305     76.626
  440.305    443.720     75.049
  443.720    450.040     88.573
  450.040    457.725     87.160
  457.725    463.325     92.103
  463.325    469.175     93.228
  469.175    473.870     69.551
  473.870    481.855     74.332
  481.855    487.825     88.819
  487.825    492.010     72.133
  492.010    500.070     58.793
  500.070    504.250     66.436
  504.250    511.080     75.513
  511.080    517.450     67.100
  517.450    523.520     63.299
  523.520    529.490     62.358
  529.490    535.140     60.781
  535.140    541.685     67.471
  541.685    548.530     67.805
  548.530    553.750     67.340
  553.750    563.485     60.362
  563.485    569.350     68.011
  569.350    576.660     60.076
  576.660    583.205     57.388
  583.205    588.510     66.941
  588.510    595.540     70.772
  595.540    602.850     62.359
  602.850    606.615     59.990
  606.615    611.730     65.560
  611.730    618.525     54.763
  618.525    626.275     43.491
  626.275    631.195     56.225
  631.195    636.830     65.935
  636.830    643.050     61.814
  643.050    649.270     57.694
  649.270    655.390     53.255
  655.390    661.280     51.680
  661.280    666.915     52.805
  666.915    673.720     56.951
  673.720    679.680     53.628
  679.680    687.205     55.233
  687.205    694.365     60.019
  694.365    698.060     47.946
  698.060    702.600     42.075
  702.600    708.550     56.076
  708.550    716.085     63.406
  716.085    722.620     62.626
  722.620    728.495     47.695
  728.495    736.810     39.124
  736.810    745.285     36.121
  745.285    749.585     46.630
  749.585    756.185     50.297
  756.185    761.785     52.221
  761.785    770.620     56.371
  770.620    774.330     51.774
  774.330    780.915     37.632
  780.915    787.820     34.947
  787.820    792.590     35.911
  792.590    796.940     37.991
  796.940    803.820     48.337
  803.820    810.675     37.221
  810.675    817.520     24.837
  817.520    823.520     37.251
  823.520    828.035     44.897
  828.035    833.880     46.180
  833.880    841.985     45.081
  841.985    845.210     39.687
  845.210    851.020     38.267
  851.020    856.900     40.824
  856.900    863.885     37.977
  863.885    870.945     37.355
  870.945    876.610     33.078
  876.610    883.705     41.837
  883.705    889.745     50.279
  889.745    893.220     38.045
  893.220    899.665     37.102
  899.665    906.415     47.611
  906.415    911.610     39.197
  911.610    918.080     40.802
  918.080    925.400     47.653
  925.400    935.655     29.545
  935.655    942.325     36.243
  942.325    947.240     33.552
  947.240    952.110     35.950
  952.110    959.330     33.576
  959.330    968.100     27.395
  968.100    973.615     33.929
  973.615    978.300     36.006
  978.300    984.170     38.564
  984.170    989.480     35.871
  989.480    993.520     28.728
  993.520   1000.165     32.555
 1000.165   1007.600     34.002
 1007.600   1014.300     40.537
 1014.300   1019.700     37.528
 1019.700   1026.750     29.435
 1026.750   1035.150     32.948
 1035.150   1043.600     37.739
 1043.600   1049.450     41.570
 1049.450   1056.450     38.085
 1056.450   1061.650     38.736
 1061.650   1068.600     29.846
 1068.600   1072.200     35.419
 1072.200   1078.500     37.820
 1078.500   1085.550     26.384
 1085.550   1090.150     32.279
 1090.150   1096.250     33.087
 1096.250   1103.450     26.108
 1103.450   1108.500     25.005
 1108.500   1115.350     21.842
 1115.350   1120.050     25.193
 1120.050   1124.800     26.315
 1124.800   1132.300     28.714
 1132.300   1138.100     33.817
 1138.100   1143.450     29.375
 1143.450   1151.200     23.032
 1151.200   1157.500     31.633
 1157.500   1163.450     35.781
 1163.450   1171.600     29.913
 1171.600   1180.600     28.023
 1180.600   1186.150     25.338
 1186.150   1193.450     35.846
 1193.450   1199.550     36.656
 1199.550   1204.750     30.468
 1204.750   1212.400     29.528
 1212.400   1216.850     34.946
 1216.850   1221.050     39.726
 1221.050   1226.850     28.132
 1226.850   1231.650     17.331
 1231.650   1239.650     30.700
 1239.650   1245.750     35.647
 1245.750   1251.950     25.325
 1251.950   1258.550     28.199
 1258.550   1263.550     30.916
 1263.550   1269.750     24.727
 1269.750   1276.650     23.310
 1276.650   1282.600     23.643
 1282.600   1286.750     20.793
 1286.750   1292.450     19.214
 1292.450   1300.650     25.111
 1300.650   1306.350     32.602
 1306.350   1312.600     29.275
 1312.600   1316.700     23.245
 1316.700   1321.650     25.002
 1321.650   1326.750     21.358
 1326.750   1335.400     20.577
 1335.400   1340.900     24.409
 1340.900   1347.550     29.194
 1347.550   1353.700     28.730
 1353.700   1357.800     23.813
 1357.800   1364.600     23.190
 1364.600   1370.050     24.473
 1370.050   1376.700     33.073
 1376.700   1382.050     29.270
 1382.050   1389.150     22.926
 1389.150   1393.150     21.665
 1393.150   1400.750     21.042
 1400.750   1406.300     27.416
 1406.300   1411.800     29.654
 1411.800   1424.950     34.764
 1424.950   1428.450     19.676
 1428.450   1438.100     21.599
 1438.100   1442.550     21.297
 1442.550   1446.900     10.495
ENDDATA            232
ENDSUBENT          254
SUBENT        23242012   20150522   20180122   20180122       2260
BIB                  8         15
REACTION   (37-RB-93(0,B-)38-SR-93,,PN)
            Beta- delayed neutrons emission probability Pn is
           given on % in Table 1, divided by 100. by compiler to
           obtain NO-DIM units.
DECAY-DATA (37-RB-93,5.8SEC)
ANALYSIS    Obtained from gamma-ray spectra .
MISC-COL   (MISC) Neutron decay to excited states in the final
           nucleus in % of total neutron emission probability Pn
           divided by 100. by compiler to obtain NO-DIM units.
ERR-ANALYS (DATA-ERR) Type of error is not explained in the articl
STATUS     (TABLE) Table 1 of P,MAINZ-76,41,1977
                 = Table 1 of 77HIRSCHEGG,,208,1977
           (PRELM) Preliminary data (see conclusion in 77HIRSCHEG)
REL-REF    (A,,E.Roeckl+,J,NP/A,222,621,1974) 1.24+-0.14 % .
HISTORY    (20170706C) M.M. Subent was added.
ENDBIB              15
NOCOMMON             0          0
DATA                 4          1
DATA       DATA-ERR   MISC       MISC-ERR
NO-DIM     NO-DIM     NO-DIM     NO-DIM
 0.0132     0.0003     0.090      0.010
ENDDATA              3
ENDSUBENT           23
SUBENT        23242013   20150522   20180122   20180122       2260
BIB                  8         15
REACTION   (37-RB-94(0,B-)38-SR-93,,PN)
            Beta- delayed neutrons emission probability Pn is
           given on % in Table 1, divided by 100. by compiler to
           obtain NO-DIM units.
DECAY-DATA (37-RB-94,2.7SEC)
ANALYSIS    Obtained from gamma-ray spectra .
MISC-COL   (MISC) Neutron decay to excited states in the final
           nucleus in % of total neutron emission probability Pn
ERR-ANALYS (DATA-ERR) Type of error is not explained in the articl
STATUS     (TABLE) Table 1 of P,MAINZ-76,41,1977
                 = Table 1 of 77HIRSCHEGG,,208,1977
           (PRELM) Preliminary data (see conclusion in 77HIRSCHEG)
REL-REF    (A,,E.Roeckl+,J,NP/A,222,621,1974)   8.46+-0.92 %
            A,,C.Ristori+,Report,ILL-03-01-018,1976  9.68+-0.5 %
HISTORY    (20170706C) M.M. Subent was added.
ENDBIB              15
NOCOMMON             0          0
DATA                 4          1
DATA       DATA-ERR   MISC       MISC-ERR
NO-DIM     NO-DIM     NO-DIM     NO-DIM
 0.101      0.013      0.599      0.093
ENDDATA              3
ENDSUBENT           23
SUBENT        23242014   20150522   20180122   20180122       2260
BIB                  8         17
REACTION   (37-RB-95(0,B-)38-SR-95,,PN)
            Beta- delayed neutrons emission probability Pn is
           given on % in Table 1, divided by 100. by compiler to
           obtain NO-DIM units.
DECAY-DATA (37-RB-95,0.38SEC)
ANALYSIS    Obtained from gamma-ray spectra .
MISC-COL   (MISC) Neutron decay to excited states in the final
           nucleus in % of total neutron emission probability Pn
           under assumption that all levels in the final nucleus
           deexcite via the first 2+ state.
ERR-ANALYS (DATA-ERR) Type of error is not explained in the articl
STATUS     (TABLE) Table 1 of P,MAINZ-76,41,1977
                 = Table 1 of 77HIRSCHEGG,,208,1977
           (PRELM) Preliminary data (see conclusion in 77HIRSCHEG)
REL-REF    (A,,E.Roeckl+,J,NP/A,222,621,1974)   8.54+-0.91 %
            A,,C.Ristori+,Report,ILL-03-01-018,1976 8.38+-0.5 %
HISTORY    (20170706C) M.M. Subent was added.
ENDBIB              17
NOCOMMON             0          0
DATA                 4          1
DATA       DATA-ERR   MISC       MISC-ERR
NO-DIM     NO-DIM     NO-DIM     NO-DIM
 0.086      0.004      0.46       0.035
ENDDATA              3
ENDSUBENT           25
SUBENT        23242015   20150522   20180122   20180122       2260
BIB                  8         15
REACTION   (37-RB-96(0,B-)38-SR-96,,PN)
            Beta- delayed neutrons emission probability Pn is
           given on % in Table 1, divided by 100. by compiler to
           obtain NO-DIM units.
DECAY-DATA (37-RB-96,0.20SEC)
ANALYSIS    Obtained from gamma-ray spectra .
MISC-COL   (MISC) Neutron decay to excited states in the final
           nucleus in % of total neutron emission probability Pn
ERR-ANALYS (DATA-ERR) Type of error is not explained in the articl
STATUS     (TABLE) Table 1 of P,MAINZ-76,41,1977
                 = Table 1 of 77HIRSCHEGG,,208,1977
           (PRELM) Preliminary data (see conclusion in 77HIRSCHEG)
REL-REF    (A,,E.Roeckl+,J,NP/A,222,621,1974)   13.0+-1.4 %
            A,,C.Ristori+,Report,ILL-03-01-018,1976 12.5+-0.9 %
HISTORY    (20170706C) M.M. Subent was added.
ENDBIB              15
NOCOMMON             0          0
DATA                 4          1
DATA       DATA-ERR   MISC       MISC-ERR
NO-DIM     NO-DIM     NO-DIM     NO-DIM
 0.134      0.026      0.586      0.046
ENDDATA              3
ENDSUBENT           23
SUBENT        23242016   20150522   20180122   20180122       2260
BIB                  8         15
REACTION   (37-RB-97(0,B-)38-SR-97,,PN)
            Beta- delayed neutrons emission probability Pn is
           given on % in Table 1, divided by 100. by compiler to
           obtain NO-DIM units.
DECAY-DATA (37-RB-97,0.17SEC)
ANALYSIS    Obtained from gamma-ray spectra .
MISC-COL   (MISC) Neutron decay to excited states in the final
           nucleus in % of total neutron emission probability P,
ERR-ANALYS (DATA-ERR) Type of error is not explained in the articl
STATUS     (TABLE) Table 1 of P,MAINZ-76,41,1977
                 = Table 1 of 77HIRSCHEGG,,208,1977
           (PRELM) Preliminary data (see conclusion in 77HIRSCHEG)
REL-REF    (A,,E.Roeckl+,J,NP/A,222,621,1974)   27.2+-3. %
            A,,C.Ristori+,Report,ILL-03-01-018,1976 25.2+-1.8 %
HISTORY    (20170706C) M.M. Subent was added.
ENDBIB              15
NOCOMMON             0          0
DATA                 5          1
DATA       DATA-ERR   MISC       +MISC-ERR  -MISC-ERR
NO-DIM     NO-DIM     NO-DIM     NO-DIM     NO-DIM
 0.253      0.048      0.91       0.10       0.25
ENDDATA              3
ENDSUBENT           23
SUBENT        23242017   20150522   20180122   20180122       2260
BIB                  6         11
REACTION   (37-RB-94(0,B-)38-SR-93,,PN/DE,,REL)
            Beta- delayed singles neutron spectrum, units are
            counts/12keV
DECAY-DATA (37-RB-94,2.7SEC)
EN-SEC     (E,N) Energy of delayed neutrons.
ERR-ANALYS (E-ERR-DIG) Digitizing error of E ( X scale)
           (ERR-DIG)    Digitizing error of DATA ( Y scale)
           Quantization errors:
           scale X - 1.80 keV, scale Y - 30.9 arb.units.
STATUS     (CURVE) Fig.22f of P,MAINZ-78,41,1979 .
HISTORY    (20170706C) M.M. Subent was added.
ENDBIB              11
COMMON               2          3
E-ERR-DIG  ERR-DIG
KEV        ARB-UNITS
 0.73        18.3
ENDCOMMON            3
DATA                 3        119
E-MIN      E-MAX      DATA
KEV        KEV        ARB-UNITS
   0.0        18.5      4976.0
  18.5        28.2      6689.5
  28.2        39.1      6520.3
  39.1        51.7      5764.6
  51.7        64.2      5965.8
  64.2        77.7      6275.0
  77.7        87.5      6476.1
  87.5       102.6      7171.1
 102.6       113.2      8205.5
 113.2       125.5     10104.0
 125.5       138.1     10969.0
 138.1       148.1     10043.5
 148.1       161.6     9627.3
 161.6       174.1     9936.5
 174.1       186.7     10137.5
 186.7       197.5     10107.0
 197.5       210.0     10046.0
 210.0       221.7     10154.5
 221.7       235.2     10232.5
 235.2       247.9      9615.6
 247.9       257.7      9384.7
 257.7       268.5      9678.4
 268.5       282.8      9817.8
 282.8       295.3     10281.0
 295.3       305.0     11254.0
 305.0       316.6     11949.0
 316.6       330.1     12057.5
 330.1       341.8     12135.0
 341.8       352.6     11966.0
 352.6       364.5     11133.0
 364.5       377.2      9945.5
 377.2       389.8      9328.8
 389.8       401.5      9267.5
 401.5       413.3      8805.1
 413.3       425.9      8188.4
 425.9       437.7      7695.1
 437.7       448.5      7047.6
 448.5       462.0      6955.5
 462.0       471.9      7110.3
 471.9       484.5      6756.0
 484.5       496.2      6370.6
 496.2       508.9      6155.1
 508.9       519.7      5847.1
 519.7       532.3      5770.5
 532.3       545.7      5709.3
 545.7       557.4      5555.5
 557.4       568.2      5370.8
 568.2       580.8      5325.1
 580.8       595.3      5125.1
 595.3       603.4      4600.9
 603.4       618.7      4339.1
 618.7       629.4      4555.6
 629.4       642.0      4679.6
 642.0       652.8      4448.7
 652.8       667.2      4156.0
 667.2       678.0      4079.4
 678.0       688.8      4126.3
 688.8       702.3      4080.4
 702.3       714.9      3803.3
 714.9       726.6      3510.7
 726.6       737.4      3433.9
 737.4       750.0      3372.8
 750.0       773.3      3450.7
 773.3       786.8      3281.8
 786.8       797.6      3143.4
 797.6       809.3      2943.3
 809.3       818.3      3020.9
 818.3       833.6      3052.3
 833.6       847.0      2929.5
 847.0       856.9      2821.9
 856.9       868.6      2729.9
 868.6       881.2      2591.6
 881.2       892.9      2360.6
 892.9       902.8      2453.7
 902.8       917.2      2577.7
 917.2       929.7      2531.9
 929.7       940.5      2594.2
 940.5       949.5      2563.8
 949.5       964.8      2518.0
 964.8       976.5      2287.2
 976.5       987.3      2164.2
 987.3      1001.7      2226.5
1001.7      1012.5      2057.3
1012.5      1025.1      1826.3
1025.1      1048.4      1765.4
1048.4      1061.0      1797.1
1061.0      1071.8      1766.7
1071.8      1086.2      1628.4
1086.2      1097.0      1428.3
1097.0      1109.6      1351.7
1109.6      1121.2      1275.1
1121.2      1134.7      1213.9
1134.7      1147.3      1168.2
1147.3      1156.3      1199.5
1156.3      1193.1      1185.1
1193.1      1205.7       985.6
1205.7      1230.0       878.4
1230.0      1242.6       940.9
1242.6      1262.3       879.9
1262.3      1289.3       850.1
1289.3      1303.7       758.4
1303.7      1316.2       712.7
1316.2      1327.0       759.5
1327.0      1337.8       729.1
1337.8      1352.2       760.5
1352.2      1359.3       699.3
1359.3      1370.1       668.8
1370.1      1391.7       607.8
1391.7      1406.1       577.7
1406.1      1420.5       532.1
1420.5      1443.8       579.2
1443.8      1479.7       534.2
1479.7      1506.7       489.3
1506.7      1548.0       460.0
1548.0      1573.2       415.1
1573.2      1598.3       431.7
1598.3      1623.5       401.9
1623.5      1632.5       341.0
1632.5      1641.4       310.5
ENDDATA            121
ENDSUBENT          141
SUBENT        23242018   20150522   20180122   20180122       2260
BIB                  6         14
REACTION   (37-RB-94(0,B-)38-SR-93,,PN/DE,,MSC)
            Beta- delayed neutrons spectrum feeding of 1142.keV
           level of final nucleus ;
            units are counts/12keV .
DECAY-DATA (37-RB-94,2.7SEC)
EN-SEC     (E,N) Energy of delayed neutrons.
ERR-ANALYS (DATA-ERR) Type of error is not explained in the
           article.
           (E-ERR-DIG) Digitizing error of E ( X scale)
           (ERR-DIG)    Digitizing error of DATA ( Y scale)
           Quantization errors:
           scale X - 1.80, scale Y - 0.308 arb.units.
STATUS     (CURVE) Fig.22a of P,MAINZ-78,41,1979 .
HISTORY    (20170706C) M.M. Subent was added.
ENDBIB              14
COMMON               3          3
E-LVL      E-ERR-DIG  ERR-DIG
KEV        KEV        ARB-UNITS
 1142.       1.80      0.177
ENDCOMMON            3
DATA                 4        116
E-MIN      E-MAX      DATA       DATA-ERR
KEV        KEV        ARB-UNITS  ARB-UNITS
             12.85      0.0
  12.85      24.53      2.870
  24.53      38.87      0.
  38.87      48.73     12.567
  48.73      63.10      7.337
  63.10      72.03     14.724
  72.03      82.80     27.648       14.461
  82.80      96.28     17.958
  96.28     107.99     25.806
 107.99     121.53      4.731
 121.53     131.32      1.348
 131.32     144.66     34.734
 144.66     155.48     54.121       15.384
 155.48     168.13     20.892
 168.13     179.77     22.740
 179.77     192.37     36.588
 192.37     204.06     12.282
 204.06     214.81     33.822
 214.81     229.26     21.055
 229.26     241.81      5.826
 241.81     249.85     28.904
 249.85     263.32     21.829
 263.32     275.94     29.523
 275.94     287.69      4.756
 287.69     299.34      0.
 299.34     312.81     18.913
 312.81     394.56      0.
 394.56     406.09     16.774
 406.09     418.56     52.314
 418.56     430.30     56.931       11.999
 430.30     442.11     28.934
 442.11     453.85      6.627
 453.85     466.45      1.706
 466.45     502.31      0.
 502.31     513.92     26.790
 513.92     525.63     25.869
 525.63     537.32     13.871
 537.32     548.94     21.411
 548.94     560.55     33.874
 560.55     573.07     49.722
 573.07     584.32     55.724        8.923
 584.82     595.75     18.649
 595.75     609.26      0.
 609.26     621.83      4.345
 621.83     635.25      0.962
 635.25     646.87     23.733
 646.87     656.79     25.428
 656.79     668.51      4.814
 668.51     678.38      7.584
 678.38     693.66      8.048
 693.66     707.15      4.665
 707.15     718.85      1.283
 718.85     728.69      0.
 728.69     742.10     12.055
 742.10     755.58     27.134
 755.58     766.43      8.521
 766.43     838.27      0.
 838.27     851.72     15.149
 851.72     860.74      9.458
 860.74     873.31      0.
 873.31     884.95     11.154
 884.95     896.63     13.925
 896.63     909.20      6.388
 909.20     921.79     17.313
 921.79     935.30      1.315
 935.30     944.27      2.855
 944.27     956.82      4.088
 956.82     980.18     14.860
 980.18     995.48      1.170
 995.48    1004.45      4.710
1004.45    1018.85      4.097
1018.85    1042.20      0.
1042.20    1055.60      5.026
1055.60    1078.05     11.028
1078.05    1091.50     14.877
1091.50    1102.30      9.956
1102.30    1114.00     11.035
1114.00    1127.45     19.805        4.3069
1127.45    1139.20      8.885
1139.20    1151.80      0.
1151.80    1161.65      1.965
1161.65    1174.20      8.890
1174.20    1198.50      0.
1198.50    1209.25      2.587
1209.25    1221.80      5.205
1221.80    1234.40      6.745
1234.40    1245.15      3.208
1245.15    1257.70     18.595
1257.70    1271.20     16.751
1271.20    1282.90      5.060
1282.90    1294.50     10.600
1294.50    1307.10     13.218
1307.10    1318.75      9.989
1318.75    1342.10     29.069
1342.10    1353.85      6.455
1353.85    1367.35      0.
1367.35    1391.60      8.460
1391.60    1439.20      0.
1439.20    1449.95      2.624
1449.95    1460.70      8.625
1460.70    1474.20     13.243
1474.20    1486.80      4.168
1486.80    1496.60      8.477
1496.60    1510.10     12.171
1510.10    1522.70      2.788
1522.70    1547.00      0.
1547.00    1557.75      2.332
1557.75    1572.10      7.257
1572.10    1592.75      0.
1592.75    1606.20     12.186
1606.20    1620.60      8.495
1620.60    1630.45     11.267
1630.45    1643.05     13.884
1643.05    1656.55      1.424
1656.55    1678.10      7.119
1678.10                 0.
ENDDATA            118
ENDSUBENT          141
SUBENT        23242019   20150522   20180122   20180122       2260
BIB                  6         14
REACTION   (37-RB-94(0,B-)38-SR-93,,PN/DE,,MSC)
            Beta- delayed neutrons spectrum feeding of 986. keV
           level of final nucleus ;
            units are counts/12keV .
DECAY-DATA (37-RB-94,2.7SEC)
EN-SEC     (E,N) Energy of delayed neutrons.
ERR-ANALYS (DATA-ERR) Type of error is not explained in the
           article.
           (E-ERR-DIG) Digitizing error of E ( X scale)
           (ERR-DIG)    Digitizing error of DATA ( Y scale)
           Quantization errors:
           scale X - 1.80, scale Y - 0.306 arb.units.
STATUS     (CURVE) Fig.22b of P,MAINZ-78,41,1979 .
HISTORY    (20170706C) M.M. Subent was added.
ENDBIB              14
COMMON               3          3
E-LVL      E-ERR-DIG  ERR-DIG
KEV        KEV        ARB-UNITS
 986.        1.85      0.134
ENDCOMMON            3
DATA                 4         82
E-MIN      E-MAX      DATA       DATA-ERR
KEV        KEV        ARB-UNITS  ARB-UNITS
   0.0         0.42      11.201
   0.77       15.11      19.002
  15.11       26.77      21.604
  26.77       38.48      17.172
  38.48       48.39       9.989
  48.39       61.78       7.239
  61.78       72.45      28.188
  72.45       85.93      31.706   11.619
  85.93       96.71      23.148
  96.71      109.17      27.279
 109.17      121.64      49.756
 121.64      132.55      50.829
 132.55      157.69      10.317
 157.69      169.19      44.721
 169.19      179.91      56.801   16.819
 179.91      193.44      54.511
 193.44      205.23      38.002
 205.23      216.90      21.798
 216.90      228.52      34.644
 228.52      241.05      33.728
 241.05      251.73      43.669
 251.73      264.29      55.291
 264.29      276.06      41.687
 276.06      288.77      27.776
 288.77      298.74       2.551
 298.74      310.25       0.
 310.25      324.51      43.532
 324.51      336.35      22.742
 336.35      348.93       0.
 348.93      359.63      16.784
 359.63      371.33      14.951
 371.33      381.21       9.144
 381.21      396.39      11.746
 396.39      417.98      25.662    6.725
 417.98      442.27       0.
 442.27      453.88       5.949
 453.88      466.37      14.819
 466.37      478.03      23.537
 478.03      502.23      14.826
 502.23      512.96      30.271
 512.96      536.32      24.618
 536.32      551.61      21.565
 551.61      562.41      15.146
 562.41      574.95       8.421
 574.95      597.37      21.115
 597.37      610.84      12.710
 610.84      622.46      18.522
 622.46      632.33      22.347
 632.33      644.04      18.374
 644.04      656.66       9.509
 656.66      669.23       2.479
 669.23      679.90       6.610
 679.90      693.35      26.182    5.503
 693.35      706.01       9.367
 706.01      777.80       0.
 777.80      789.40       6.480
 789.40      802.89      13.211
 802.89      811.01       0.
 811.01      825.27       3.124
 825.27      838.72      21.016
 838.72      850.44       3.436
 850.44      861.17      7.107
 861.17      872.87      13.991
 872.87      898.00       0.
 898.00      933.80      11.249
 933.80      945.45      19.052
 945.45      957.12      15.232
 957.12      969.70      19.057
 969.70      993.92       7.441
 993.92     1005.50      19.064
1005.50     1018.15      20.290
1018.15     1028.95       7.450
1028.95     1042.30      12.345
1042.30     1056.65      32.835    4.8906
1056.65     1065.75      12.503
1065.75     1174.35       0.
1174.35     1185.05       3.814
1185.05     1196.75      12.685
1196.75     1233.55       0.
1233.55     1243.35       3.827
1243.35     1256.85      12.544
1256.85                   0.
ENDDATA             84
ENDSUBENT          107
SUBENT        23242020   20150522   20180122   20180122       2260
BIB                  6         14
REACTION   (37-RB-94(0,B-)38-SR-93,,PN/DE,,MSC)
            Beta- delayed neutrons spectrum feeding of 433.keV
           level of final nucleus ;
            units are counts/12keV .
DECAY-DATA (37-RB-94,2.7SEC)
EN-SEC     (E,N) Energy of delayed neutrons.
ERR-ANALYS (DATA-ERR) Type of error is not explained in the
           article.
           (E-ERR-DIG) Digitizing error of E ( X scale)
           (ERR-DIG)    Digitizing error of DATA ( Y scale)
           Quantization errors:
           scale X - 1.80 keV, scale Y - 0.306 arb.units.
STATUS     (CURVE) Fig.22c of P,MAINZ-78,41,1979 .
HISTORY    (20170706C) M.M. Subent was added.
ENDBIB              14
COMMON               3          3
E-LVL      E-ERR-DIG  ERR-DIG
KEV        KEV        ARB-UNITS
 433.       1.60       0.211
ENDCOMMON            3
DATA                 4        107
E-MIN      E-MAX      DATA       DATA-ERR
KEV        KEV        ARB-UNITS  ARB-UNITS
   0.0         5.81     49.904
   5.81       19.27     44.091
  19.27       33.61     48.682
  33.61       44.39     56.486
  44.39       56.08     33.995
  56.08       82.12     34.761
  82.12       93.81      5.845
  93.81      104.52     16.096
 104.52      115.24     57.255    24.786
 115.24      127.81     55.114
 127.81      139.51     46.852
 139.51      153.02     20.078
 153.02      168.26      0.
 168.26      175.35     36.145
 175.35      188.76     67.663
 188.76      200.44     86.637
 200.44      213.09     42.114
 213.09      224.72     13.503
 224.72      235.42     68.891
 235.42      247.96     82.662
 247.96      258.74     76.849
 258.74      271.33     69.811
 271.33      284.80     49.921
 284.80      296.44     59.868
 296.44      307.17     69.660
 307.17      317.92     87.563
 317.92      331.41     86.186
 331.41      356.53     56.046
 356.53      366.36     82.822
 366.36      378.00     99.807
 378.00      386.98    101.030    20.808
 386.98      401.40     93.841
 401.40      413.13     36.007
 413.13      426.57     33.865
 426.57      435.52     58.499
 435.52      449.86     45.037
 449.86      461.50     72.731
 461.50      473.22     69.672
 473.22      484.92     24.996
 484.92      496.56     30.504
 496.56      509.12     48.406
 509.12      519.92     32.647
 519.92      534.32      6.791
 534.32      556.74      0.
 556.74      568.36      8.935
 568.36      580.89     44.739
 580.89      593.49     25.767
 593.49      605.14     18.730
 605.14      617.70     30.817
 617.70      628.47     23.169
 628.47      641.02     21.945
 641.02      651.78     25.465
 651.78      665.22     34.646
 665.22      676.88     44.592
 676.88      687.70     24.855
 687.70      713.75      0.
 713.75      724.50      1.601
 724.50      735.24      7.722
 735.24      747.77     24.706
 747.77      762.15     32.204
 762.15      772.06      1.757
 772.06      783.69      0.
 783.69      797.13     23.486
 797.13      807.88     19.661
 807.88      818.63     38.328
 818.63      833.01     41.082    10.098
 833.01      844.71      6.811
 844.71      855.45     13.544
 855.45      868.90     27.621
 868.90      879.70     15.381
 879.70      901.21      0.
 901.21      916.47     29.307
 916.47      928.15      0.
 928.15      940.70      5.440
 940.70      951.48     13.244
 951.48      965.83      0.
 965.83      988.25      8.809
 988.25      999.03      6.668
 999.03     1048.40      0.
1048.40     1059.10      8.814
1059.10     1070.80      3.459
1070.80     1094.10      0.
1094.10     1117.45     20.293
1117.45     1156.00      0.
1156.00     1164.10      0.406
1164.10     1211.65      0.
1211.65     1225.10      1.480
1225.10     1236.80      0.
1236.80     1248.40      0.258
1248.40     1356.10      0.
1356.10     1366.80     11.741
1366.80     1378.50     16.791
1378.50     1390.20      8.070
1390.20     1402.70      1.186
1402.70     1416.20      5.012
1416.20     1424.30      3.941
1424.30     1462.85      0.
1462.85     1472.70      1.037
1472.70     1487.10      7.923
1487.10     1510.40      0.
1510.40     1533.70      2.877
1533.70     1545.40      4.714
1545.40     1556.10      6.857
1556.10     1569.60      6.092
1569.60     1580.40      7.776
1580.40     1590.20      4.870
1590.20                  0.0
ENDDATA            109
ENDSUBENT          132
SUBENT        23242021   20150522   20180122   20180122       2260
BIB                  6         14
REACTION   (37-RB-94(0,B-)38-SR-93,,PN/DE,,MSC)
            Beta- delayed neutrons spectrum feeding of 213.keV
           level of final nucleus ;
            units are counts/12keV .
DECAY-DATA (37-RB-94,2.7SEC)
EN-SEC     (E,N) Energy of delayed neutrons.
ERR-ANALYS (DATA-ERR) Type of error is not explained in the
           article.
           (E-ERR-DIG) Digitizing error of E ( X scale)
           (ERR-DIG)    Digitizing error of DATA ( Y scale)
           Quantization errors:
           scale X - 1.80 keV, scale Y - 0.305 arb.units.
STATUS     (CURVE) Fig.22d of P,MAINZ-78,41,1979 .
HISTORY    (20170706C) M.M. Subent was added.
ENDBIB              14
COMMON               3          3
E-LVL      E-ERR-DIG  ERR-DIG
KEV        KEV        ARB-UNITS
 213.       2.10      0.243
ENDCOMMON            3
DATA                 4        117
E-MIN      E-MAX      DATA       DATA-ERR
KEV        KEV        ARB-UNITS  ARB-UNITS
   5.31      14.28       3.546
  14.28      26.84       8.125
  26.84      37.61       9.041
  37.61      49.28      14.078
  49.28      62.74      21.861
  62.74      72.61      25.067
  72.61      85.18      27.051
  85.18      96.84      38.956
  96.84     110.29      30.255
 110.29     121.07      19.418
 121.07     130.06      57.118
 130.06     143.51      62.766     26.559
 143.51     156.95      35.291
 156.95     168.63      41.854
 168.63     179.38      51.470
 179.38     191.01      14.073
 191.01     205.38       0.
 205.38     214.38      45.974
 214.38     228.72      48.721
 228.72     239.47      17.125
 239.47     252.04      26.282
 252.04     263.71      34.067
 263.71     276.28      43.988
 276.28     288.86      69.784     19.232
 288.86     299.60      52.688
 299.60     322.92      27.960
 322.92     334.58      44.597
 334.58     346.22      31.012
 346.22     358.78       0.
 358.78     371.37      33.758
 371.37     383.92      43.527
 383.92     392.88      20.937
 392.88     406.33      15.747
 406.33     418.88      11.778
 418.88     428.75       6.893
 428.75     453.87       0.
 453.87     467.34      15.745
 467.34     475.44      24.903
 475.44     487.13      67.946
 487.13     500.57      84.584     18.622
 500.57     513.10      35.587
 513.10     523.85       5.669
 523.85     536.40      14.675
 536.40     596.51       0.
 596.51     606.40      22.762
 606.40     618.97      36.194
 618.97     632.41      29.783
 632.41     642.28      20.471
 642.28     655.75      17.877
 655.75     666.52      44.435
 666.52     680.86      25.508
 680.86     690.72       8.870
 690.72     702.39      25.507
 702.39     714.94      13.906
 714.94     726.60       9.937
 726.60     737.37      10.700
 737.37     773.25       0.
 773.25     784.92       9.630
 784.92     797.49      21.230     8.8529
 797.49     809.14      20.315
 809.14     820.80       7.798
 820.80     833.36       6.576
 833.36     845.92      12.224
 845.92     857.58      10.544
 857.58     869.24       3.065
 869.24     880.01      13.291
 880.01     894.36      16.954
 894.36     916.79       0.
 916.79     927.56      14.206
 927.56     941.01       9.168
 941.01     952.67       0.
 952.67     965.23       5.046
 965.23     976.89       3.520
 976.89     990.35       0.
 990.35    1001.10       0.619
1001.10    1010.10       6.266
1010.10    1024.45      10.387
1024.45    1047.80      14.050
1047.80    1058.50       7.333
1058.50    1071.10       9.165
1071.10    1096.20       8.248
1096.20    1130.30       0.
1130.30    1142.90       8.247
1142.90    1154.50      18.168
1154.50    1166.20       0.
1166.20    1177.00       5.040
1177.00    1190.40      30.989
1190.40    1200.30      15.267
1200.30    1212.80       4.429
1212.80    1238.00       0.
1238.00    1248.70       4.428
1248.70    1260.40       8.244
1260.40    1273.00      13.128
1273.00    1285.50      17.249
1285.50    1296.30       9.311
1296.30    1307.90       2.289
1307.90    1322.30       4.731
1322.30    1343.80       0.
1343.80    1356.40      17.552
1356.40    1369.80      13.888
1369.80    1391.40       0.
1391.40    1402.10      11.140
1402.10    1413.80       7.171
1413.80    1449.70       0.
1449.70    1460.40       2.743
1460.40    1486.50       0.
1486.50    1508.90       7.626
1508.90    1534.00       3.199
1534.00    1545.70       9.762
1545.70    1557.30       3.198
1557.30    1569.90       0.
1569.90    1579.80       2.892
1579.80    1616.50       0.
1616.50    1627.30       4.723
1627.30    1654.20       7.928
1654.20    1666.80       3.043
1666.80                  0.0
ENDDATA            119
ENDSUBENT          142
SUBENT        23242022   20150522   20180122   20180122       2260
BIB                  6         14
REACTION   (37-RB-94(0,B-)38-SR-93,,PN/DE,,MSC)
            Beta- delayed neutrons spectrum feeding of ground
           level of final nucleus ;
            units are counts/12keV .
DECAY-DATA (37-RB-94,2.7SEC)
EN-SEC     (E,N) Energy of delayed neutrons.
ERR-ANALYS (DATA-ERR) Type of error is not explained in the
           article.
           (E-ERR-DIG) Digitizing error of E ( X scale)
           (ERR-DIG)    Digitizing error of DATA ( Y scale)
           Quantization errors:
           scale X - 1.80 keV, scale Y - 1.23 arb.units.
STATUS     (CURVE) Fig.22e of P,MAINZ-78,41,1979 .
HISTORY    (20170706C) M.M. Subent was added.
ENDBIB              14
COMMON               3          3
E-LVL      E-ERR-DIG  ERR-DIG
KEV        KEV        ARB-UNITS
 0.         0.932      0.469
ENDCOMMON            3
DATA                 4        135
E-MIN      E-MAX      DATA       DATA-ERR
KEV        KEV        ARB-UNITS  ARB-UNITS
   1.72        9.65      91.02
   9.65       22.91     207.54
  22.91       34.53     260.28
  34.53       45.33     243.74
  45.33       57.88     229.04
  57.88       69.56     254.80
  69.56       82.19     209.44
  82.19       91.97     201.49
  91.97      117.84     279.99
 117.84      128.49     329.06
 128.49      140.96     380.57
 140.96      155.32     402.66    51.511
 155.32      167.07     376.93
 167.07      178.81     322.98
 178.81      189.58     320.53
 189.58      200.32     308.28
 200.32      211.00     354.89
 211.00      223.56     372.08    47.830
 223.56      236.20     354.32
 236.20      248.92     299.76
 248.92      258.81     226.19
 258.81      271.26     278.94
 271.26      284.62     320.64
 284.62      296.14     363.57
 296.14      308.59     437.17
 308.59      322.02     461.71
 322.02      332.78     455.59
 332.78      344.40     468.48
 344.40      355.22     488.73    56.408
 355.22      369.74     427.43
 369.74      380.64     347.12
 380.64      392.33     304.82
 392.33      404.86     334.26
 404.86      415.73     327.53
 415.73      426.62     241.70
 426.62      440.05     222.70
 440.05      451.69     264.42
 451.69      466.10     244.19
 466.10      475.15     214.77
 475.15      486.88     175.55
 486.88      500.32     161.45
 500.32      509.25     192.13
 509.25      521.78     191.52
 521.78      534.28     214.22
 534.28      545.88     252.26
 545.88      557.56     255.94    53.954
 557.56      571.13     240.63
 571.13      582.93     157.87
 582.93      594.61     121.10
 594.61      606.25     150.54
 606.25      618.82     139.51
 618.82      631.38     144.43
 631.38      641.28     140.15
 641.28      653.91     113.80
 653.91      665.58      72.12
 665.58      678.03     120.57
 678.03      689.70     162.89
 689.70      699.63     110.18
 699.63      712.16     108.96
 712.16      723.80     132.27
 723.80      737.26     137.19
 737.26      750.69     132.91
 750.69      761.40     155.62
 761.40      773.11     174.01    24.522
 773.11      784.88     126.21
 784.88      797.47      77.17
 797.47      810.88     101.09
 810.88      821.64     118.28
 821.64      843.21     100.51
 843.21      855.78      95.01
 855.78      866.57      81.53
 866.57      880.01      83.39
 880.01      890.75      94.44
 890.75      902.44     100.59
 902.44      912.35      74.84
 912.35      927.60      66.88
 927.60      939.24      74.87
 939.24      949.99      79.79
 949.99      961.70      85.93
 961.70      974.27      40.57
 974.27      984.97      79.82
 984.97      998.45      97.62
 998.45     1010.20      61.46
1010.20     1022.75      43.08
1022.75     1033.45      71.29
1033.45     1046.95      81.73
1046.95     1058.60      43.12
1058.60     1069.40      50.48
1069.40     1082.85      52.34
1082.85     1094.50      46.22
1094.50     1108.00      38.88
1108.00     1118.70      44.41
1118.70     1132.20      63.43
1132.20     1143.00      46.27
1143.00     1156.40      38.32
1156.40     1166.30      57.95
1166.30     1178.85      61.64
1178.85     1189.65      35.29
1189.65     1200.45      12.61
1200.45     1212.10      17.53
1212.10     1226.40      37.17
1226.40     1239.00      45.77
1239.00     1248.90      22.48
1248.90     1262.40       0.
1262.40     1274.00      10.85
1274.00     1286.60      21.29
1286.60     1297.35       7.81
1297.35     1309.00      29.90
1309.00     1323.30      36.05
1323.30     1333.20      24.41
1333.20     1345.80      18.29
1345.80     1358.35      17.69
1358.35     1367.35       6.05
1367.35     1381.70       0.
1381.70     1392.40      13.44
1392.40     1405.00      15.29
1405.00     1415.80       9.78
1415.80     1426.50      14.70
1426.50     1439.10      25.75
1439.10     1450.75      25.76
1450.75     1464.20       9.22
1464.20     1474.95      20.27
1474.95     1487.55      38.68
1487.55     1501.00       1.90
1501.00     1510.00       0.
1510.00     1523.40      11.74
1523.40     1536.00       9.30
1536.00     1582.70       0.
1582.70     1591.60       5.68
1591.60     1604.20      12.44
1604.20     1618.55       6.32
1618.55     1641.00       0.
1641.00     1654.40       4.52
1654.40     1666.10      11.28
1666.10                   0.
ENDDATA            137
ENDSUBENT          160
SUBENT        23242023   20150522   20180122   20180122       2260
BIB                  5          7
REACTION   ((37-RB-94(0,B-)38-SR-93,PAR,PN)//
           (37-RB-94(0,B-)38-SR-94,PAR,PN))
DECAY-DATA (37-RB-94,2.7SEC)
EN-SEC     (E-LVL,38-SR-93) Level of end-nucleus after neutron
           emission
STATUS     (TABLE) Text, page 41 of P,MAINZ-78,41,1979 .
HISTORY    (20170706C) M.M. Subent was added.
ENDBIB               7
COMMON               1          3
E-LVL-DN
KEV
 433.
ENDCOMMON            3
DATA                 2          3
E-LVL-NM   DATA
KEV        NO-DIM
  213.      0.65
  986.      0.52
 1142.      0.44
ENDDATA              5
ENDSUBENT           21
SUBENT        23242024   20150522   20180122   20180122       2260
BIB                  6         10
REACTION   ((37-RB-94(0,B-)38-SR-93,PAR,PN)/
           (37-RB-94(0,B-)38-SR-94,,PN))
            For higher levels - 0.070 .
MISC-COL   (MISC) Neutron energy - average for spectrum as
           "center of mass" .
DECAY-DATA (37-RB-94,2.7SEC)
EN-SEC     (E-LVL,38-SR-93) Level of end-nucleus after neutron
           emission
STATUS     (TABLE) Table 5 of P,MAINZ-78,41,1979 .
HISTORY    (20170706C) M.M. Subent was added.
ENDBIB              10
NOCOMMON             0          0
DATA                 3          4
E-LVL      DATA       MISC
KEV        NO-DIM     KEV
    0.      0.700      440.
  213.      0.069      568.
  433.      0.106      422.
  986.      0.055      516.
ENDDATA              6
ENDSUBENT           21
SUBENT        23242025   20150522   20180122   20180122       2260
BIB                  6          8
REACTION   ((37-RB-95(0,B-)38-SR-94,PAR,PN)/
           (37-RB-95(0,B-)38-SR-94,,PN))
DECAY-DATA (37-RB-95,0.38SEC)
EN-SEC     (E-LVL,38-SR-94)  Final level .
ERR-ANALYS (DATA-ERR) Type of error is not explained in the
           article.
STATUS     (TABLE) Text, page 39 of P,MAINZ-78,37,1979 .
HISTORY    (20170706C) M.M. Subent was added.
ENDBIB               8
NOCOMMON             0          0
DATA                 3          5
E-LVL      DATA       DATA-ERR
KEV        NO-DIM     NO-DIM
  837.      0.420      0.045
 1926.      0.003      0.019
 2145.      0.013      0.009
 2414.      0.007      0.009
 2603.      0.017      0.016
ENDDATA              7
ENDSUBENT           20
ENDENTRY            25
