ENTRY            C2007   20130429   20131120   20130927       C132
SUBENT        C2007001   20130429   20131120   20130927       C132
BIB                  9         27
TITLE      Measurement of the reaction 17O(alpha,n)20Ne and its
           impact on the s process in massive stars
AUTHOR     (A.Best,M.Beard,J.Gorres,M.Couder,R.DeBoer,S.Falahat,
           R.T.Guray,A.Kontos,K.-L.Kratz,P.J.Leblanc,Q.Li,
           S.O'Brien,N.Ozkan,M.Pignatari,K.Sonnabend,R.Talwar,
           W.Tan, E.Uberseder,M.Wiescher)
INSTITUTE  (1USANOT,2GERGSI,2GERMPM,2TUKKOC,2SWTBAS,2GERFRK)
REFERENCE  (J,PR/C,87,045805,2013) Main reference
           (S,AIP-1498,309,2012) Preliminary data, conf. proc.
FACILITY   (VDGT,1USANOT) Experiment performed at the 4MV KN
           accelerator at the University of Notre Dame Nuclear
           Science Laboratory
SAMPLE     (8-O-17,ENR=0.901)Targets were prepared by
           anodization of 0.3 mm thick tantalum backings using
           H2O enriched to 90.1% in 17-O. This process is known
           to produce homogeneous films of (Ta)2(O)5. The target
           thickness was chosen to be about 9 keV of energy loss
           for an alpha beam of 1000 keV and a target
           orientation of 90deg. with respect to the beam
           direction.
DETECTOR   (LONGC,HE3SP) Neutrons were detected by a variant of
           long counter consisting of 20 He3 counters that were
           embedded in an arrangement of two concentric rings
           with diameter 6 cm and 11 cm, respectively, into a 30
           cm x 30 cm x 33 cm polyethylene moderator
HISTORY    (20130429C) Compiled by S.H.
ERR-ANALYS (DATA-ERR) Total uncertainty
ENDBIB              27
NOCOMMON             0          0
ENDSUBENT           30
SUBENT        C2007002   20130429   20131120   20130927       C132
BIB                  5          9
REACTION   (8-O-17(A,N)10-NE-20,PAR,SIG,,REL)
STATUS     (TABLE) Data presented in fig. 5 of the reference
                    sent by author (A.B.)
METHOD     Yield was determined from the intensity of the gamma
           ray deexciting first excited state at 1633.7 keV
PART-DET   (G)
DETECTOR   (HPGE) Gamma rays from deexcitation of first excited
           state at 1633.7 keV was measured using Ge detector
           with efficiency of 20%
ENDBIB               9
COMMON               2          3
E-LVL      EN-RSL
KEV        KEV
1633.7     2.0
ENDCOMMON            3
DATA                 3        291
EN         DATA       DATA-ERR
KEV        ARB-UNITS  ARB-UNITS
   1338.071  1.375E-13  5.998E-14
   1341.406  2.266E-13  6.450E-14
   1343.382  4.541E-13  6.896E-14
   1344.618  1.065E-12  1.308E-13
   1346.594  6.374E-13  8.535E-14
   1348.571  1.316E-12  1.543E-13
   1350.300  1.713E-12  1.977E-13
   1351.782  1.734E-12  1.898E-13
   1353.635  1.996E-12  2.398E-13
   1355.488  1.167E-12  1.379E-13
   1357.218  8.281E-13  1.024E-13
   1358.947  7.099E-13  9.732E-14
   1360.429  5.257E-13  7.354E-14
   1363.641  3.680E-13  7.501E-14
   1376.118  1.847E-13  9.389E-14
   1378.959  2.891E-13  5.124E-14
   1382.171  3.271E-13  5.039E-14
   1384.394  1.249E-12  1.510E-13
   1385.629  1.522E-12  1.884E-13
   1387.112  1.804E-12  2.188E-13
   1389.335  1.487E-12  1.776E-13
   1390.571  1.486E-12  1.748E-13
   1392.053  1.167E-12  1.476E-13
   1393.535  9.658E-13  1.131E-13
   1394.771  7.986E-13  9.889E-14
   1396.253  6.694E-13  8.664E-14
   1399.588  4.917E-13  6.872E-14
   1406.876  6.591E-13  9.457E-14
   1413.794  7.006E-13  1.042E-13
   1425.653  1.698E-12  2.070E-13
   1427.876  2.738E-12  3.010E-13
   1430.347  3.605E-12  4.023E-13
   1432.447  5.091E-12  5.264E-13
   1433.312  4.471E-12  4.496E-13
   1434.424  6.440E-12  5.203E-13
   1436.524  8.273E-12  6.423E-13
   1438.376  1.422E-11  1.100E-12
   1438.624  2.041E-11  1.471E-12
   1440.353  4.568E-11  3.059E-12
   1440.600  3.581E-11  2.698E-12
   1442.700  1.063E-10  6.377E-12
   1443.441  9.766E-11  7.321E-12
   1444.800  1.258E-10  7.775E-12
   1446.159  1.141E-10  7.062E-12
   1446.529  1.198E-10  7.382E-12
   1448.753  1.022E-10  6.154E-12
   1449.247  1.085E-10  6.577E-12
   1450.359  8.185E-11  5.159E-12
   1451.965  7.203E-11  4.482E-12
   1452.829  4.811E-11  3.205E-12
   1454.682  3.904E-11  2.587E-12
   1455.053  2.939E-11  1.982E-12
   1457.153  1.968E-11  1.365E-12
   1459.624  1.368E-11  1.019E-12
   1461.600  9.376E-12  6.942E-13
   1463.947  8.736E-12  7.557E-13
   1466.541  5.652E-12  4.519E-13
   1469.012  4.988E-12  4.455E-13
   1471.976  4.290E-12  3.560E-13
   1474.447  4.410E-12  3.944E-13
   1476.918  3.792E-12  4.050E-13
   1479.512  3.155E-12  3.432E-13
   1479.635  3.042E-12  3.392E-13
   1481.488  2.700E-12  2.999E-13
   1482.724  2.738E-12  3.018E-13
   1483.218  2.861E-12  3.318E-13
   1483.835  2.696E-12  2.798E-13
   1485.441  2.455E-12  2.936E-13
   1487.912  2.556E-12  2.850E-13
   1488.159  2.694E-12  3.046E-13
   1489.888  2.348E-12  2.642E-13
   1492.606  2.410E-12  2.512E-13
   1494.706  2.273E-12  2.558E-13
   1496.559  2.213E-12  2.457E-13
   1498.535  2.550E-12  2.815E-13
   1501.253  2.477E-12  2.909E-13
   1506.194  1.895E-12  2.098E-13
   1513.235  2.082E-12  2.314E-13
   1521.265  2.061E-12  2.294E-13
   1531.765  1.998E-12  2.229E-13
   1542.635  2.572E-12  3.136E-13
   1554.865  2.389E-12  2.704E-13
   1568.700  2.731E-12  2.729E-13
   1579.324  2.610E-12  2.939E-13
   1588.094  3.020E-12  3.442E-13
   1598.224  3.900E-12  3.835E-13
   1606.994  4.664E-12  4.875E-13
   1612.429  4.199E-12  4.297E-13
   1614.406  5.179E-12  5.511E-13
   1616.259  4.853E-12  4.942E-13
   1617.247  5.243E-12  5.408E-13
   1618.235  8.920E-12  7.970E-13
   1619.965  1.469E-11  1.108E-12
   1621.076  1.686E-11  1.282E-12
   1622.188  1.611E-11  1.297E-12
   1623.300  1.576E-11  1.013E-12
   1624.782  1.604E-11  1.427E-12
   1626.018  1.263E-11  1.131E-12
   1637.629  7.026E-12  5.583E-13
   1647.265  7.771E-12  7.170E-13
   1658.629  8.960E-12  6.921E-13
   1669.500  1.036E-11  8.002E-13
   1678.888  1.281E-11  1.038E-12
   1689.141  1.343E-11  9.783E-13
   1696.182  1.620E-11  1.202E-12
   1703.100  1.816E-11  1.260E-12
   1709.153  2.231E-11  1.673E-12
   1715.329  2.585E-11  1.954E-12
   1719.776  3.125E-11  2.201E-12
   1724.718  3.362E-11  2.524E-12
   1729.165  4.086E-11  2.759E-12
   1733.735  4.678E-11  3.427E-12
   1737.688  6.102E-11  4.129E-12
   1742.012  7.147E-11  5.205E-12
   1746.212  8.995E-11  5.677E-12
   1749.053  1.021E-10  6.866E-12
   1752.512  1.258E-10  7.880E-12
   1755.353  1.351E-10  9.600E-12
   1758.194  1.564E-10  1.081E-11
   1760.418  1.735E-10  1.124E-11
   1763.382  1.699E-10  1.104E-11
   1764.618  1.690E-10  1.103E-11
   1765.853  1.611E-10  9.408E-12
   1766.965  1.585E-10  1.018E-11
   1768.324  1.554E-10  9.294E-12
   1769.559  1.718E-10  1.192E-11
   1771.288  1.892E-10  1.284E-11
   1772.647  1.808E-10  1.154E-11
   1774.006  1.730E-10  1.187E-11
   1775.241  1.571E-10  1.043E-11
   1776.600  1.413E-10  8.535E-12
   1778.206  1.170E-10  7.223E-12
   1779.935  1.117E-10  7.775E-12
   1782.282  1.116E-10  7.005E-12
   1784.876  9.581E-11  6.539E-12
   1786.976  8.135E-11  5.986E-12
   1788.335  6.806E-11  4.284E-12
   1789.941  5.291E-11  3.411E-12
   1791.424  4.669E-11  3.075E-12
   1794.018  3.642E-11  2.648E-12
   1798.588  2.696E-11  2.019E-12
   1806.865  1.996E-11  1.351E-12
   1816.994  1.548E-11  1.170E-12
   1821.071  1.574E-11  1.221E-12
   1824.776  1.515E-11  1.231E-12
   1827.247  1.817E-11  1.366E-12
   1831.076  2.373E-11  1.735E-12
   1833.794  2.887E-11  2.171E-12
   1835.524  3.621E-11  2.643E-12
   1837.376  5.285E-11  4.096E-12
   1838.735  7.239E-11  5.111E-12
   1840.218  1.014E-10  6.692E-12
   1841.576  1.369E-10  9.014E-12
   1842.565  1.582E-10  1.089E-11
   1843.676  1.818E-10  1.354E-11
   1845.035  1.876E-10  1.253E-11
   1847.135  1.764E-10  1.187E-11
   1848.618  1.640E-10  1.078E-11
   1850.224  1.284E-10  8.480E-12
   1851.459  1.117E-10  7.581E-12
   1853.188  9.373E-11  6.711E-12
   1854.424  7.410E-11  5.069E-12
   1858.624  4.165E-11  3.079E-12
   1860.229  3.482E-11  2.427E-12
   1864.182  2.742E-11  2.033E-12
   1868.259  2.513E-11  1.865E-12
   1871.841  1.817E-11  1.365E-12
   1875.794  1.559E-11  1.136E-12
   1877.400  1.530E-11  1.182E-12
   1882.835  1.186E-11  9.964E-13
   1886.541  1.230E-11  1.011E-12
   1897.412  1.166E-11  9.194E-13
   1905.071  1.204E-11  1.044E-12
   1912.112  1.462E-11  1.146E-12
   1918.782  1.892E-11  1.517E-12
   1921.994  2.169E-11  1.718E-12
   1928.541  3.226E-11  2.736E-12
   1935.212  6.553E-11  4.931E-12
   1937.929  7.819E-11  6.137E-12
   1939.782  1.011E-10  7.442E-12
   1941.512  1.203E-10  8.796E-12
   1943.735  1.485E-10  1.083E-11
   1946.206  2.141E-10  1.555E-11
   1947.688  2.646E-10  1.799E-11
   1948.924  3.128E-10  2.133E-11
   1950.159  3.461E-10  2.295E-11
   1951.518  3.812E-10  2.519E-11
   1952.382  4.745E-10  3.030E-11
   1953.988  5.267E-10  3.347E-11
   1954.729  6.375E-10  3.659E-11
   1955.718  8.040E-10  5.409E-11
   1956.706  9.457E-10  6.031E-11
   1957.571  9.809E-10  6.313E-11
   1959.547  1.027E-09  6.190E-11
   1961.029  9.959E-10  6.427E-11
   1962.388  9.366E-10  5.884E-11
   1963.129  8.834E-10  5.634E-11
   1964.241  8.916E-10  5.788E-11
   1965.106  8.335E-10  5.629E-11
   1965.724  7.962E-10  5.160E-11
   1966.588  7.617E-10  4.491E-11
   1968.688  6.766E-10  4.545E-11
   1969.676  6.231E-10  4.227E-11
   1972.147  5.743E-10  3.654E-11
   1974.865  5.036E-10  3.169E-11
   1978.571  4.326E-10  2.813E-11
   1985.735  3.678E-10  2.161E-11
   1992.282  3.167E-10  2.016E-11
   1996.606  2.957E-10  1.896E-11
   2003.153  2.803E-10  1.870E-11
   2008.094  2.619E-10  1.817E-11
   2010.194  2.784E-10  1.710E-11
   2011.676  2.842E-10  1.928E-11
   2013.653  3.086E-10  2.050E-11
   2015.259  4.701E-10  3.155E-11
   2015.753  5.393E-10  3.317E-11
   2016.494  8.230E-10  5.032E-11
   2017.359  1.177E-09  7.349E-11
   2018.471  1.361E-09  7.773E-11
   2019.459  1.413E-09  8.144E-11
   2020.571  1.407E-09  8.009E-11
   2021.806  1.287E-09  7.659E-11
   2023.041  1.168E-09  6.867E-11
   2024.153  1.081E-09  7.026E-11
   2025.141  9.105E-10  6.102E-11
   2026.376  7.608E-10  5.128E-11
   2032.676  3.477E-10  2.356E-11
   2040.706  2.931E-10  1.863E-11
   2048.118  3.140E-10  1.961E-11
   2053.429  3.234E-10  2.031E-11
   2060.347  3.427E-10  2.330E-11
   2066.771  3.810E-10  2.524E-11
   2073.935  4.072E-10  2.738E-11
   2080.235  4.231E-10  2.874E-11
   2088.388  5.047E-10  3.182E-11
   2095.182  5.776E-10  3.607E-11
   2102.100  6.459E-10  3.859E-11
   2108.400  7.109E-10  4.186E-11
   2114.824  7.592E-10  5.356E-11
   2119.765  8.972E-10  6.242E-11
   2125.941  1.013E-09  6.975E-11
   2130.388  1.164E-09  8.103E-11
   2135.700  1.404E-09  9.501E-11
   2141.876  1.426E-09  9.862E-11
   2149.165  1.829E-09  1.219E-10
   2158.429  1.819E-09  1.187E-10
   2166.829  1.809E-09  1.197E-10
   2173.376  1.695E-09  1.095E-10
   2180.294  1.776E-09  1.140E-10
   2186.718  1.740E-09  1.141E-10
   2193.265  1.645E-09  1.069E-10
   2200.059  1.357E-09  8.676E-11
   2206.729  1.318E-09  8.328E-11
   2212.165  1.258E-09  7.862E-11
   2223.776  9.468E-10  6.067E-11
   2230.818  7.731E-10  5.229E-11
   2236.624  6.889E-10  4.560E-11
   2246.753  4.365E-10  2.856E-11
   2254.659  2.987E-10  2.170E-11
   2260.341  2.263E-10  1.601E-11
   2267.753  1.401E-10  1.029E-11
   2276.894  1.535E-10  1.154E-11
   2283.194  2.191E-10  1.692E-11
   2283.935  2.235E-10  1.522E-11
   2285.912  2.663E-10  2.028E-11
   2287.147  2.977E-10  2.088E-11
   2288.012  5.137E-10  3.532E-11
   2289.247  7.285E-10  4.815E-11
   2289.988  1.222E-09  7.547E-11
   2290.235  1.140E-09  7.168E-11
   2291.347  1.743E-09  1.056E-10
   2292.212  1.950E-09  1.226E-10
   2293.324  2.546E-09  1.506E-10
   2294.312  2.408E-09  1.500E-10
   2294.682  2.594E-09  1.534E-10
   2296.041  2.345E-09  1.386E-10
   2296.535  2.102E-09  1.317E-10
   2297.400  2.019E-09  1.211E-10
   2298.635  1.538E-09  9.203E-11
   2299.006  1.236E-09  8.082E-11
   2299.994  1.173E-09  7.276E-11
   2301.476  7.061E-10  4.924E-11
   2302.218  7.028E-10  4.563E-11
   2303.947  4.950E-10  3.412E-11
   2306.788  3.227E-10  2.366E-11
   2307.282  4.006E-10  2.631E-11
   2309.135  3.167E-10  2.362E-11
   2311.853  3.074E-10  2.178E-11
   2312.224  3.480E-10  2.333E-11
   2314.200  3.020E-10  2.392E-11
   2317.906  4.041E-10  2.654E-11
ENDDATA            293
ENDSUBENT          311
SUBENT        C2007003   20130429   20131120   20130927       C132
BIB                  5         11
REACTION   (8-O-17(A,N)10-NE-20,,SIG,,REL)
STATUS     (TABLE) Data presented in fig. 6 of the reference
                    sent by author (A.B.)
METHOD     Yield determined by counting emitted neutrons
DETECTOR   (LONGC,HE3SP) Neutrons were detected by a variant of
           long counter consisting of 20 He3 counters that were
           embedded in an arrangement of two concentric rings
           with diameter 6 cm and 11 cm, respectively, into
           a 30 cm x 30 cm x 33 cm polyethylene moderator
ERR-ANALYS (ERR-1) Uncertainty in determination of neutron
                   detection efficiency
ENDBIB              11
COMMON               2          3
ERR-1      EN-RSL
PER-CENT   KEV
5.3        2.0
ENDCOMMON            3
DATA                 3        615
EN         DATA       DATA-ERR
KEV        ARB-UNITS  ARB-UNITS
    762.758  2.564E-16  1.410E-16
    785.411  5.601E-16  1.349E-16
    803.296  5.326E-16  1.473E-16
    824.334  6.612E-16  1.264E-16
    847.660  1.085E-15  1.111E-16
    860.296  1.110E-15  1.137E-16
    880.619  5.429E-15  2.946E-16
    880.619  4.366E-15  2.851E-16
    884.066  9.448E-15  4.391E-16
    885.736  1.361E-14  5.069E-16
    887.186  2.789E-14  6.876E-16
    887.464  4.074E-14  1.317E-15
    888.134  5.112E-14  1.210E-15
    889.250  9.437E-14  2.167E-15
    890.199  1.271E-13  2.731E-15
    891.092  7.165E-14  1.613E-15
    892.043  1.154E-13  2.217E-15
    894.112  1.666E-13  3.223E-15
    896.072  1.786E-13  2.783E-15
    897.979  1.541E-13  2.676E-15
    899.943  1.112E-13  2.269E-15
    901.966  2.237E-14  5.636E-16
    904.216  1.347E-14  5.067E-16
    906.468  9.827E-15  4.144E-16
    908.555  7.934E-15  3.782E-16
    910.644  6.547E-15  2.915E-16
    912.678  6.276E-15  3.010E-16
    914.602  5.645E-15  3.006E-16
    916.584  5.814E-15  3.490E-16
    919.420  5.102E-15  3.241E-16
    919.704  5.014E-15  3.223E-16
    923.796  4.340E-15  2.776E-16
    924.763  4.084E-15  2.801E-16
    928.125  3.423E-15  2.699E-16
    931.035  4.113E-15  3.331E-16
    932.063  6.067E-15  2.733E-16
    934.293  4.343E-15  2.090E-16
    939.335  3.618E-15  3.573E-16
    941.861  3.312E-15  3.353E-16
    945.887  3.862E-15  3.748E-16
    950.729  3.669E-15  2.658E-16
    955.062  3.689E-15  2.548E-16
    960.508  4.461E-15  2.888E-16
    965.271  4.713E-15  3.069E-16
    969.929  5.213E-15  3.096E-16
    974.364  4.990E-15  2.913E-16
    978.927  6.570E-15  3.051E-16
    982.914  7.161E-15  3.309E-16
    983.090  1.413E-14  3.714E-16
    983.794  1.771E-14  4.204E-16
    984.381  3.348E-14  7.820E-16
    984.851  5.784E-14  1.303E-15
    985.497  9.090E-14  1.783E-15
    986.085  1.184E-13  2.472E-15
    986.673  1.373E-13  2.814E-15
    987.202  1.504E-13  2.979E-15
    987.496  1.473E-13  3.147E-15
    988.026  1.569E-13  3.323E-15
    988.555  1.566E-13  3.358E-15
    989.026  1.565E-13  3.349E-15
    989.497  1.670E-13  3.209E-15
    990.027  1.645E-13  3.323E-15
    990.440  1.544E-13  3.229E-15
    990.734  1.554E-13  3.175E-15
    991.206  1.490E-13  3.176E-15
    991.795  1.397E-13  2.994E-15
    992.385  1.264E-13  2.681E-15
    992.915  1.093E-13  2.287E-15
    993.328  1.037E-13  1.895E-15
    994.036  8.721E-14  1.848E-15
    994.981  6.323E-14  1.306E-15
    996.339  4.058E-14  8.967E-16
    998.172  2.972E-14  6.720E-16
   1001.010  2.400E-14  5.725E-16
   1003.860  2.488E-14  5.747E-16
   1008.190  2.985E-14  6.593E-16
   1010.570  3.056E-14  6.973E-16
   1014.620  2.791E-14  6.250E-16
   1017.720  2.627E-14  6.158E-16
   1020.710  2.726E-14  6.561E-16
   1023.760  2.845E-14  6.253E-16
   1026.640  3.134E-14  7.401E-16
   1029.760  3.355E-14  7.601E-16
   1032.770  3.865E-14  8.743E-16
   1033.670  4.115E-14  9.215E-16
   1034.330  4.323E-14  9.154E-16
   1034.990  5.004E-14  1.091E-15
   1035.540  5.786E-14  1.153E-15
   1036.020  6.774E-14  1.456E-15
   1036.560  8.463E-14  1.843E-15
   1037.100  1.170E-13  2.209E-15
   1037.530  1.471E-13  2.853E-15
   1038.010  1.748E-13  3.658E-15
   1038.730  2.261E-13  4.330E-15
   1039.390  2.493E-13  4.520E-15
   1039.880  2.678E-13  4.374E-15
   1040.480  2.734E-13  4.305E-15
   1040.960  2.784E-13  5.025E-15
   1041.510  2.788E-13  4.709E-15
   1042.050  2.892E-13  4.304E-15
   1042.470  2.878E-13  4.684E-15
   1042.900  2.766E-13  4.718E-15
   1043.380  2.792E-13  4.813E-15
   1043.870  2.667E-13  4.644E-15
   1044.410  2.415E-13  4.356E-15
   1044.830  2.329E-13  4.205E-15
   1045.320  2.248E-13  4.152E-15
   1045.800  2.161E-13  4.662E-15
   1046.350  1.865E-13  3.910E-15
   1046.770  1.737E-13  3.751E-15
   1047.130  1.557E-13  3.262E-15
   1047.560  1.463E-13  3.133E-15
   1047.980  1.186E-13  2.610E-15
   1048.220  1.168E-13  2.470E-15
   1048.890  1.113E-13  2.429E-15
   1049.320  9.411E-14  1.915E-15
   1049.740  8.833E-14  1.734E-15
   1050.040  8.977E-14  1.703E-15
   1050.470  8.706E-14  1.714E-15
   1051.010  8.719E-14  1.274E-15
   1051.260  8.945E-14  1.368E-15
   1051.620  9.630E-14  1.674E-15
   1051.680  9.513E-14  1.905E-15
   1051.860  9.555E-14  1.647E-15
   1052.230  1.036E-13  1.517E-15
   1052.530  1.136E-13  2.233E-15
   1052.770  1.351E-13  1.829E-15
   1053.260  1.728E-13  3.659E-15
   1053.440  1.925E-13  2.929E-15
   1053.750  2.327E-13  4.816E-15
   1054.110  3.155E-13  5.578E-15
   1054.350  3.618E-13  5.655E-15
   1054.720  4.274E-13  7.850E-15
   1055.020  5.102E-13  9.535E-15
   1055.390  5.618E-13  9.970E-15
   1055.510  5.846E-13  1.141E-14
   1055.870  5.467E-13  8.202E-15
   1056.180  5.283E-13  7.643E-15
   1056.540  4.581E-13  8.742E-15
   1056.850  3.939E-13  7.475E-15
   1057.150  3.253E-13  3.808E-15
   1057.460  2.750E-13  4.869E-15
   1057.700  2.371E-13  4.886E-15
   1058.000  2.052E-13  3.775E-15
   1058.310  1.790E-13  3.558E-15
   1058.670  1.545E-13  3.346E-15
   1059.100  1.373E-13  2.825E-15
   1059.590  1.191E-13  2.295E-15
   1059.830  1.160E-13  1.945E-15
   1060.140  1.112E-13  2.192E-15
   1060.870  9.253E-14  1.977E-15
   1061.360  8.793E-14  1.399E-15
   1062.580  7.891E-14  1.468E-15
   1065.810  6.659E-14  1.423E-15
   1068.750  5.810E-14  1.178E-15
   1072.050  5.581E-14  1.203E-15
   1076.220  5.345E-14  9.935E-16
   1080.160  4.981E-14  1.081E-15
   1084.220  5.144E-14  1.046E-15
   1087.240  5.226E-14  1.057E-15
   1090.640  5.296E-14  1.168E-15
   1094.970  5.393E-14  1.091E-15
   1098.320  5.275E-14  9.699E-16
   1102.540  5.451E-14  1.223E-15
   1106.840  5.586E-14  1.176E-15
   1113.200  5.771E-14  1.297E-15
   1116.130  6.104E-14  1.340E-15
   1117.320  6.066E-14  1.338E-15
   1118.330  6.310E-14  1.341E-15
   1119.140  6.295E-14  1.366E-15
   1119.770  6.208E-14  1.374E-15
   1120.700  6.594E-14  1.456E-15
   1121.520  6.505E-14  1.471E-15
   1123.150  6.679E-14  1.493E-15
   1125.470  6.735E-14  1.378E-15
   1127.610  7.086E-14  1.638E-15
   1128.550  7.466E-14  1.702E-15
   1129.490  1.097E-13  2.555E-15
   1130.440  1.840E-13  4.171E-15
   1131.380  2.465E-13  5.517E-15
   1132.640  2.604E-13  5.865E-15
   1135.230  2.671E-13  5.937E-15
   1137.060  2.313E-13  5.150E-15
   1137.940  2.062E-13  4.444E-15
   1139.390  1.566E-13  3.579E-15
   1140.530  1.501E-13  3.441E-15
   1142.430  1.214E-13  2.733E-15
   1144.140  1.159E-13  2.447E-15
   1145.850  1.196E-13  2.736E-15
   1147.430  1.319E-13  3.009E-15
   1149.210  1.410E-13  3.247E-15
   1150.860  1.520E-13  3.349E-15
   1150.860  1.173E-13  1.491E-15
   1152.830  1.270E-13  1.777E-15
   1155.050  1.476E-13  2.040E-15
   1157.030  1.811E-13  2.333E-15
   1158.490  2.105E-13  2.906E-15
   1160.020  2.541E-13  3.449E-15
   1161.230  3.435E-13  1.892E-15
   1162.250  4.735E-13  5.455E-15
   1163.020  6.355E-13  7.625E-15
   1163.720  1.309E-12  8.225E-15
   1164.680  1.522E-12  8.180E-15
   1165.250  1.098E-12  6.839E-15
   1166.600  1.167E-12  8.521E-15
   1167.750  1.145E-12  8.975E-15
   1169.090  1.111E-12  7.575E-15
   1169.670  1.047E-12  7.193E-15
   1171.140  8.455E-13  5.086E-15
   1172.230  7.033E-13  6.618E-15
   1173.450  5.913E-13  4.765E-15
   1174.280  5.436E-13  4.450E-15
   1175.820  4.672E-13  3.722E-15
   1176.780  4.696E-13  3.143E-15
   1178.390  4.339E-13  1.897E-15
   1180.700  4.334E-13  1.840E-15
   1183.990  2.881E-13  1.630E-15
   1185.980  2.646E-13  1.585E-15
   1188.760  2.281E-13  1.476E-15
   1194.380  1.766E-13  1.368E-15
   1199.880  1.620E-13  1.199E-15
   1205.470  1.602E-13  1.306E-15
   1211.780  1.511E-13  1.236E-15
   1217.590  1.277E-13  1.168E-15
   1222.490  1.203E-13  1.138E-15
   1228.650  1.152E-13  1.175E-15
   1234.030  1.210E-13  1.201E-15
   1239.560  1.235E-13  1.102E-15
   1240.290  1.242E-13  3.177E-15
   1243.520  1.297E-13  3.310E-15
   1245.900  1.456E-13  3.550E-15
   1247.680  1.695E-13  4.300E-15
   1248.540  1.714E-13  4.325E-15
   1250.730  1.867E-13  3.903E-15
   1252.380  1.852E-13  4.578E-15
   1253.580  1.686E-13  4.250E-15
   1255.030  1.665E-13  4.245E-15
   1256.760  1.505E-13  3.639E-15
   1257.890  1.451E-13  3.701E-15
   1264.800  1.298E-13  3.304E-15
   1271.400  1.267E-13  3.123E-15
   1275.940  1.304E-13  3.432E-15
   1282.030  1.349E-13  3.483E-15
   1287.130  1.320E-13  3.373E-15
   1290.420  1.645E-13  4.094E-15
   1298.240  1.448E-13  3.806E-15
   1302.960  1.593E-13  4.284E-15
   1305.060  1.704E-13  4.650E-15
   1307.900  1.707E-13  4.389E-15
   1312.640  1.992E-13  5.413E-15
   1315.490  2.177E-13  5.608E-15
   1319.160  2.623E-13  6.914E-15
   1321.070  2.880E-13  7.277E-15
   1323.580  3.343E-13  8.019E-15
   1325.420  3.492E-13  8.328E-15
   1327.130  3.455E-13  8.652E-15
   1328.760  3.588E-13  8.556E-15
   1329.650  4.337E-13  1.028E-14
   1330.810  1.033E-12  1.873E-14
   1333.550  6.358E-13  1.329E-14
   1338.200  3.591E-13  8.608E-15
   1340.460  3.286E-13  7.509E-15
   1342.310  3.216E-13  7.621E-15
   1344.160  3.408E-13  8.062E-15
   1345.670  4.564E-13  1.030E-14
   1346.630  8.082E-13  1.633E-14
   1347.800  1.535E-12  2.937E-14
   1348.760  1.791E-12  3.294E-14
   1350.000  1.954E-12  3.165E-14
   1350.830  1.890E-12  3.495E-14
   1351.790  1.889E-12  3.516E-14
   1352.410  1.803E-12  2.991E-14
   1353.230  1.684E-12  2.843E-14
   1354.200  1.385E-12  2.585E-14
   1355.160  1.142E-12  2.031E-14
   1356.130  8.992E-13  1.717E-14
   1360.750  3.820E-13  8.699E-15
   1364.140  3.385E-13  7.670E-15
   1366.490  3.395E-13  7.907E-15
   1367.800  3.646E-13  8.479E-15
   1369.260  3.344E-13  7.265E-15
   1371.340  3.415E-13  8.220E-15
   1373.830  3.693E-13  7.780E-15
   1376.190  3.758E-13  8.407E-15
   1378.280  3.898E-13  7.909E-15
   1380.430  4.086E-13  9.304E-15
   1382.800  4.091E-13  8.842E-15
   1384.190  4.147E-13  9.624E-15
   1385.230  7.774E-13  1.595E-14
   1386.980  1.734E-12  3.232E-14
   1388.020  1.807E-12  3.324E-14
   1389.210  1.780E-12  3.411E-14
   1390.260  1.774E-12  3.473E-14
   1391.230  1.645E-12  2.770E-14
   1392.630  1.329E-12  2.396E-14
   1396.120  6.116E-13  1.249E-14
   1399.690  5.731E-13  1.209E-14
   1401.020  5.716E-13  1.217E-14
   1403.830  5.993E-13  1.151E-14
   1407.200  6.502E-13  1.115E-14
   1410.780  7.438E-13  1.536E-14
   1413.730  8.508E-13  1.508E-14
   1417.540  9.753E-13  1.815E-14
   1420.290  1.137E-12  2.188E-14
   1422.260  1.223E-12  4.174E-14
   1422.970  1.336E-12  2.454E-14
   1426.500  1.561E-12  3.321E-14
   1429.610  2.321E-12  3.002E-14
   1429.830  1.990E-12  5.746E-14
   1430.390  2.337E-12  4.485E-14
   1430.610  1.956E-12  3.971E-14
   1430.610  1.956E-12  3.971E-14
   1431.380  2.882E-12  4.871E-14
   1433.230  3.598E-12  5.359E-14
   1433.440  3.573E-12  6.571E-14
   1435.070  4.470E-12  7.322E-14
   1435.640  5.382E-12  5.461E-14
   1436.420  2.562E-12  3.609E-14
   1436.490  6.703E-12  1.139E-13
   1437.200  7.281E-12  5.191E-14
   1438.760  1.066E-11  7.249E-14
   1440.110  1.589E-11  9.158E-14
   1440.390  2.535E-11  3.077E-13
   1440.390  1.558E-11  2.886E-13
   1440.610  1.179E-11  1.034E-13
   1440.680  1.047E-11  2.015E-13
   1441.240  2.457E-11  1.607E-13
   1441.530  1.313E-11  1.623E-13
   1441.880  9.585E-12  1.719E-13
   1442.170  3.826E-11  2.256E-13
   1442.380  2.480E-11  2.756E-13
   1442.520  1.873E-11  3.384E-13
   1443.020  4.744E-11  7.093E-13
   1443.450  6.747E-11  3.093E-13
   1443.660  2.751E-11  4.124E-13
   1443.950  8.044E-11  5.221E-13
   1444.090  5.621E-11  4.525E-13
   1444.230  7.789E-11  5.806E-13
   1444.370  9.507E-11  4.230E-13
   1444.800  4.525E-11  6.909E-13
   1444.870  5.435E-11  8.417E-13
   1445.090  2.652E-11  4.613E-13
   1445.650  9.038E-11  5.850E-13
   1446.220  1.209E-10  4.919E-13
   1446.510  1.163E-10  1.098E-12
   1446.720  5.742E-11  6.068E-13
   1446.720  1.134E-10  7.561E-13
   1446.860  9.978E-11  1.218E-12
   1447.080  5.318E-11  7.797E-13
   1447.430  8.449E-11  5.566E-13
   1447.930  1.225E-10  7.854E-13
   1448.000  1.191E-10  1.115E-12
   1448.050  1.236E-10  4.977E-13
   1448.220  7.676E-11  7.254E-13
   1448.360  1.123E-10  1.320E-12
   1448.570  1.161E-10  3.293E-13
   1448.930  1.129E-10  1.090E-12
   1449.430  1.220E-10  1.168E-12
   1449.710  1.188E-10  1.372E-12
   1449.860  1.012E-10  8.176E-13
   1450.110  9.746E-11  3.180E-13
   1450.140  6.595E-11  6.311E-13
   1451.140  1.130E-10  1.313E-12
   1451.640  1.239E-10  1.341E-12
   1451.710  7.163E-11  3.470E-13
   1451.780  3.635E-11  4.377E-13
   1452.210  6.225E-11  3.825E-13
   1452.490  9.031E-11  1.163E-12
   1452.710  5.202E-11  1.617E-13
   1452.850  4.674E-11  3.264E-13
   1454.140  9.365E-11  1.167E-12
   1455.130  2.395E-11  1.621E-13
   1455.280  7.401E-11  9.451E-13
   1456.280  2.257E-11  1.367E-13
   1456.780  4.255E-11  2.474E-13
   1457.130  4.836E-11  5.601E-13
   1457.350  1.296E-11  1.283E-13
   1457.560  2.287E-11  4.304E-13
   1458.210  1.165E-11  1.584E-13
   1458.990  9.462E-12  1.601E-13
   1459.490  1.089E-11  1.754E-13
   1459.780  8.653E-12  9.027E-14
   1461.210  6.764E-12  9.048E-14
   1463.570  5.234E-12  9.627E-14
   1464.070  6.919E-12  3.438E-14
   1464.790  4.486E-12  5.984E-14
   1465.010  1.023E-11  1.925E-13
   1465.080  5.116E-12  9.019E-14
   1465.290  5.607E-12  1.538E-13
   1466.010  4.185E-12  6.846E-14
   1467.870  3.563E-12  5.394E-14
   1468.810  3.435E-12  6.685E-14
   1469.090  3.393E-12  6.175E-14
   1470.240  3.277E-12  4.409E-14
   1471.600  2.959E-12  5.809E-14
   1471.750  3.327E-12  5.563E-14
   1472.180  4.513E-12  9.087E-14
   1472.320  2.915E-12  5.069E-14
   1475.410  2.500E-12  3.927E-14
   1475.480  2.488E-12  4.909E-14
   1475.840  2.522E-12  4.309E-14
   1476.490  2.882E-12  9.371E-14
   1478.000  2.461E-12  3.865E-14
   1478.430  2.523E-12  4.338E-14
   1479.230  2.332E-12  4.734E-14
   1482.830  2.692E-12  1.665E-14
   1485.210  2.223E-12  4.558E-14
   1488.450  2.286E-12  3.915E-14
   1491.630  2.192E-12  4.095E-14
   1493.220  2.287E-12  2.423E-14
   1498.510  2.480E-12  3.241E-14
   1503.510  2.466E-12  3.714E-14
   1510.130  2.321E-12  4.125E-14
   1516.170  2.246E-12  2.667E-14
   1523.900  2.333E-12  3.276E-14
   1528.730  2.501E-12  5.232E-14
   1535.330  2.524E-12  5.260E-14
   1540.830  2.648E-12  5.557E-14
   1546.420  3.069E-12  6.333E-14
   1553.350  3.397E-12  6.642E-14
   1557.920  3.556E-12  7.546E-14
   1562.360  4.235E-12  9.258E-14
   1567.170  4.373E-12  8.562E-14
   1576.970  4.491E-12  9.691E-14
   1583.000  4.890E-12  8.516E-14
   1590.150  5.184E-12  6.994E-14
   1595.310  5.474E-12  1.229E-13
   1603.690  7.139E-12  1.536E-13
   1608.870  7.886E-12  1.608E-13
   1612.850  9.129E-12  1.932E-13
   1614.280  9.633E-12  1.981E-13
   1615.410  1.003E-11  2.017E-13
   1616.390  1.010E-11  1.878E-13
   1616.990  1.043E-11  2.059E-13
   1617.590  1.056E-11  2.062E-13
   1618.650  1.129E-11  2.139E-13
   1619.620  1.123E-11  2.259E-13
   1620.300  1.378E-11  2.413E-13
   1621.580  1.853E-11  3.445E-13
   1621.960  1.939E-11  3.180E-13
   1622.940  2.039E-11  3.154E-13
   1623.690  2.037E-11  2.973E-13
   1624.450  2.107E-11  3.536E-13
   1625.280  2.147E-11  3.285E-13
   1625.960  2.122E-11  3.694E-13
   1627.090  2.063E-11  3.649E-13
   1628.750  1.843E-11  3.456E-13
   1635.260  1.767E-11  1.548E-13
   1637.600  1.800E-11  2.890E-13
   1638.890  1.761E-11  3.328E-13
   1639.800  1.760E-11  2.792E-13
   1640.410  1.840E-11  3.140E-13
   1642.000  1.859E-11  3.084E-13
   1643.370  1.837E-11  3.127E-13
   1651.880  1.735E-11  3.338E-13
   1657.130  1.698E-11  1.847E-13
   1660.410  1.675E-11  2.596E-13
   1661.630  1.735E-11  2.298E-13
   1662.700  1.674E-11  2.753E-13
   1663.610  1.705E-11  2.341E-13
   1665.220  1.695E-11  2.604E-13
   1671.100  1.665E-11  2.985E-13
   1677.380  1.721E-11  2.291E-13
   1684.140  1.920E-11  2.318E-13
   1691.290  2.029E-11  2.621E-13
   1697.300  2.214E-11  3.366E-13
   1703.550  2.505E-11  4.015E-13
   1709.270  2.669E-11  4.134E-13
   1715.470  3.063E-11  4.058E-13
   1719.040  3.065E-11  2.812E-13
   1728.520  3.754E-11  4.201E-13
   1733.580  4.264E-11  5.451E-13
   1740.680  5.462E-11  6.210E-13
   1748.420  7.513E-11  6.763E-13
   1759.080  1.204E-10  1.234E-12
   1765.760  1.258E-10  1.168E-12
   1767.330  1.219E-10  1.146E-12
   1768.830  1.208E-10  1.168E-12
   1770.010  1.109E-10  1.130E-12
   1771.270  1.082E-10  1.064E-12
   1772.370  1.183E-10  1.121E-12
   1773.320  1.210E-10  1.196E-12
   1775.370  1.298E-10  1.100E-12
   1776.950  1.193E-10  9.000E-13
   1778.210  1.123E-10  1.080E-12
   1779.160  9.963E-11  6.681E-13
   1779.950  8.932E-11  9.362E-13
   1781.210  7.861E-11  9.394E-13
   1784.060  2.270E-10  1.787E-12
   1786.030  2.762E-10  2.094E-12
   1787.770  2.618E-10  1.890E-12
   1789.990  1.769E-10  1.451E-12
   1795.140  3.974E-11  5.061E-13
   1802.600  2.434E-11  3.214E-13
   1811.040  2.070E-11  2.839E-13
   1819.250  2.054E-11  2.705E-13
   1826.920  2.260E-11  3.102E-13
   1834.450  3.148E-11  4.036E-13
   1839.190  4.875E-11  6.125E-13
   1840.470  5.988E-11  7.395E-13
   1841.920  1.053E-10  1.136E-12
   1843.280  1.289E-10  1.370E-12
   1844.970  1.428E-10  1.522E-12
   1847.950  1.288E-10  1.276E-12
   1852.860  7.156E-11  8.719E-13
   1858.020  4.996E-11  6.818E-13
   1860.200  4.537E-11  5.635E-13
   1862.300  4.383E-11  5.761E-13
   1863.670  4.426E-11  5.792E-13
   1865.530  4.541E-11  6.143E-13
   1866.820  4.533E-11  5.958E-13
   1868.120  4.344E-11  6.105E-13
   1869.740  4.566E-11  5.973E-13
   1870.950  4.362E-11  4.399E-13
   1872.250  4.330E-11  5.536E-13
   1875.490  4.132E-11  5.518E-13
   1878.730  4.167E-11  4.627E-13
   1885.800  4.370E-11  4.374E-13
   1891.000  4.476E-11  5.766E-13
   1897.680  4.526E-11  5.574E-13
   1906.260  4.864E-11  6.248E-13
   1914.600  4.976E-11  6.083E-13
   1922.140  5.093E-11  5.233E-13
   1928.550  5.828E-11  4.429E-13
   1933.320  6.791E-11  8.340E-13
   1938.260  8.696E-11  7.698E-13
   1943.290  1.305E-10  6.639E-13
   1947.420  1.980E-10  1.519E-12
   1952.880  3.468E-10  2.249E-12
   1955.850  4.929E-10  2.980E-12
   1957.010  5.802E-10  2.867E-12
   1958.380  6.565E-10  3.201E-12
   1959.660  6.671E-10  3.186E-12
   1960.820  5.877E-10  2.687E-12
   1961.490  6.546E-10  2.816E-12
   1974.440  3.375E-10  2.310E-12
   1978.770  2.812E-10  1.583E-12
   1983.350  2.547E-10  1.766E-12
   1987.270  2.294E-10  1.872E-12
   1990.190  2.190E-10  1.872E-12
   1993.030  2.096E-10  1.761E-12
   1996.290  2.039E-10  1.522E-12
   1999.810  1.987E-10  1.394E-12
   2003.580  1.939E-10  1.568E-12
   2006.840  1.897E-10  1.673E-12
   2011.380  2.079E-10  1.881E-12
   2012.890  2.125E-10  1.721E-12
   2014.820  3.498E-10  1.844E-12
   2016.920  5.252E-10  3.044E-12
   2017.930  6.165E-10  3.482E-12
   2020.620  7.970E-10  3.079E-12
   2021.880  8.112E-10  3.835E-12
   2023.230  7.010E-10  2.139E-12
   2024.320  3.830E-10  1.979E-12
   2025.340  3.217E-10  1.753E-12
   2026.350  2.686E-10  1.638E-12
   2027.950  2.334E-10  1.225E-12
   2036.720  2.138E-10  7.436E-13
   2046.870  2.305E-10  9.144E-13
   2053.740  2.463E-10  9.885E-13
   2062.400  2.700E-10  1.301E-12
   2069.890  3.028E-10  1.331E-12
   2076.880  3.333E-10  1.889E-12
   2084.050  3.724E-10  1.394E-12
   2091.750  4.192E-10  1.801E-12
   2100.140  4.907E-10  2.977E-12
   2107.960  5.587E-10  2.747E-12
   2114.240  6.428E-10  2.641E-12
   2120.180  7.374E-10  3.543E-12
   2135.640  1.142E-09  3.976E-12
   2141.780  1.227E-09  2.909E-12
   2144.470  1.294E-09  4.552E-12
   2147.160  1.302E-09  4.834E-12
   2149.150  1.300E-09  4.338E-12
   2156.180  1.275E-09  4.488E-12
   2163.230  1.326E-09  3.796E-12
   2169.420  1.347E-09  5.174E-12
   2177.100  1.339E-09  5.269E-12
   2185.230  1.292E-09  5.154E-12
   2192.490  1.202E-09  3.907E-12
   2198.900  1.097E-09  4.010E-12
   2204.520  9.767E-10  3.421E-12
   2210.590  8.643E-10  2.889E-12
   2216.310  7.594E-10  3.015E-12
   2221.160  6.670E-10  3.398E-12
   2227.690  5.626E-10  2.391E-12
   2233.180  4.853E-10  1.196E-12
   2237.870  4.002E-10  1.721E-12
   2244.780  2.670E-10  1.480E-12
   2250.720  1.901E-10  1.232E-12
   2255.700  1.575E-10  5.980E-13
   2260.410  1.191E-10  7.005E-13
   2262.910  1.005E-10  3.253E-13
   2264.950  9.256E-11  6.656E-13
   2268.790  9.308E-11  5.563E-13
   2274.500  1.126E-10  3.364E-13
   2278.520  1.335E-10  6.927E-13
   2282.180  1.634E-10  9.185E-13
   2283.700  1.725E-10  1.237E-12
   2285.400  2.331E-10  1.716E-12
   2286.740  3.735E-10  2.711E-12
   2291.220  1.321E-09  3.437E-12
   2293.370  1.402E-09  5.290E-12
   2295.790  1.444E-09  5.395E-12
   2298.040  1.289E-09  3.632E-12
   2300.100  9.489E-10  3.033E-12
   2300.100  9.443E-10  2.515E-12
   2303.420  4.562E-10  1.379E-12
   2306.750  2.811E-10  1.087E-12
   2309.450  2.499E-10  9.798E-13
   2312.590  2.431E-10  9.953E-13
   2316.650  2.483E-10  4.685E-13
   2319.530  2.705E-10  8.952E-13
   2323.050  3.784E-10  9.842E-13
   2323.050  3.738E-10  1.155E-12
ENDDATA            617
ENDSUBENT          637
SUBENT        C2007004   20130429   20131120   20130927       C132
BIB                  3          8
REACTION   (8-O-17(A,N)10-NE-20,PAR,SIG,,REL,DERIV)
STATUS     (TABLE) Data presented in fig. 8 of the reference
                    sent by author (A.B.)
           (DEP,C2007002)
           (DEP,C2007003)
ANALYSIS   To determine yield the integrated 17O(alpha,n1)20Ne
           yield was scaled with the neutron detector efficiency
           and subtracted from the 17O(alpha,total)20Ne yield
ENDBIB               8
COMMON               2          3
E-LVL      EN-RSL
KEV        KEV
0.0        2.0
ENDCOMMON            3
DATA                 3        509
EN         DATA       DATA-ERR
KEV        ARB-UNITS  ARB-UNITS
    880.641  1.116E-14  6.987E-16
    884.100  2.245E-14  1.304E-15
    885.706  3.423E-14  1.927E-15
    887.188  7.501E-14  4.113E-15
    887.435  1.118E-13  6.181E-15
    888.176  1.415E-13  7.736E-15
    889.288  2.652E-13  1.449E-14
    890.153  3.589E-13  1.957E-14
    891.141  2.001E-13  1.093E-14
    892.006  3.253E-13  1.771E-14
    894.106  4.721E-13  2.570E-14
    896.082  5.067E-13  2.750E-14
    897.935  4.364E-13  2.372E-14
    899.912  3.134E-13  1.707E-14
    902.012  5.840E-14  3.211E-15
    904.235  3.276E-14  1.853E-15
    906.459  2.222E-14  1.287E-15
    908.559  1.669E-14  1.000E-15
    910.659  1.268E-14  7.801E-16
    912.635  1.249E-14  8.812E-16
    914.612  1.078E-14  8.852E-16
    916.588  1.058E-14  8.374E-16
    919.429  7.538E-15  6.392E-16
    919.676  7.185E-15  6.187E-16
    923.753  4.022E-15  4.186E-16
    924.741  3.125E-15  4.005E-16
    931.041  2.195E-15  4.418E-16
    932.029  7.676E-15  5.654E-16
    934.253  2.698E-15  4.025E-16
    939.318  1.596E-15  6.071E-16
    941.912  1.208E-15  6.638E-16
    965.259  1.057E-15  5.975E-16
    969.953  2.229E-15  6.566E-16
    974.400  9.507E-16  6.616E-16
    978.971  4.736E-15  7.224E-16
    982.924  5.740E-15  7.620E-16
    983.047  2.608E-14  1.580E-15
    983.788  3.644E-14  2.104E-15
    984.406  8.248E-14  4.564E-15
    984.900  1.537E-13  8.421E-15
    985.518  3.677E-13  2.363E-14
    986.135  4.858E-13  3.123E-14
    986.629  5.670E-13  3.644E-14
    987.247  6.232E-13  4.003E-14
    987.494  6.097E-13  3.921E-14
    987.988  6.512E-13  4.186E-14
    988.606  6.496E-13  4.177E-14
    988.976  6.492E-13  4.174E-14
    989.471  6.943E-13  4.458E-14
    990.088  6.836E-13  4.392E-14
    990.459  6.401E-13  4.115E-14
    990.706  6.440E-13  4.138E-14
    991.200  6.165E-13  3.964E-14
    991.818  5.767E-13  3.709E-14
    992.435  5.194E-13  3.340E-14
    992.929  4.457E-13  2.866E-14
    993.300  4.212E-13  2.705E-14
    994.041  2.384E-13  1.302E-14
    995.029  1.680E-13  9.186E-15
    996.388  1.013E-13  5.582E-15
    998.118  6.918E-14  3.851E-15
   1000.959  5.196E-14  2.938E-15
   1003.800  5.561E-14  3.119E-15
   1008.247  7.130E-14  3.948E-15
   1010.594  7.292E-14  4.039E-15
   1014.671  6.431E-14  3.574E-15
   1017.759  5.885E-14  3.286E-15
   1020.724  6.040E-14  3.378E-15
   1023.812  6.107E-14  3.420E-15
   1026.653  6.695E-14  3.760E-15
   1029.741  7.061E-14  3.967E-15
   1032.706  8.958E-14  4.956E-15
   1033.694  9.764E-14  5.384E-15
   1034.312  9.995E-14  5.510E-15
   1035.053  1.163E-13  6.406E-15
   1035.547  1.363E-13  7.480E-15
   1036.041  1.627E-13  8.936E-15
   1036.535  2.096E-13  1.149E-14
   1037.153  3.024E-13  1.650E-14
   1037.524  3.889E-13  2.121E-14
   1038.018  4.683E-13  2.557E-14
   1038.759  6.160E-13  3.356E-14
   1039.376  6.810E-13  3.706E-14
   1039.871  7.333E-13  3.985E-14
   1040.488  7.462E-13  4.054E-14
   1040.982  7.583E-13  4.127E-14
   1041.476  7.563E-13  4.113E-14
   1042.094  7.842E-13  4.258E-14
   1042.465  7.778E-13  4.228E-14
   1042.959  7.421E-13  4.037E-14
   1043.329  7.470E-13  4.064E-14
   1043.824  7.073E-13  3.849E-14
   1044.441  6.294E-13  3.429E-14
   1044.812  6.015E-13  3.277E-14
   1045.306  5.747E-13  3.134E-14
   1045.800  5.459E-13  2.987E-14
   1046.294  4.550E-13  2.491E-14
   1046.788  4.148E-13  2.275E-14
   1047.159  3.590E-13  1.971E-14
   1047.529  3.289E-13  1.809E-14
   1048.024  2.442E-13  1.352E-14
   1048.271  2.375E-13  1.314E-14
   1048.888  2.173E-13  1.207E-14
   1049.259  1.636E-13  9.163E-15
   1049.753  1.440E-13  8.109E-15
   1050.000  1.465E-13  8.236E-15
   1106.824  9.727E-14  5.568E-15
   1113.247  1.009E-13  5.791E-15
   1116.088  1.101E-13  6.273E-15
   1117.324  1.086E-13  6.197E-15
   1118.312  1.157E-13  6.562E-15
   1119.176  1.150E-13  6.532E-15
   1119.794  1.122E-13  6.390E-15
   1120.659  1.235E-13  6.993E-15
   1121.524  1.206E-13  6.848E-15
   1123.129  1.254E-13  7.100E-15
   1125.476  1.264E-13  7.131E-15
   1127.576  1.364E-13  7.703E-15
   1128.565  1.476E-13  8.299E-15
   1129.553  2.533E-13  1.400E-14
   1130.418  4.752E-13  2.604E-14
   1131.406  6.608E-13  3.614E-14
   1132.641  6.980E-13  3.816E-14
   1135.235  7.085E-13  3.873E-14
   1137.088  5.928E-13  3.243E-14
   1137.953  5.146E-13  2.815E-14
   1139.435  3.636E-13  1.997E-14
   1140.547  3.434E-13  1.888E-14
   1142.400  2.554E-13  1.410E-14
   1144.129  2.379E-13  1.313E-14
   1145.859  2.486E-13  1.376E-14
   1147.465  2.851E-13  1.575E-14
   1149.194  3.122E-13  1.724E-14
   1150.800  3.448E-13  1.898E-14
   1152.776  2.000E-13  1.108E-14
   1155.000  2.610E-13  1.437E-14
   1156.976  3.615E-13  1.976E-14
   1158.459  4.502E-13  2.458E-14
   1160.065  5.822E-13  3.170E-14
   1161.176  8.541E-13  4.622E-14
   1162.288  1.250E-12  6.778E-14
   1163.029  1.744E-12  9.450E-14
   1165.253  3.153E-12  1.704E-13
   1166.612  3.363E-12  1.818E-13
   1167.724  3.295E-12  1.781E-13
   1169.082  3.188E-12  1.723E-13
   1169.700  2.992E-12  1.617E-13
   1171.182  2.375E-12  1.284E-13
   1172.171  1.939E-12  1.049E-13
   1173.406  1.595E-12  8.626E-14
   1174.271  1.448E-12  7.830E-14
   1175.876  1.212E-12  6.554E-14
   1176.741  1.218E-12  6.583E-14
   1178.347  1.106E-12  5.975E-14
   1180.694  1.101E-12  5.947E-14
   1184.029  6.500E-13  3.515E-14
   1186.006  5.747E-13  3.109E-14
   1188.724  4.581E-13  2.479E-14
   1222.447  1.719E-13  9.413E-15
   1228.624  1.586E-13  8.712E-15
   1234.059  1.788E-13  9.787E-15
   1239.618  1.816E-13  9.928E-15
   1240.235  2.571E-13  1.428E-14
   1243.571  2.718E-13  1.509E-14
   1245.918  3.194E-13  1.764E-14
   1247.647  3.924E-13  2.165E-14
   1248.512  3.978E-13  2.194E-14
   1250.735  4.438E-13  2.431E-14
   1252.341  4.378E-13  2.411E-14
   1253.576  3.851E-13  2.126E-14
   1255.059  3.775E-13  2.085E-14
   1256.788  3.279E-13  1.811E-14
   1257.900  3.111E-13  1.724E-14
   1264.818  2.654E-13  1.476E-14
   1271.365  2.578E-13  1.431E-14
   1275.935  2.702E-13  1.503E-14
   1281.988  2.823E-13  1.568E-14
   1287.176  2.712E-13  1.507E-14
   1290.388  3.726E-13  2.057E-14
   1298.294  3.077E-13  1.709E-14
   1302.988  3.516E-13  1.950E-14
   1305.088  3.859E-13  2.138E-14
   1307.929  3.858E-13  2.133E-14
   1346.594  5.152E-13  7.120E-14
   1347.829  2.443E-12  2.537E-13
   1348.818  3.042E-12  3.139E-13
   1350.053  3.450E-12  3.546E-13
   1350.794  3.278E-12  3.381E-13
   1351.782  3.435E-12  3.527E-13
   1352.400  3.340E-12  3.419E-13
   1353.265  3.277E-12  3.339E-13
   1354.253  2.750E-12  2.798E-13
   1355.118  2.369E-12  2.400E-13
   1356.106  1.874E-12  1.899E-13
   1360.800  7.005E-13  7.141E-14
   1364.135  6.383E-13  6.485E-14
   1366.482  6.666E-13  6.758E-14
   1367.841  7.591E-13  7.675E-14
   1369.200  6.653E-13  6.733E-14
   1371.300  6.941E-13  7.027E-14
   1373.894  7.879E-13  7.950E-14
   1376.241  8.070E-13  8.148E-14
   1378.218  8.483E-13  8.554E-14
   1380.441  8.996E-13  9.079E-14
   1382.788  8.719E-13  8.808E-14
   1384.147  8.226E-13  8.354E-14
   1385.259  1.801E-12  1.817E-13
   1386.988  3.939E-12  3.983E-13
   1387.976  3.885E-12  3.943E-13
   1389.212  3.658E-12  3.727E-13
   1390.200  3.576E-12  3.650E-13
   1391.188  3.145E-12  3.222E-13
   1392.671  2.454E-12  2.523E-13
   1396.129  1.153E-12  1.178E-13
   1399.712  1.063E-12  1.088E-13
   1401.071  1.044E-12  1.070E-13
   1403.788  1.080E-12  1.108E-13
   1407.247  1.145E-12  1.177E-13
   1410.829  1.296E-12  1.339E-13
   1413.794  1.470E-12  1.519E-13
   1417.500  1.552E-12  1.627E-13
   1420.341  1.743E-12  1.843E-13
   1422.935  1.926E-12  2.065E-13
   1426.518  1.695E-12  1.993E-13
   1429.606  2.766E-12  3.131E-13
   1431.335  3.308E-12  3.815E-13
   1433.188  3.645E-12  4.425E-13
   1435.659  5.133E-12  6.408E-13
   1437.141  6.392E-12  8.335E-13
   1438.747  8.848E-12  1.194E-12
   1440.106  1.287E-11  1.764E-12
   1441.218  2.245E-11  2.875E-12
   1442.206  4.620E-11  5.238E-12
   1443.441  1.077E-10  1.135E-11
   1444.059  5.083E-11  6.557E-12
   1444.429  1.767E-10  1.819E-11
   1445.665  1.393E-10  1.479E-11
   1446.282  2.386E-10  2.440E-11
   1446.776  2.124E-10  2.186E-11
   1447.888  2.508E-10  2.557E-11
   1448.012  2.560E-10  2.606E-11
   1448.629  2.405E-10  2.448E-11
   1450.112  2.166E-10  2.193E-11
   1451.718  1.723E-10  1.736E-11
   1452.706  1.246E-10  1.255E-11
   1455.176  5.364E-11  5.428E-12
   1457.400  2.574E-11  2.632E-12
   1458.265  2.366E-11  2.416E-12
   1459.006  1.795E-11  1.849E-12
   1461.229  1.218E-11  1.261E-12
   1463.576  9.321E-12  9.682E-13
   1464.812  7.648E-12  7.975E-13
   1466.047  7.347E-12  7.636E-13
   1467.900  6.084E-12  6.344E-13
   1468.765  5.999E-12  6.247E-13
   1470.247  5.925E-12  6.122E-13
   1471.606  5.213E-12  5.420E-13
   1472.347  5.238E-12  5.424E-13
   1475.435  4.433E-12  4.592E-13
   1478.029  4.679E-12  4.805E-13
   1479.265  4.382E-12  4.516E-13
   1485.194  4.538E-12  4.636E-13
   1488.406  4.946E-12  5.021E-13
   1491.618  4.758E-12  4.832E-13
   1493.224  5.141E-12  5.196E-13
   1498.535  5.942E-12  5.988E-13
   1503.476  5.968E-12  6.014E-13
   1510.147  5.515E-12  5.566E-13
   1516.200  5.273E-12  5.317E-13
   1523.859  5.558E-12  5.604E-13
   1528.676  6.116E-12  6.172E-13
   1535.347  6.137E-12  6.195E-13
   1540.782  6.509E-12  6.568E-13
   1546.465  7.916E-12  7.973E-13
   1553.382  8.958E-12  9.014E-13
   1557.953  9.429E-12  9.491E-13
   1562.400  1.173E-11  1.179E-12
   1567.218  1.210E-11  1.216E-12
   1576.976  1.223E-11  1.231E-12
   1583.029  1.345E-11  1.352E-12
   1590.194  1.422E-11  1.428E-12
   1595.259  1.504E-11  1.514E-12
   1603.659  2.061E-11  2.070E-12
   1608.847  2.299E-11  2.308E-12
   1612.800  2.713E-11  2.724E-12
   1614.282  2.875E-11  2.886E-12
   1615.394  2.991E-11  3.002E-12
   1616.382  2.966E-11  2.977E-12
   1617.000  3.037E-11  3.050E-12
   1617.618  3.037E-11  3.051E-12
   1618.606  3.217E-11  3.232E-12
   1619.594  3.115E-11  3.133E-12
   1620.335  3.982E-11  3.998E-12
   1621.571  5.099E-11  5.129E-12
   1621.941  5.146E-11  5.180E-12
   1622.929  4.948E-11  5.002E-12
   1623.671  4.839E-11  4.897E-12
   1624.412  5.105E-11  5.163E-12
   1625.276  5.285E-11  5.338E-12
   1626.018  5.242E-11  5.297E-12
   1627.129  5.147E-11  5.198E-12
   1628.735  5.327E-11  5.351E-12
   1635.282  5.668E-11  5.674E-12
   1637.629  5.769E-11  5.780E-12
   1638.865  5.616E-11  5.630E-12
   1639.853  5.603E-11  5.614E-12
   1640.347  5.890E-11  5.902E-12
   1641.953  5.946E-11  5.958E-12
   1643.312  5.851E-11  5.864E-12
   1651.835  5.383E-11  5.400E-12
   1657.147  5.178E-11  5.188E-12
   1660.359  5.042E-11  5.058E-12
   1661.594  5.244E-11  5.257E-12
   1662.706  5.000E-11  5.017E-12
   1663.571  5.100E-11  5.114E-12
   1665.176  5.032E-11  5.049E-12
   1671.106  4.805E-11  4.827E-12
   1677.406  4.863E-11  4.884E-12
   1684.076  5.403E-11  5.427E-12
   1691.241  5.551E-11  5.582E-12
   1697.294  5.971E-11  6.011E-12
   1703.594  6.711E-11  6.760E-12
   1709.276  6.922E-11  6.981E-12
   1715.453  7.842E-11  7.911E-12
   1721.012  8.021E-11  8.111E-12
   1727.806  9.201E-11  9.321E-12
   1732.871  9.804E-11  9.969E-12
   1738.676  1.166E-10  1.187E-11
   1743.000  1.268E-10  1.296E-11
   1747.200  1.530E-10  1.564E-11
   1748.806  1.646E-10  1.683E-11
   1753.500  2.072E-10  2.116E-11
   1757.576  2.098E-10  2.158E-11
   1759.924  2.293E-10  2.357E-11
   1761.776  2.368E-10  2.437E-11
   1763.382  2.462E-10  2.531E-11
   1766.100  2.346E-10  2.422E-11
   1768.324  2.057E-10  2.141E-11
   1769.929  1.927E-10  2.011E-11
   1773.759  2.822E-10  2.867E-11
   1775.859  2.670E-10  2.709E-11
   1777.094  2.784E-10  2.816E-11
   1778.082  2.648E-10  2.678E-11
   1778.947  2.501E-10  2.530E-11
   1779.688  1.385E-10  1.432E-11
   1780.306  1.946E-10  1.978E-11
   1781.294  1.382E-10  1.420E-11
   1782.159  3.611E-10  3.626E-11
   1782.900  6.599E-10  6.606E-11
   1783.765  8.794E-10  8.799E-11
   1784.753  9.583E-10  9.587E-11
   1785.618  9.656E-10  9.660E-11
   1786.606  9.456E-10  9.459E-11
   1787.841  8.030E-10  8.033E-11
   1788.829  6.551E-10  6.554E-11
   1790.312  4.255E-10  4.259E-11
   1791.547  2.537E-10  2.543E-11
   1793.647  1.128E-10  1.136E-11
   1795.376  7.570E-11  7.673E-12
   1798.465  6.339E-11  6.423E-12
   1800.194  5.953E-11  6.024E-12
   1801.924  5.874E-11  5.936E-12
   1803.159  6.135E-11  6.191E-12
   1804.641  5.737E-11  5.788E-12
   1805.876  5.616E-11  5.658E-12
   1807.112  5.843E-11  5.884E-12
   1810.818  5.858E-11  5.890E-12
   1812.918  5.896E-11  5.923E-12
   1817.612  5.757E-11  5.780E-12
   1821.318  5.959E-11  5.984E-12
   1824.159  6.323E-11  6.348E-12
   1827.000  7.953E-11  7.983E-12
   1831.200  8.499E-11  8.552E-12
   1833.918  9.341E-11  9.436E-12
   1836.882  9.999E-11  1.020E-11
   1839.476  1.273E-10  1.312E-11
   1840.218  1.770E-10  1.807E-11
   1841.082  2.199E-10  2.239E-11
   1844.541  3.681E-10  3.732E-11
   1846.271  3.954E-10  4.003E-11
   1849.235  3.450E-10  3.485E-11
   1850.471  3.203E-10  3.230E-11
   1852.324  2.533E-10  2.553E-11
   1853.682  2.139E-10  2.155E-11
   1855.288  1.815E-10  1.827E-11
   1857.018  1.579E-10  1.587E-11
   1858.500  1.580E-10  1.586E-11
   1859.982  1.502E-10  1.507E-11
   1861.465  1.521E-10  1.525E-11
   1864.553  1.702E-10  1.704E-11
   1867.765  1.794E-10  1.796E-11
   1870.112  1.777E-10  1.779E-11
   1875.424  1.685E-10  1.687E-11
   1880.241  1.706E-10  1.707E-11
   1884.441  1.825E-10  1.826E-11
   1889.506  1.912E-10  1.913E-11
   1893.335  1.951E-10  1.952E-11
   1898.029  1.885E-10  1.886E-11
   1904.329  1.947E-10  1.949E-11
   1909.147  1.928E-10  1.929E-11
   1913.471  1.928E-10  1.929E-11
   1917.424  2.040E-10  2.042E-11
   1922.859  1.933E-10  1.936E-11
   1927.306  2.068E-10  2.072E-11
   1933.235  2.339E-10  2.346E-11
   1935.829  2.590E-10  2.600E-11
   1940.276  3.275E-10  3.294E-11
   1942.006  3.661E-10  3.687E-11
   1944.106  4.409E-10  4.445E-11
   1945.712  4.934E-10  4.984E-11
   1947.318  5.563E-10  5.633E-11
   1948.306  6.035E-10  6.120E-11
   1951.024  7.741E-10  7.886E-11
   1951.765  7.907E-10  8.080E-11
   1952.753  8.747E-10  8.948E-11
   1953.741  9.924E-10  1.015E-10
   1954.359  1.303E-09  1.323E-10
   1955.100  1.413E-09  1.435E-10
   1956.212  1.808E-09  1.828E-10
   1956.953  1.857E-09  1.880E-10
   1957.818  1.853E-09  1.877E-10
   1958.806  1.901E-09  1.926E-10
   1959.794  1.791E-09  1.819E-10
   1961.029  1.594E-09  1.624E-10
   1962.018  1.428E-09  1.459E-10
   1963.500  1.197E-09  1.230E-10
   1965.600  1.060E-09  1.089E-10
   1967.206  1.047E-09  1.070E-10
   1968.688  1.011E-09  1.030E-10
   1969.676  1.024E-09  1.040E-10
   1971.159  9.844E-10  9.984E-11
   1974.000  9.033E-10  9.144E-11
   1978.818  7.962E-10  8.042E-11
   1983.388  7.502E-10  7.565E-11
   1987.218  6.720E-10  6.779E-11
   1990.182  6.436E-10  6.492E-11
   1993.024  6.138E-10  6.193E-11
   1996.235  5.965E-10  6.018E-11
   1999.818  5.760E-10  5.814E-11
   2003.524  5.493E-10  5.552E-11
   2006.859  5.142E-10  5.210E-11
   2011.429  5.280E-10  5.375E-11
   2012.912  4.887E-10  5.019E-11
   2014.765  9.371E-10  9.503E-11
   2016.865  1.043E-09  1.092E-10
   2017.976  1.014E-09  1.099E-10
   2020.571  1.540E-09  1.618E-10
   2021.929  1.788E-09  1.845E-10
   2023.288  1.780E-09  1.813E-10
   2024.276  7.825E-10  8.153E-11
   2025.388  7.840E-10  8.010E-11
   2026.376  6.783E-10  6.909E-11
   2027.982  6.174E-10  6.267E-11
   2036.753  6.134E-10  6.197E-11
   2046.882  6.679E-10  6.745E-11
   2053.800  7.127E-10  7.200E-11
   2062.447  7.756E-10  7.840E-11
   2069.859  8.805E-10  8.896E-11
   2076.900  9.696E-10  9.799E-11
   2084.065  1.089E-09  1.100E-10
   2091.724  1.228E-09  1.241E-10
   2100.124  1.466E-09  1.480E-10
   2107.906  1.677E-09  1.693E-10
   2114.206  1.981E-09  1.999E-10
   2120.135  2.337E-09  2.355E-10
   2135.576  4.035E-09  4.052E-10
   2141.753  4.317E-09  4.336E-10
   2144.471  4.597E-09  4.617E-10
   2147.188  4.573E-09  4.594E-10
   2149.165  4.518E-09  4.540E-10
   2156.206  4.232E-09  4.260E-10
   2163.247  4.372E-09  4.403E-10
   2169.424  4.414E-09  4.447E-10
   2177.082  4.360E-09  4.394E-10
   2185.235  4.183E-09  4.218E-10
   2192.524  3.855E-09  3.889E-10
   2198.947  3.480E-09  3.512E-10
   2204.506  3.029E-09  3.060E-10
   2210.559  2.659E-09  2.688E-10
   2216.365  2.325E-09  2.352E-10
   2221.182  2.028E-09  2.052E-10
   2227.729  1.732E-09  1.751E-10
   2233.165  1.533E-09  1.548E-10
   2237.859  1.245E-09  1.258E-10
   2244.776  7.519E-10  7.644E-11
   2250.706  5.073E-10  5.176E-11
   2255.647  4.546E-10  4.613E-11
   2260.465  3.362E-10  3.415E-11
   2262.935  2.722E-10  2.771E-11
   2264.912  2.548E-10  2.591E-11
   2268.741  2.946E-10  2.974E-11
   2274.547  4.204E-10  4.221E-11
   2278.500  5.108E-10  5.128E-11
   2282.206  6.022E-10  6.052E-11
   2283.688  5.895E-10  5.940E-11
   2285.418  8.272E-10  8.326E-11
   2286.776  1.493E-09  1.498E-10
   2291.224  4.849E-09  4.878E-10
   2293.324  4.098E-09  4.166E-10
   2295.794  4.662E-09  4.713E-10
   2298.018  5.453E-09  5.467E-10
   2300.118  4.409E-09  4.414E-10
   2303.453  1.982E-09  1.986E-10
   2306.788  1.062E-09  1.067E-10
   2309.506  9.076E-10  9.133E-11
   2312.594  8.775E-10  8.832E-11
   2316.671  9.055E-10  9.111E-11
   2319.512  1.033E-09  1.038E-10
   2323.094  1.652E-09  1.656E-10
ENDDATA            511
ENDSUBENT          528
SUBENT        C2007005   20130429   20131120   20130927       C132
BIB                  2          4
REACTION   (8-O-17(A,N)10-NE-20,PAR,SIG,,SFC)
STATUS     (TABLE) Data presented in fig. 10 of the reference
                    sent by author (A.B.)
           (DEP,C2007004)
ENDBIB               4
COMMON               2          3
E-LVL      EN-RSL
KEV        KEV
0.0        2.0
ENDCOMMON            3
DATA                 3        515
EN         DATA       DATA-ERR
MEV        B*MEV      B*MEV
      0.686  7.174E+06  6.699E+06
      0.713  6.509E+07  9.656E+07
      0.713  3.273E+07  9.656E+07
      0.716  1.505E+08  2.056E+08
      0.717  2.567E+08  3.323E+08
      0.718  5.873E+08  5.744E+08
      0.718  9.064E+08  6.353E+08
      0.719  1.087E+09  8.512E+08
      0.720  1.819E+09  1.522E+09
      0.721  2.062E+09  2.302E+09
      0.721  8.900E+08  2.993E+09
      0.722  1.012E+09  2.575E+09
      0.724  8.888E+08  8.767E+08
      0.725  4.955E+08  3.742E+08
      0.727  2.116E+08  2.126E+08
      0.729  1.211E+08  1.286E+08
      0.730  3.405E+07  8.293E+07
      0.732  3.084E+07  5.676E+07
      0.734  2.912E+07  4.094E+07
      0.736  2.687E+07  3.142E+07
      0.737  2.227E+07  2.472E+07
      0.739  2.453E+07  2.003E+07
      0.740  2.241E+07  1.648E+07
      0.742  1.831E+07  1.374E+07
      0.744  1.154E+07  1.086E+07
      0.745  9.568E+06  1.064E+07
      0.748  5.273E+06  7.723E+06
      0.749  4.396E+06  7.172E+06
      0.751  3.372E+06  5.626E+06
      0.754  3.222E+06  4.595E+06
      0.755  3.093E+06  4.289E+06
      0.756  1.399E+06  3.677E+06
      0.760  1.081E+06  2.586E+06
      0.763  7.191E+05  2.156E+06
      0.778  7.069E+05  5.631E+05
      0.781  1.771E+06  6.458E+05
      0.785  3.785E+06  1.221E+06
      0.789  6.293E+06  2.927E+06
      0.793  9.924E+06  9.835E+06
      0.796  1.377E+07  5.481E+07
      0.796  3.663E+07  5.798E+07
      0.796  5.775E+07  1.075E+08
      0.797  1.398E+08  2.184E+08
      0.797  2.728E+08  3.442E+08
      0.798  7.669E+08  1.102E+09
      0.798  9.649E+08  1.709E+09
      0.799  1.020E+09  1.232E+09
      0.799  9.616E+08  7.213E+08
      0.799  7.676E+08  5.687E+08
      0.800  6.245E+08  2.635E+08
      0.800  4.391E+08  1.792E+08
      0.801  2.812E+08  1.286E+08
      0.801  1.657E+08  1.048E+08
      0.802  6.768E+07  7.820E+07
      0.802  8.233E+06  7.004E+07
      0.803  6.845E+06  4.921E+07
      0.803  3.644E+07  4.493E+07
      0.804  6.457E+07  4.207E+07
      0.804  9.685E+07  4.046E+07
      0.805  6.469E+07  3.777E+07
      0.806  5.816E+07  3.585E+07
      0.807  4.224E+07  3.496E+07
      0.808  3.303E+07  3.534E+07
      0.810  2.692E+07  3.769E+07
      0.813  2.941E+07  3.961E+07
      0.816  3.620E+07  3.927E+07
      0.818  3.627E+07  3.739E+07
      0.821  3.031E+07  3.318E+07
      0.824  2.685E+07  3.020E+07
      0.826  2.720E+07  2.821E+07
      0.829  2.796E+07  2.751E+07
      0.831  3.243E+07  2.902E+07
      0.834  3.701E+07  3.584E+07
      0.836  5.085E+07  5.818E+07
      0.837  6.250E+07  7.546E+07
      0.837  7.191E+07  9.103E+07
      0.838  9.198E+07  1.126E+08
      0.838  1.157E+08  1.418E+08
      0.839  1.449E+08  1.710E+08
      0.839  1.898E+08  2.233E+08
      0.840  2.690E+08  2.937E+08
      0.840  3.325E+08  3.481E+08
      0.840  3.733E+08  4.206E+08
      0.841  4.411E+08  4.546E+08
      0.841  4.261E+08  4.208E+08
      0.842  3.891E+08  3.607E+08
      0.842  3.250E+08  2.838E+08
      0.843  2.631E+08  2.220E+08
      0.843  2.013E+08  1.842E+08
      0.844  1.541E+08  1.411E+08
      0.844  1.097E+08  1.249E+08
      0.844  7.336E+07  1.032E+08
      0.845  5.275E+07  9.352E+07
      0.845  3.911E+07  8.057E+07
      0.846  3.241E+07  6.998E+07
      0.846  3.453E+07  6.447E+07
      0.846  4.058E+07  5.805E+07
      0.847  4.867E+07  5.255E+07
      0.847  5.033E+07  4.787E+07
      0.847  5.545E+07  4.402E+07
      0.848  5.642E+07  4.138E+07
      0.848  5.929E+07  3.927E+07
      0.848  4.953E+07  3.646E+07
      0.849  5.300E+07  3.540E+07
      0.849  5.247E+07  3.275E+07
      0.849  4.244E+07  3.140E+07
      0.850  3.943E+07  2.975E+07
      0.850  4.166E+07  2.893E+07
      0.896  1.372E+07  9.334E+06
      0.901  1.345E+07  9.982E+06
      0.904  1.427E+07  1.061E+07
      0.905  1.405E+07  1.102E+07
      0.905  1.492E+07  1.139E+07
      0.906  1.503E+07  1.176E+07
      0.907  1.509E+07  1.211E+07
      0.907  1.708E+07  1.271E+07
      0.908  1.741E+07  1.347E+07
      0.909  1.862E+07  1.546E+07
      0.911  1.893E+07  2.157E+07
      0.913  2.037E+07  3.656E+07
      0.914  2.155E+07  5.114E+07
      0.914  3.451E+07  7.539E+07
      0.915  5.871E+07  1.027E+08
      0.916  7.165E+07  1.183E+08
      0.917  6.433E+07  9.114E+07
      0.919  5.386E+07  3.723E+07
      0.921  3.815E+07  2.593E+07
      0.921  2.972E+07  2.335E+07
      0.922  2.005E+07  2.101E+07
      0.923  1.922E+07  2.007E+07
      0.925  1.500E+07  1.948E+07
      0.926  1.492E+07  1.978E+07
      0.928  1.690E+07  2.074E+07
      0.929  2.118E+07  2.222E+07
      0.930  2.562E+07  2.445E+07
      0.932  1.802E+07  2.715E+07
      0.932  3.151E+07  2.715E+07
      0.933  2.308E+07  3.219E+07
      0.935  3.231E+07  4.081E+07
      0.937  4.694E+07  5.301E+07
      0.938  6.011E+07  6.711E+07
      0.939  7.695E+07  8.872E+07
      0.940  1.077E+08  1.075E+08
      0.941  1.455E+08  1.344E+08
      0.942  1.798E+08  1.550E+08
      0.943  2.706E+08  2.149E+08
      0.944  2.348E+08  2.217E+08
      0.945  1.838E+08  2.026E+08
      0.946  1.426E+08  1.626E+08
      0.947  1.135E+08  1.436E+08
      0.948  8.182E+07  1.073E+08
      0.949  6.624E+07  8.709E+07
      0.950  5.667E+07  6.831E+07
      0.951  5.466E+07  5.813E+07
      0.952  4.781E+07  4.434E+07
      0.953  4.976E+07  3.896E+07
      0.954  4.578E+07  3.133E+07
      0.956  4.566E+07  2.391E+07
      0.959  2.698E+07  1.780E+07
      0.960  2.465E+07  1.540E+07
      0.962  2.048E+07  1.305E+07
      0.990  5.796E+06  6.667E+06
      0.995  5.447E+06  6.709E+06
      0.999  6.206E+06  7.028E+06
      1.004  6.267E+06  8.084E+06
      1.004  9.244E+06  8.293E+06
      1.007  9.477E+06  1.005E+07
      1.009  1.058E+07  1.188E+07
      1.010  1.219E+07  1.310E+07
      1.011  1.148E+07  1.327E+07
      1.013  1.155E+07  1.174E+07
      1.014  1.051E+07  9.827E+06
      1.015  8.674E+06  8.564E+06
      1.016  8.161E+06  7.506E+06
      1.017  6.988E+06  6.666E+06
      1.018  6.764E+06  6.297E+06
      1.024  5.623E+06  5.394E+06
      1.029  5.344E+06  5.206E+06
      1.033  5.589E+06  5.163E+06
      1.038  5.667E+06  5.156E+06
      1.042  5.278E+06  5.165E+06
      1.045  7.021E+06  5.182E+06
      1.051  5.349E+06  5.222E+06
      1.055  5.689E+06  5.241E+06
      1.057  5.867E+06  5.250E+06
      1.059  5.367E+06  5.256E+06
      1.090  1.144E+07  4.234E+07
      1.091  3.656E+07  3.874E+07
      1.092  3.962E+07  2.988E+07
      1.093  3.793E+07  2.211E+07
      1.094  2.984E+07  1.896E+07
      1.094  2.499E+07  1.589E+07
      1.095  1.945E+07  1.455E+07
      1.096  1.584E+07  1.312E+07
      1.096  1.216E+07  1.196E+07
      1.097  1.085E+07  1.121E+07
      1.098  9.821E+06  1.057E+07
      1.102  4.237E+06  9.067E+06
      1.104  4.417E+06  8.653E+06
      1.106  5.160E+06  8.526E+06
      1.107  6.393E+06  8.494E+06
      1.108  5.932E+06  8.491E+06
      1.110  6.357E+06  8.527E+06
      1.112  7.252E+06  8.686E+06
      1.114  7.455E+06  8.972E+06
      1.116  7.844E+06  9.399E+06
      1.118  8.275E+06  1.032E+07
      1.119  7.870E+06  1.303E+07
      1.121  7.226E+06  1.913E+07
      1.121  1.480E+07  3.849E+07
      1.123  2.934E+07  2.055E+07
      1.124  2.553E+07  9.467E+06
      1.125  2.072E+07  7.435E+06
      1.125  1.757E+07  7.111E+06
      1.126  1.408E+07  7.089E+06
      1.127  1.079E+07  7.199E+06
      1.130  5.226E+06  7.612E+06
      1.133  5.213E+06  8.062E+06
      1.134  5.678E+06  8.237E+06
      1.136  6.317E+06  8.597E+06
      1.139  6.970E+06  9.162E+06
      1.142  7.991E+06  9.897E+06
      1.145  8.978E+06  1.064E+07
      1.148  9.305E+06  1.197E+07
      1.150  1.023E+07  1.341E+07
      1.152  1.123E+07  1.515E+07
      1.155  1.071E+07  1.909E+07
      1.157  1.708E+07  2.511E+07
      1.159  2.189E+07  3.059E+07
      1.160  2.724E+07  3.940E+07
      1.162  4.259E+07  6.046E+07
      1.163  6.048E+07  8.484E+07
      1.165  9.382E+07  1.347E+08
      1.166  1.482E+08  2.144E+08
      1.167  2.534E+08  3.253E+08
      1.168  4.726E+08  4.430E+08
      1.169  1.016E+09  5.053E+08
      1.169  5.669E+08  4.903E+08
      1.169  1.470E+09  4.450E+08
      1.170  1.067E+09  2.978E+08
      1.171  1.515E+09  2.353E+08
      1.171  1.117E+09  1.962E+08
      1.172  1.019E+09  1.330E+08
      1.172  7.786E+08  1.268E+08
      1.173  5.257E+08  1.068E+08
      1.174  3.361E+08  7.185E+07
      1.175  2.056E+08  5.132E+07
      1.176  1.370E+08  4.303E+07
      1.178  6.430E+07  3.059E+07
      1.180  3.712E+07  2.403E+07
      1.181  4.152E+07  2.220E+07
      1.181  3.778E+07  2.084E+07
      1.183  2.916E+07  1.784E+07
      1.185  2.443E+07  1.568E+07
      1.186  2.149E+07  1.487E+07
      1.187  2.143E+07  1.415E+07
      1.188  1.812E+07  1.328E+07
      1.189  1.811E+07  1.294E+07
      1.190  1.783E+07  1.244E+07
      1.191  1.589E+07  1.206E+07
      1.192  1.616E+07  1.188E+07
      1.194  1.404E+07  1.127E+07
      1.194  1.369E+07  1.127E+07
      1.197  1.489E+07  1.091E+07
      1.198  1.423E+07  1.077E+07
      1.202  1.423E+07  1.034E+07
      1.205  1.523E+07  1.021E+07
      1.208  1.438E+07  1.015E+07
      1.209  1.528E+07  1.014E+07
      1.213  1.681E+07  1.015E+07
      1.217  1.616E+07  1.026E+07
      1.223  1.414E+07  1.048E+07
      1.227  1.290E+07  1.077E+07
      1.234  1.287E+07  1.124E+07
      1.238  1.378E+07  1.159E+07
      1.243  1.327E+07  1.220E+07
      1.247  1.363E+07  1.276E+07
      1.252  1.597E+07  1.348E+07
      1.258  1.720E+07  1.449E+07
      1.261  1.749E+07  1.530E+07
      1.265  2.096E+07  1.617E+07
      1.269  2.074E+07  1.730E+07
      1.277  1.945E+07  2.015E+07
      1.282  2.039E+07  2.240E+07
      1.287  2.049E+07  2.579E+07
      1.291  2.104E+07  2.863E+07
      1.298  2.735E+07  3.436E+07
      1.302  2.978E+07  3.857E+07
      1.306  3.478E+07  4.186E+07
      1.307  3.729E+07  4.322E+07
      1.308  3.952E+07  4.433E+07
      1.309  4.003E+07  4.568E+07
      1.309  4.194E+07  4.679E+07
      1.310  4.267E+07  5.471E+07
      1.310  4.548E+07  5.374E+07
      1.311  4.388E+07  4.924E+07
      1.312  5.515E+07  4.873E+07
      1.313  6.867E+07  4.937E+07
      1.313  6.710E+07  4.961E+07
      1.314  6.205E+07  5.017E+07
      1.314  5.823E+07  5.067E+07
      1.315  5.904E+07  5.117E+07
      1.316  5.907E+07  5.174E+07
      1.316  5.727E+07  5.222E+07
      1.317  5.527E+07  5.288E+07
      1.319  5.614E+07  5.376E+07
      1.324  5.699E+07  5.597E+07
      1.326  5.729E+07  5.627E+07
      1.327  5.544E+07  5.632E+07
      1.328  5.489E+07  5.631E+07
      1.328  5.734E+07  5.628E+07
      1.329  5.696E+07  5.614E+07
      1.330  5.522E+07  5.592E+07
      1.337  4.769E+07  5.338E+07
      1.342  4.401E+07  5.125E+07
      1.344  4.188E+07  4.992E+07
      1.345  4.317E+07  4.943E+07
      1.346  4.097E+07  4.898E+07
      1.347  4.168E+07  4.865E+07
      1.348  4.094E+07  4.805E+07
      1.353  3.786E+07  4.604E+07
      1.358  3.699E+07  4.441E+07
      1.363  3.956E+07  4.333E+07
      1.369  3.900E+07  4.290E+07
      1.374  4.051E+07  4.315E+07
      1.379  4.385E+07  4.413E+07
      1.384  4.378E+07  4.561E+07
      1.389  4.787E+07  4.815E+07
      1.393  4.765E+07  5.127E+07
      1.399  5.288E+07  5.671E+07
      1.403  5.532E+07  6.233E+07
      1.408  6.416E+07  7.071E+07
      1.411  6.871E+07  7.889E+07
      1.414  8.105E+07  8.839E+07
      1.416  8.616E+07  9.203E+07
      1.420  1.043E+08  1.034E+08
      1.423  1.020E+08  1.110E+08
      1.425  1.071E+08  1.127E+08
      1.426  1.060E+08  1.122E+08
      1.428  1.047E+08  1.102E+08
      1.430  9.376E+07  1.035E+08
      1.432  7.727E+07  9.557E+07
      1.433  6.757E+07  8.952E+07
      1.436  8.873E+07  7.505E+07
      1.438  7.968E+07  7.031E+07
      1.439  8.273E+07  7.068E+07
      1.439  8.330E+07  7.478E+07
      1.440  9.991E+07  8.349E+07
      1.440  8.743E+07  8.349E+07
      1.441  6.409E+07  1.020E+08
      1.441  9.793E+07  1.351E+08
      1.442  7.464E+07  3.385E+08
      1.443  1.925E+08  7.412E+08
      1.443  3.344E+08  7.893E+08
      1.444  3.968E+08  3.571E+08
      1.445  3.569E+08  1.290E+08
      1.446  2.733E+08  8.036E+07
      1.446  1.869E+08  5.776E+07
      1.447  1.052E+08  4.445E+07
      1.448  6.155E+07  3.862E+07
      1.449  3.827E+07  3.322E+07
      1.450  2.946E+07  3.025E+07
      1.452  1.839E+07  2.655E+07
      1.453  1.665E+07  2.446E+07
      1.456  1.718E+07  2.197E+07
      1.457  1.865E+07  2.104E+07
      1.459  2.007E+07  2.035E+07
      1.460  2.190E+07  1.997E+07
      1.461  2.067E+07  1.961E+07
      1.462  2.000E+07  1.940E+07
      1.463  2.035E+07  1.925E+07
      1.466  1.962E+07  1.916E+07
      1.468  1.935E+07  1.930E+07
      1.471  1.849E+07  2.017E+07
      1.474  1.914E+07  2.146E+07
      1.477  2.067E+07  2.291E+07
      1.479  2.666E+07  2.514E+07
      1.482  2.908E+07  3.108E+07
      1.485  3.271E+07  3.800E+07
      1.487  3.544E+07  5.286E+07
      1.489  4.470E+07  7.499E+07
      1.490  5.932E+07  8.185E+07
      1.490  6.866E+07  8.880E+07
      1.493  1.024E+08  8.462E+07
      1.495  9.737E+07  7.058E+07
      1.497  7.458E+07  5.200E+07
      1.498  6.287E+07  4.724E+07
      1.500  4.708E+07  4.231E+07
      1.501  3.979E+07  4.000E+07
      1.502  3.515E+07  3.803E+07
      1.503  3.250E+07  3.661E+07
      1.505  3.470E+07  3.587E+07
      1.506  3.487E+07  3.539E+07
      1.507  3.670E+07  3.516E+07
      1.509  4.155E+07  3.512E+07
      1.512  4.362E+07  3.558E+07
      1.514  4.274E+07  3.612E+07
      1.518  3.911E+07  3.766E+07
      1.522  3.819E+07  3.935E+07
      1.526  3.948E+07  4.081E+07
      1.530  3.982E+07  4.239E+07
      1.533  3.942E+07  4.338E+07
      1.537  3.690E+07  4.411E+07
      1.542  3.674E+07  4.424E+07
      1.546  3.549E+07  4.358E+07
      1.549  3.489E+07  4.254E+07
      1.552  3.658E+07  4.137E+07
      1.557  3.428E+07  3.980E+07
      1.560  3.665E+07  3.911E+07
      1.565  4.131E+07  4.076E+07
      1.567  4.649E+07  4.342E+07
      1.571  5.932E+07  5.345E+07
      1.572  6.788E+07  6.072E+07
      1.574  8.359E+07  7.392E+07
      1.575  9.609E+07  8.833E+07
      1.576  1.114E+08  1.070E+08
      1.577  1.244E+08  1.201E+08
      1.579  1.624E+08  1.693E+08
      1.580  1.687E+08  1.844E+08
      1.581  1.863E+08  2.038E+08
      1.582  2.066E+08  2.213E+08
      1.582  2.578E+08  2.302E+08
      1.583  2.613E+08  2.391E+08
      1.584  3.038E+08  2.460E+08
      1.584  2.808E+08  2.474E+08
      1.585  2.505E+08  2.446E+08
      1.586  2.315E+08  2.384E+08
      1.587  2.022E+08  2.293E+08
      1.588  1.733E+08  2.154E+08
      1.588  1.556E+08  2.033E+08
      1.590  1.346E+08  1.857E+08
      1.591  1.236E+08  1.632E+08
      1.593  1.262E+08  1.487E+08
      1.594  1.252E+08  1.378E+08
      1.595  1.289E+08  1.313E+08
      1.596  1.243E+08  1.224E+08
      1.598  1.124E+08  1.088E+08
      1.602  9.599E+07  9.327E+07
      1.606  8.767E+07  8.405E+07
      1.609  7.680E+07  7.867E+07
      1.611  7.272E+07  7.569E+07
      1.613  6.930E+07  7.347E+07
      1.616  6.786E+07  7.169E+07
      1.619  6.652E+07  7.050E+07
      1.622  6.466E+07  7.021E+07
      1.625  6.165E+07  7.124E+07
      1.628  6.331E+07  7.843E+07
      1.630  5.828E+07  8.621E+07
      1.631  1.049E+08  1.157E+08
      1.633  1.096E+08  2.225E+08
      1.634  9.682E+07  1.885E+08
      1.636  1.202E+08  8.967E+07
      1.637  1.157E+08  7.893E+07
      1.638  9.990E+07  7.414E+07
      1.639  4.310E+07  7.229E+07
      1.640  4.469E+07  7.107E+07
      1.640  4.343E+07  7.043E+07
      1.642  4.516E+07  6.991E+07
      1.649  4.881E+07  7.120E+07
      1.657  5.615E+07  7.545E+07
      1.663  6.241E+07  7.925E+07
      1.670  6.826E+07  8.514E+07
      1.676  7.661E+07  9.093E+07
      1.681  8.233E+07  9.724E+07
      1.687  8.930E+07  1.047E+08
      1.693  9.673E+07  1.136E+08
      1.700  1.102E+08  1.247E+08
      1.706  1.208E+08  1.362E+08
      1.712  1.377E+08  1.466E+08
      1.716  1.569E+08  1.569E+08
      1.729  2.496E+08  1.859E+08
      1.734  2.573E+08  1.972E+08
      1.736  2.680E+08  2.020E+08
      1.738  2.609E+08  2.065E+08
      1.740  2.533E+08  2.094E+08
      1.746  2.284E+08  2.186E+08
      1.751  2.271E+08  2.233E+08
      1.756  2.217E+08  2.229E+08
      1.762  2.102E+08  2.153E+08
      1.769  1.931E+08  1.984E+08
      1.775  1.710E+08  1.767E+08
      1.780  1.489E+08  1.539E+08
      1.785  1.255E+08  1.333E+08
      1.790  1.061E+08  1.108E+08
      1.794  8.923E+07  9.024E+07
      1.798  7.481E+07  7.477E+07
      1.803  6.055E+07  5.581E+07
      1.808  5.084E+07  4.282E+07
      1.812  3.937E+07  3.325E+07
      1.817  2.275E+07  2.250E+07
      1.822  1.493E+07  1.601E+07
      1.826  1.320E+07  1.259E+07
      1.830  9.932E+06  1.069E+07
      1.832  8.446E+06  1.027E+07
      1.834  8.419E+06  1.016E+07
      1.837  1.027E+07  1.056E+07
      1.841  1.534E+07  1.254E+07
      1.845  1.955E+07  1.510E+07
      1.848  2.386E+07  1.924E+07
      1.849  2.392E+07  2.185E+07
      1.850  3.329E+07  2.693E+07
      1.851  5.765E+07  3.420E+07
      1.855  1.720E+08  1.066E+08
      1.857  1.311E+08  7.050E+07
      1.859  1.276E+08  4.336E+07
      1.860  1.245E+08  3.542E+07
      1.862  7.549E+07  3.294E+07
      1.862  8.530E+07  3.294E+07
      1.865  3.268E+07  3.207E+07
      1.867  1.876E+07  3.247E+07
      1.870  1.858E+07  3.315E+07
      1.872  2.159E+07  3.403E+07
      1.875  2.699E+07  3.513E+07
      1.878  3.741E+07  3.584E+07
      1.881  7.179E+07  3.661E+07
ENDDATA            517
ENDSUBENT          530
SUBENT        C2007006   20130429   20131120   20130927       C132
BIB                  2          4
REACTION   (8-O-17(A,N)10-NE-20,PAR,SIG,,SFC)
STATUS     (TABLE) Data presented in fig. 10 of the reference
                    sent by author (A.B.)
           (DEP,C2007004)
ENDBIB               4
COMMON               2          3
E-LVL      EN-RSL
KEV        KEV
1633.7     2.0
ENDCOMMON            3
DATA                 3        294
EN         DATA       DATA-ERR
MEV        B*MEV      B*MEV
     1.0832  4.015E+06  1.826E+06
     1.0859  6.364E+06  3.846E+06
     1.0875  6.502E+06  7.723E+06
     1.0885  1.145E+07  1.310E+07
     1.0901  6.605E+06  2.254E+07
     1.0917  1.008E+07  1.411E+07
     1.0931  1.036E+07  7.490E+06
     1.0943  7.568E+06  4.710E+06
     1.0958  6.924E+06  3.082E+06
     1.0973  2.855E+06  2.288E+06
     1.0987  1.642E+06  1.875E+06
     1.1001  1.462E+06  1.623E+06
     1.1013  1.280E+06  1.493E+06
     1.1039  1.656E+06  1.310E+06
     1.1140  2.427E+06  1.211E+06
     1.1163  1.614E+06  1.271E+06
     1.1189  1.800E+06  1.595E+06
     1.1207  5.722E+06  4.617E+06
     1.1217  7.105E+06  1.996E+07
     1.1229  7.655E+06  1.243E+07
     1.1247  5.409E+06  3.772E+06
     1.1257  4.491E+06  3.042E+06
     1.1269  3.161E+06  2.696E+06
     1.1281  2.105E+06  2.558E+06
     1.1291  1.768E+06  2.514E+06
     1.1303  1.685E+06  2.517E+06
     1.1330  1.583E+06  2.652E+06
     1.1389  2.628E+06  3.365E+06
     1.1445  3.556E+06  4.754E+06
     1.1541  8.255E+06  1.242E+07
     1.1559  1.499E+07  1.617E+07
     1.1579  2.438E+07  2.286E+07
     1.1596  3.796E+07  3.239E+07
     1.1603  3.788E+07  3.776E+07
     1.1612  4.957E+07  4.656E+07
     1.1629  7.096E+07  7.693E+07
     1.1629  8.401E+07  7.693E+07
     1.1644  1.233E+08  1.335E+08
     1.1646  1.634E+08  1.449E+08
     1.1660  3.194E+08  2.753E+08
     1.1662  2.569E+08  3.033E+08
     1.1679  5.211E+08  5.938E+08
     1.1685  4.945E+08  6.136E+08
     1.1696  4.104E+08  4.901E+08
     1.1707  2.770E+08  3.019E+08
     1.1710  2.077E+08  2.656E+08
     1.1728  1.196E+08  1.253E+08
     1.1732  9.192E+07  1.086E+08
     1.1741  5.693E+07  8.160E+07
     1.1754  4.540E+07  5.678E+07
     1.1761  3.437E+07  4.823E+07
     1.1776  3.123E+07  3.579E+07
     1.1779  2.763E+07  3.387E+07
     1.1796  3.310E+07  2.539E+07
     1.1796  2.138E+07  2.539E+07
     1.1816  1.919E+07  1.913E+07
     1.1832  1.385E+07  1.576E+07
     1.1851  1.565E+07  1.290E+07
     1.1872  9.512E+06  1.077E+07
     1.1892  9.352E+06  9.207E+06
     1.1916  7.282E+06  7.838E+06
     1.1936  7.773E+06  6.983E+06
     1.1956  7.631E+06  6.326E+06
     1.1977  6.180E+06  5.751E+06
     1.1978  5.997E+06  5.727E+06
     1.1993  5.193E+06  5.389E+06
     1.2003  5.208E+06  5.190E+06
     1.2007  5.801E+06  5.116E+06
     1.2012  4.981E+06  5.026E+06
     1.2025  5.289E+06  4.818E+06
     1.2045  5.148E+06  4.538E+06
     1.2047  5.589E+06  4.512E+06
     1.2061  4.836E+06  4.343E+06
     1.2083  4.518E+06  4.114E+06
     1.2100  4.519E+06  3.963E+06
     1.2115  4.256E+06  3.847E+06
     1.2131  4.775E+06  3.736E+06
     1.2153  4.816E+06  3.603E+06
     1.2193  3.344E+06  3.410E+06
     1.2250  3.500E+06  3.216E+06
     1.2315  3.270E+06  3.076E+06
     1.2400  2.937E+06  2.982E+06
     1.2488  3.811E+06  2.958E+06
     1.2587  3.012E+06  2.994E+06
     1.2699  2.777E+06  3.099E+06
     1.2785  2.844E+06  3.221E+06
     1.2856  3.280E+06  3.349E+06
     1.2938  3.651E+06  3.535E+06
     1.3009  4.783E+06  3.761E+06
     1.3053  4.503E+06  4.077E+06
     1.3069  6.302E+06  4.492E+06
     1.3084  6.073E+06  6.634E+06
     1.3092  6.996E+06  2.154E+07
     1.3100  1.051E+07  4.755E+07
     1.3114  1.432E+07  6.931E+06
     1.3123  1.579E+07  5.207E+06
     1.3132  1.483E+07  4.699E+06
     1.3141  1.059E+07  4.501E+06
     1.3153  1.359E+07  4.389E+06
     1.3163  1.003E+07  4.357E+06
     1.3257  4.440E+06  4.614E+06
     1.3335  5.385E+06  4.991E+06
     1.3427  4.995E+06  5.560E+06
     1.3515  5.652E+06  6.259E+06
     1.3591  7.268E+06  7.029E+06
     1.3674  6.723E+06  8.129E+06
     1.3731  8.215E+06  9.097E+06
     1.3787  8.501E+06  1.032E+07
     1.3836  1.114E+07  1.164E+07
     1.3886  1.278E+07  1.340E+07
     1.3922  1.429E+07  1.494E+07
     1.3962  1.625E+07  1.712E+07
     1.3998  1.767E+07  1.951E+07
     1.4035  2.181E+07  2.270E+07
     1.4067  2.612E+07  2.609E+07
     1.4102  3.245E+07  3.076E+07
     1.4136  3.460E+07  3.645E+07
     1.4159  4.084E+07  4.066E+07
     1.4187  4.512E+07  4.649E+07
     1.4210  5.272E+07  5.116E+07
     1.4233  5.669E+07  5.499E+07
     1.4251  5.653E+07  5.678E+07
     1.4275  5.317E+07  5.702E+07
     1.4285  5.155E+07  5.621E+07
     1.4295  4.274E+07  5.488E+07
     1.4304  4.494E+07  5.325E+07
     1.4315  3.964E+07  5.074E+07
     1.4325  4.896E+07  4.825E+07
     1.4339  5.049E+07  4.434E+07
     1.4350  4.348E+07  4.100E+07
     1.4361  4.290E+07  3.763E+07
     1.4371  3.620E+07  3.463E+07
     1.4382  2.842E+07  3.146E+07
     1.4395  2.294E+07  2.795E+07
     1.4409  2.337E+07  2.469E+07
     1.4428  1.969E+07  2.061E+07
     1.4449  1.712E+07  1.683E+07
     1.4466  1.471E+07  1.430E+07
     1.4477  1.009E+07  1.289E+07
     1.4490  7.880E+06  1.141E+07
     1.4502  7.184E+06  1.031E+07
     1.4523  6.399E+06  8.542E+06
     1.4560  5.121E+06  6.268E+06
     1.4627  3.595E+06  3.966E+06
     1.4709  3.293E+06  3.125E+06
     1.4742  3.813E+06  3.381E+06
     1.4772  4.295E+06  4.064E+06
     1.4792  5.340E+06  4.952E+06
     1.4823  7.437E+06  7.637E+06
     1.4845  1.004E+07  1.131E+07
     1.4859  1.290E+07  1.538E+07
     1.4874  2.035E+07  2.199E+07
     1.4885  2.496E+07  2.856E+07
     1.4897  3.083E+07  3.643E+07
     1.4908  3.756E+07  4.166E+07
     1.4916  3.942E+07  4.247E+07
     1.4925  4.084E+07  4.035E+07
     1.4936  3.044E+07  3.439E+07
     1.4953  2.276E+07  2.392E+07
     1.4965  1.660E+07  1.830E+07
     1.4978  1.108E+07  1.387E+07
     1.4988  9.205E+06  1.142E+07
     1.5002  8.278E+06  8.946E+06
     1.5012  6.765E+06  7.728E+06
     1.5046  4.466E+06  4.950E+06
     1.5059  3.855E+06  4.313E+06
     1.5091  3.420E+06  3.291E+06
     1.5124  3.244E+06  2.656E+06
     1.5153  2.415E+06  2.308E+06
     1.5185  2.014E+06  2.067E+06
     1.5198  2.118E+06  1.995E+06
     1.5242  1.767E+06  1.838E+06
     1.5272  1.804E+06  1.790E+06
     1.5360  1.602E+06  1.842E+06
     1.5422  1.826E+06  2.057E+06
     1.5479  2.039E+06  2.444E+06
     1.5533  2.766E+06  3.129E+06
     1.5559  3.285E+06  3.667E+06
     1.5612  5.394E+06  5.535E+06
     1.5666  1.001E+07  9.974E+06
     1.5688  1.308E+07  1.322E+07
     1.5703  1.669E+07  1.646E+07
     1.5717  2.068E+07  2.053E+07
     1.5735  2.653E+07  2.778E+07
     1.5755  3.938E+07  3.968E+07
     1.5767  4.702E+07  4.872E+07
     1.5777  5.707E+07  5.782E+07
     1.5787  6.208E+07  6.849E+07
     1.5798  6.779E+07  8.098E+07
     1.5805  7.985E+07  8.868E+07
     1.5818  8.436E+07  1.009E+08
     1.5824  8.671E+07  1.045E+08
     1.5832  1.179E+08  1.073E+08
     1.5840  1.185E+08  1.075E+08
     1.5847  1.104E+08  1.056E+08
     1.5863  9.517E+07  9.712E+07
     1.5875  8.751E+07  8.817E+07
     1.5886  7.225E+07  7.970E+07
     1.5892  6.435E+07  7.524E+07
     1.5901  6.342E+07  6.903E+07
     1.5908  6.110E+07  6.458E+07
     1.5913  5.681E+07  6.166E+07
     1.5920  5.071E+07  5.787E+07
     1.5937  5.242E+07  5.030E+07
     1.5945  4.989E+07  4.732E+07
     1.5965  4.349E+07  4.094E+07
     1.5987  3.777E+07  3.574E+07
     1.6017  3.337E+07  3.074E+07
     1.6075  2.523E+07  2.514E+07
     1.6128  2.365E+07  2.258E+07
     1.6163  2.323E+07  2.176E+07
     1.6216  2.438E+07  2.195E+07
     1.6256  2.597E+07  2.477E+07
     1.6273  2.735E+07  2.836E+07
     1.6285  3.419E+07  3.323E+07
     1.6301  3.914E+07  5.068E+07
     1.6314  6.274E+07  9.850E+07
     1.6318  6.630E+07  1.284E+08
     1.6324  9.659E+07  1.811E+08
     1.6331  1.293E+08  2.010E+08
     1.6340  1.196E+08  1.334E+08
     1.6348  1.050E+08  7.746E+07
     1.6357  8.352E+07  4.886E+07
     1.6367  6.367E+07  3.596E+07
     1.6377  4.667E+07  2.927E+07
     1.6386  4.223E+07  2.612E+07
     1.6394  3.638E+07  2.431E+07
     1.6404  3.345E+07  2.287E+07
     1.6455  1.722E+07  2.040E+07
     1.6520  1.515E+07  2.038E+07
     1.6580  1.735E+07  2.111E+07
     1.6623  1.911E+07  2.186E+07
     1.6679  2.245E+07  2.310E+07
     1.6731  2.440E+07  2.444E+07
     1.6789  2.603E+07  2.619E+07
     1.6840  2.671E+07  2.798E+07
     1.6906  2.849E+07  3.060E+07
     1.6961  3.119E+07  3.309E+07
     1.7017  3.208E+07  3.601E+07
     1.7068  3.345E+07  3.888E+07
     1.7120  4.103E+07  4.219E+07
     1.7160  4.611E+07  4.484E+07
     1.7210  4.940E+07  4.848E+07
     1.7246  5.550E+07  5.111E+07
     1.7289  6.275E+07  5.445E+07
     1.7339  6.264E+07  5.822E+07
     1.7398  7.419E+07  6.242E+07
     1.7473  6.879E+07  6.674E+07
     1.7541  6.648E+07  6.883E+07
     1.7594  5.897E+07  6.865E+07
     1.7650  5.946E+07  6.654E+07
     1.7702  5.781E+07  6.275E+07
     1.7755  5.242E+07  5.740E+07
     1.7810  4.093E+07  5.068E+07
     1.7864  3.741E+07  4.335E+07
     1.7908  3.334E+07  3.742E+07
     1.8002  2.326E+07  2.549E+07
     1.8059  1.825E+07  1.926E+07
     1.8106  1.449E+07  1.496E+07
     1.8188  8.223E+06  9.088E+06
     1.8252  5.954E+06  5.996E+06
     1.8298  4.511E+06  4.523E+06
     1.8358  3.178E+06  3.578E+06
     1.8432  4.096E+06  4.218E+06
     1.8483  7.142E+06  8.191E+06
     1.8489  7.768E+06  9.191E+06
     1.8505  1.215E+07  1.439E+07
     1.8515  1.420E+07  2.103E+07
     1.8522  2.622E+07  2.851E+07
     1.8532  3.732E+07  4.799E+07
     1.8538  5.855E+07  6.358E+07
     1.8540  5.330E+07  6.740E+07
     1.8549  7.162E+07  7.536E+07
     1.8556  6.196E+07  6.436E+07
     1.8556  7.222E+07  6.436E+07
     1.8565  5.735E+07  4.288E+07
     1.8573  4.209E+07  2.983E+07
     1.8576  3.006E+07  2.664E+07
     1.8587  1.818E+07  1.772E+07
     1.8591  1.182E+07  1.595E+07
     1.8598  8.556E+06  1.333E+07
     1.8608  6.529E+06  1.095E+07
     1.8611  7.006E+06  1.038E+07
     1.8619  8.174E+06  9.325E+06
     1.8631  7.038E+06  8.319E+06
     1.8637  7.996E+06  7.958E+06
     1.8651  7.009E+06  7.394E+06
     1.8674  5.480E+06  6.977E+06
     1.8678  6.754E+06  6.936E+06
     1.8693  6.545E+06  6.849E+06
     1.8715  6.392E+06  6.842E+06
     1.8718  7.235E+06  6.849E+06
     1.8734  7.707E+06  6.903E+06
     1.8764  8.745E+06  7.048E+06
ENDDATA            296
ENDSUBENT          309
SUBENT        C2007007   20130429   20131120   20130927       C132
BIB                  2          2
REACTION   (8-O-17(A,N)10-NE-20,,SGV)
STATUS     (TABLE) Data taken from tab. 3  of the reference
ENDBIB               2
NOCOMMON             0          0
DATA                 2         35
KT-K       DATA
K9         CM3/S/MOL
        0.1   9.96E-22
       0.11   1.44E-20
       0.12   1.54E-19
       0.13   1.28E-18
       0.14   8.76E-18
       0.15   5.03E-17
       0.16   2.49E-16
       0.17   1.09E-15
       0.18   4.35E-15
        0.2   5.64E-14
       0.25   2.66E-11
        0.3    4.37E-9
       0.35    1.89E-7
        0.4    3.28E-6
       0.45    3.06E-5
        0.5    1.86E-4
        0.6    3.06E-3
        0.7    2.67E-2
        0.8    1.67E-1
        0.9    8.53E-1
        1.0    3.63E+0
       1.25    6.65E+1
        1.5    5.41E+2
       1.75    2.52E+3
        2.0    8.10E+3
        2.5    4.10E+4
        3.0    1.18E+5
        3.5    2.47E+5
        4.0    4.22E+5
        5.0    8.54E+5
        6.0    1.30E+6
        7.0    1.72E+6
        8.0    2.05E+6
        9.0    2.32E+6
       10.0    2.51E+6
ENDDATA             37
ENDSUBENT           44
SUBENT        C2007008   20130429   20131120   20130927       C132
BIB                  2          2
REACTION   (8-O-17(A,G)10-NE-21,,SGV)
STATUS     (TABLE) Data taken from tab. 3  of the reference
ENDBIB               2
NOCOMMON             0          0
DATA                 2         35
KT-K       DATA
K9         CM3/S/MOL
        0.1   9.52E-38
       0.11   4.24E-34
       0.12   4.61E-31
       0.13   1.69E-28
       0.14   2.65E-26
       0.15   2.10E-24
       0.16   9.58E-23
       0.17   2.77E-21
       0.18   5.49E-20
        0.2   8.69E-18
       0.25   7.52E-14
        0.3   3.01E-11
       0.35    2.10E-9
        0.4    4.94E-8
       0.45    5.63E-7
        0.5    3.88E-6
        0.6    6.79E-5
        0.7    5.07E-4
        0.8    2.24E-3
        0.9    7.06E-3
        1.0    1.75E-2
       1.25    9.22E-2
        1.5    2.89E-1
       1.75    6.77E-1
        2.0    1.30E+0
        2.5    3.34E+0
        3.0    6.19E+0
        3.5    9.47E+0
        4.0    1.27E+1
        5.0    1.86E+1
        6.0    2.28E+1
        7.0    2.56E+1
        8.0    2.72E+1
        9.0    2.79E+1
       10.0    2.81E+1
ENDDATA             37
ENDSUBENT           44
ENDENTRY             8
