ENTRY            D0554   20090102   20090416   20090407       D065
SUBENT        D0554001   20090102   20090416   20090407       D065
BIB                 11         14
TITLE      Differential cross-section and analyzing-power data of
           Si(p,p)Si in the lab. energy range Ep=1.690 to 3.676
           MeV
AUTHOR     (B.Becker,M.Haendel,A.Imig,L.Sydow,H.Paetz gen.Schieck)
INSTITUTE  (2GERKLN) Institut fuer Kernphysik
REFERENCE  (W,BECKER,20081206) Internal report
FACILITY   (VDGT,2GERKLN) FN tandem Van de Graaff
EXP-YEAR   (1994)
INC-SOURCE (POLIS) LASCO polarized-ion source
SAMPLE     Natural, thin wafers of checmically pure
CORRECTION Dead time correction
STATUS     (TABLE) Taken from www.ikp.uni-koeln.de
                   (Also tabulated in the appendix of the report)
HISTORY    (20090102C) On.
ENDBIB              14
COMMON               1          3
POL-BM
NO-DIM
0.75
ENDCOMMON            3
ENDSUBENT           21
SUBENT        D0554002   20090112   20090416   20090407       D065
BIB                  3          3
REACTION   (14-SI-0(P,EL)14-SI-0,,DA)
COMMENT    No data at 115, 125, 135 and 145 deg at 2.401 MeV
ERR-ANALYS (ERR-S) Uncertainty in counting statistics
ENDBIB               3
NOCOMMON             0          0
DATA                 4       1043
EN         ANG        DATA       ERR-S
MEV        ADEG       MB/SR      MB/SR
1.690       60.       1856.2000  220.2280
1.690       65.       1413.2100  167.6880
1.690       70.       1204.2900  114.0400
1.690       75.        936.8710   88.7194
1.690       80.        727.4670   68.8924
1.690       85.        565.4510   53.5523
1.690       90.        425.8230   40.3319
1.690       95.        331.0570   31.3592
1.690      100.        257.0570   24.3527
1.690      105.        203.2630   19.2594
1.690      115.        150.8740   17.9018
1.690      120.        145.3180   17.2428
1.690      125.        145.7560   17.2947
1.690      130.        150.3560   17.8403
1.690      135.        160.2350   19.0121
1.690      140.        170.9630   20.2845
1.690      145.        184.5220   21.8926
1.700       60.       1882.8200  223.3860
1.700       65.       1410.1400  167.3240
1.700       70.       1159.4600  109.7950
1.700       75.        895.8630   84.8366
1.700       80.        694.3790   65.7595
1.700       85.        537.7680   50.9311
1.700       90.        411.6800   38.9928
1.700       95.        320.8800   30.3957
1.700      100.        253.9290   24.0566
1.700      105.        207.4290   19.6538
1.700      115.        157.8880   18.7337
1.700      120.        153.8450   18.2542
1.700      125.        152.5590   18.1017
1.700      130.        156.4820   18.5669
1.700      135.        162.1390   19.2379
1.700      140.        170.7690   20.2615
1.700      145.        180.1800   21.3777
1.710       60.       1826.3700  216.6910
1.710       65.       1355.2100  160.8090
1.710       70.       1107.9700  104.9200
1.710       75.        854.0110   80.8739
1.710       80.        660.0320   62.5075
1.710       85.        513.3150   48.6159
1.710       90.        395.3990   37.4512
1.710       95.        314.7530   29.8155
1.710      100.        253.3190   23.9988
1.710      105.        207.8000   19.6890
1.710      115.        163.2600   19.3708
1.710      120.        157.1210   18.6427
1.710      125.        155.6490   18.4681
1.710      130.        156.6070   18.5818
1.710      135.        160.1660   19.0039
1.710      140.        166.8940   19.8019
1.710      145.        174.6240   20.7187
1.720       60.       1747.2100  207.3020
1.720       65.       1309.3900  155.3740
1.720       70.       1077.7300  102.0560
1.720       75.        828.9530   78.5014
1.720       80.        638.1270   60.4334
1.720       85.        498.6220   47.2247
1.720       90.        387.2190   36.6767
1.720       95.        311.8860   29.5440
1.720      100.        253.1160   23.9796
1.720      105.        211.0680   19.9983
1.720      115.        165.4740   19.6334
1.720      120.        158.2330   18.7746
1.720      125.        155.6800   18.4717
1.720      130.        153.8100   18.2500
1.720      135.        157.2020   18.6524
1.720      140.        160.5110   19.0448
1.720      145.        165.7200   19.6626
1.801       60.       1483.4200  176.0150
1.801       65.       1083.7400  128.6110
1.801       70.        884.5490   83.7653
1.801       75.        689.5810   65.3052
1.801       80.        537.9790   50.9511
1.801       85.        432.7770   40.9903
1.801       90.        347.6260   32.9279
1.801       95.        287.6610   27.2504
1.801      100.        239.3710   22.6782
1.801      105.        205.1470   19.4377
1.801      115.        159.8270   18.9637
1.801      120.        149.7520   17.7687
1.801      125.        142.2080   16.8739
1.801      130.        135.3750   16.0635
1.801      135.        131.9880   15.6619
1.801      140.        129.1210   15.3217
1.801      145.        127.7410   15.1581
1.899       60.       1319.0600  156.5200
1.899       65.        958.1670  113.7170
1.899       70.        768.9910   72.8240
1.899       75.        598.1230   56.6457
1.899       80.        470.9040   44.6003
1.899       85.        376.5710   35.6685
1.899       90.        304.5660   28.8510
1.899       95.        254.1610   24.0785
1.899      100.        212.6720   20.1502
1.899      105.        184.4420   17.4773
1.899      115.        145.2430   17.2339
1.899      120.        135.1340   16.0349
1.899      125.        125.3180   14.8707
1.899      130.        118.6280   14.0773
1.899      135.        114.9020   13.6353
1.899      140.        110.3640   13.0971
1.899      145.        108.1810   12.8381
2.000       65.        867.5850  102.9730
2.000       70.        687.0010   65.0610
2.000       75.        536.6880   50.8289
2.000       80.        418.9160   39.6779
2.000       85.        338.2610   32.0413
2.000       90.        272.2540   25.7915
2.000       95.        227.8950   21.5916
2.000      100.        190.6480   18.0650
2.000      105.        162.7400   15.4228
2.000      115.        124.9280   14.8245
2.000      120.        114.7910   13.6221
2.000      125.        105.8560   12.5624
2.000      130.         97.8689   11.6151
2.000      135.         93.3834   11.0831
2.000      140.         89.9848   10.6800
2.000      145.         87.5599   10.3924
2.053       60.       1139.8900  135.2700
2.053       65.        825.4180   97.9715
2.053       70.        635.7650   60.2097
2.053       75.        483.6620   45.8082
2.053       80.        378.3080   35.8330
2.053       85.        298.8910   28.3136
2.053       90.        235.3370   22.2961
2.053       95.        194.7420   18.4526
2.053      100.        159.8560   15.1495
2.053      105.        134.3040   12.7305
2.053      115.        100.6610   11.9462
2.053      120.         90.0459   10.6872
2.053      125.         81.8615    9.7164
2.053      130.         76.0457    9.0268
2.053      135.         71.6043    8.5000
2.053      140.         67.4785    8.0107
2.053      145.         65.0711    7.7251
2.060       55.       1516.9000  179.9850
2.060       60.       1139.1700  135.1840
2.060       65.        822.8320   97.6646
2.060       70.        632.2210   59.8742
2.060       75.        483.7460   45.8161
2.060       80.        370.7680   35.1191
2.060       85.        290.9680   27.5634
2.060       90.        230.3440   21.8234
2.060       95.        185.0170   17.5318
2.060      100.        150.0740   14.2233
2.060      105.        125.5510   11.9014
2.060      110.        102.6340   12.1802
2.060      115.         89.1414   10.5800
2.060      120.         79.4198    9.4269
2.060      125.         72.8602    8.6489
2.060      130.         68.0631    8.0800
2.060      135.         63.6290    7.5540
2.060      140.         60.4730    7.1797
2.060      145.         58.8351    6.9854
2.071       55.       1505.9200  178.6840
2.071       60.       1146.7400  136.0820
2.071       65.        827.3800   98.2040
2.071       70.        631.3800   59.8153
2.071       75.        477.5380   45.2490
2.071       80.        363.6990   34.4704
2.071       85.        281.9890   26.7339
2.071       90.        219.0130   20.7712
2.071       95.        173.9250   16.5021
2.071      100.        141.5090   13.4329
2.071      105.        116.4360   11.0589
2.071      110.         93.5076   11.1050
2.071      115.         80.8668    9.6061
2.071      120.         71.6880    8.5170
2.071      125.         64.5195    7.6672
2.071      130.         60.4940    7.1893
2.071      135.         57.7270    6.8616
2.071      140.         56.5817    6.7253
2.071      145.         55.2228    6.5643
2.080       55.       1530.9800  181.6550
2.080       60.       1126.4900  133.6800
2.080       65.        789.6460   93.7285
2.080       70.        582.4980   55.1869
2.080       75.        429.8520   40.7340
2.080       80.        317.8020   30.1248
2.080       85.        238.7250   22.6375
2.080       90.        179.8680   17.0648
2.080       95.        138.6600   13.1631
2.080      100.        108.7640   10.3324
2.080      105.         87.4699    8.3162
2.080      110.         65.1707    7.7441
2.080      115.         57.1930    6.7978
2.080      120.         51.6707    6.1428
2.080      125.         47.8744    5.6926
2.080      130.         45.5572    5.4177
2.080      135.         44.9911    5.3506
2.080      140.         44.1333    5.2489
2.080      145.         45.6174    5.4249
2.090       55.       1360.1100  161.3890
2.090       60.        941.9250  111.7900
2.090       65.        620.5440   73.6720
2.090       70.        463.7810   43.9464
2.090       75.        322.2900   30.5497
2.090       80.        225.3810   21.3741
2.090       85.        162.4430   15.4149
2.090       90.        119.8830   11.3852
2.090       95.         93.0643    8.8460
2.090      100.         75.2079    7.1553
2.090      105.         66.5281    6.3334
2.090      110.         58.1688    6.9136
2.090      115.         60.8366    7.2300
2.090      120.         63.0266    7.4897
2.090      125.         68.4699    8.1353
2.090      130.         71.1887    8.4578
2.090      135.         77.1072    9.1597
2.090      140.         79.8021    9.4794
2.090      145.         85.6884   10.1775
2.101       55.        976.3920  115.8780
2.101       60.        671.8430   79.7563
2.101       65.        442.8730   52.5992
2.101       70.        348.5500   33.0361
2.101       75.        262.7590   24.9131
2.101       80.        209.6530   19.8849
2.101       85.        179.5350   17.0333
2.101       90.        159.5190   15.1381
2.101       95.        153.5350   14.5715
2.101      100.        149.8110   14.2189
2.101      105.        149.6230   14.2011
2.101      110.        178.4410   21.1786
2.101      115.        184.2840   21.8716
2.101      120.        191.4860   22.7258
2.101      125.        197.0590   23.3867
2.101      130.        201.1880   23.8765
2.101      135.        205.5530   24.3942
2.101      140.        210.7120   25.0060
2.101      145.        211.7190   25.1256
2.110       55.       1016.5400  120.6400
2.110       60.        766.8750   91.0277
2.110       65.        573.4920   68.0913
2.110       70.        434.7770   41.2003
2.110       75.        360.4760   34.1652
2.110       80.        303.6310   28.7831
2.110       85.        271.8800   25.7767
2.110       90.        247.1770   23.4379
2.110       95.        232.7860   22.0752
2.110      100.        221.8240   21.0373
2.110      105.        213.1350   20.2146
2.110      110.        216.1240   25.6480
2.110      115.        212.1900   25.1815
2.110      120.        210.4420   24.9741
2.110      125.        205.8220   24.4261
2.110      130.        204.6650   24.2889
2.110      135.        201.3090   23.8909
2.110      140.        198.6130   23.5711
2.110      145.        198.9810   23.6147
2.130       45.       2710.4900  321.5530
2.130       50.       1727.4000  204.9530
2.130       55.       1214.8700  144.1630
2.130       60.        924.9950  109.7820
2.130       65.        693.0850   82.2758
2.130       70.        550.9250   52.1975
2.130       75.        456.2020   43.2289
2.130       80.        380.0120   36.0150
2.130       85.        327.2750   31.0217
2.130       90.        281.9680   26.7319
2.130       95.        250.0220   23.7072
2.130      100.        226.6280   21.4922
2.130      105.        206.9450   19.6285
2.130      110.        184.4960   21.8968
2.130      115.        173.6600   20.6115
2.130      120.        165.5120   19.6450
2.130      125.        157.0000   18.6355
2.130      130.        150.3870   17.8512
2.130      135.        145.4900   17.2704
2.130      140.        141.1020   16.7499
2.130      145.        136.7320   16.2316
2.151       45.       2730.8600  323.9690
2.151       50.       1764.8600  209.3960
2.151       55.       1254.0500  148.8100
2.151       60.        957.1100  113.5910
2.151       65.        724.5360   86.0061
2.151       70.        572.8830   54.2766
2.151       75.        461.3550   43.7168
2.151       80.        379.8120   35.9961
2.151       85.        320.3570   30.3667
2.151       90.        271.7490   25.7644
2.151       95.        235.5230   22.3345
2.151      100.        205.8260   19.5226
2.151      105.        183.8610   17.4429
2.151      110.        166.7550   19.7925
2.151      115.        152.8450   18.1427
2.151      120.        145.5350   17.2757
2.151      125.        136.2540   16.1749
2.151      130.        128.8500   15.2967
2.151      135.        123.7260   14.6890
2.151      140.        119.7350   14.2157
2.151      145.        115.5490   13.7192
2.201       45.       2647.8500  314.1230
2.201       50.       1718.8100  203.9340
2.201       55.       1210.2600  143.6160
2.201       60.        930.1710  110.3960
2.201       65.        689.0970   81.8028
2.201       70.        554.7610   52.5607
2.201       75.        441.0510   41.7944
2.201       80.        360.3530   34.1536
2.201       85.        300.8040   28.5154
2.201       90.        255.4400   24.2202
2.201       95.        217.6860   20.6456
2.201      100.        189.0840   17.9374
2.201      105.        166.7730   15.8249
2.201      110.        147.7890   17.5431
2.201      115.        135.2360   16.0542
2.201      120.        126.8380   15.0581
2.201      125.        116.7100   13.8568
2.201      130.        110.5750   13.1292
2.201      135.        104.1650   12.3690
2.201      140.        101.2720   12.0258
2.201      145.         98.0897   11.6484
2.300       45.       2432.8800  288.6260
2.300       50.       1567.7000  186.0110
2.300       55.       1123.0200  133.2680
2.300       60.        852.8380  101.2230
2.300       65.        638.8550   75.8437
2.300       70.        505.1120   47.8598
2.300       75.        402.9650   38.1882
2.300       80.        330.4720   31.3245
2.300       85.        276.9090   26.2529
2.300       90.        231.1790   21.9231
2.300       95.        195.8890   18.5817
2.300      100.        153.5640   14.5743
2.300      105.        151.0920   14.3402
2.300      110.        134.1090   15.9206
2.300      115.        121.9000   14.4725
2.300      120.        111.9590   13.2933
2.300      125.        102.0360   12.1164
2.300      130.         94.6198   11.2368
2.300      135.         89.6515   10.6476
2.300      140.         86.9324   10.3251
2.300      145.         81.6600    9.6997
2.401       45.       2236.9500  265.3870
2.401       50.       1457.5500  172.9460
2.401       55.       1057.7300  125.5250
2.401       60.        813.5530   96.5641
2.401       65.        607.9080   72.1733
2.401       70.        485.3450   45.9882
2.401       75.        387.9780   36.7693
2.401       80.        317.4350   30.0901
2.401       85.        260.5810   24.7070
2.401       90.        219.9820   20.8629
2.401       95.        187.9130   17.8265
2.401      100.        158.7260   15.0630
2.401      105.        138.0450   13.1049
2.401      110.        122.2100   14.5093
2.401      120.        100.2670   11.9066
2.401      130.         84.5157   10.0384
2.401      140.         75.8397    9.0094
2.499       45.       1991.9600  236.3300
2.499       50.       1291.8300  153.2910
2.499       55.        924.9560  109.7770
2.499       60.        727.6410   86.3744
2.499       65.        551.0650   65.4314
2.499       70.        438.8970   41.5904
2.499       75.        358.7600   34.0028
2.499       80.        297.2480   28.1787
2.499       85.        248.0760   23.5230
2.499       90.        208.2730   19.7543
2.499       95.        177.1350   16.8061
2.499      100.        151.5730   14.3857
2.499      105.        133.9290   12.7152
2.499      110.        115.3360   13.6939
2.499      115.        104.6190   12.4228
2.499      120.         93.6741   11.1247
2.499      125.         85.2090   10.1207
2.499      130.         77.5308    9.2100
2.499      135.         69.6399    8.2741
2.499      140.         63.7289    7.5730
2.499      145.         59.9597    7.1259
2.606       45.       1813.0200  215.1070
2.606       50.       1160.6300  137.7300
2.606       55.        856.3170  101.6360
2.606       60.        673.6910   79.9755
2.606       65.        518.7480   61.5984
2.606       70.        415.3100   39.3572
2.606       75.        342.5550   32.4685
2.606       80.        284.6820   26.9889
2.606       85.        237.8150   22.5514
2.606       90.        204.1100   19.3601
2.606       95.        173.8140   16.4916
2.606      100.        150.2460   14.2601
2.606      105.        128.0200   12.1556
2.606      110.        115.3690   13.6978
2.606      115.        101.0790   12.0029
2.606      120.         89.7969   10.6648
2.606      125.         79.5705    9.4519
2.606      130.         71.3351    8.4751
2.606      135.         63.6399    7.5624
2.606      140.         57.6691    6.8543
2.606      145.         52.6730    6.2617
2.700       45.       1607.0800  190.6820
2.700       50.       1051.9200  124.8370
2.700       55.        784.7390   93.1466
2.700       60.        630.5030   74.8532
2.700       65.        497.3510   59.0606
2.700       70.        399.6430   37.8738
2.700       75.        329.5770   31.2397
2.700       80.        283.1910   26.8477
2.700       85.        238.1890   22.5868
2.700       90.        203.6940   19.3207
2.700       95.        177.6120   16.8512
2.700      100.        149.5800   14.1970
2.700      105.        129.3640   12.2829
2.700      110.        114.1690   13.5555
2.700      115.         97.6321   11.5941
2.700      120.         85.5124   10.1566
2.700      125.         72.6257    8.6282
2.700      130.         62.3073    7.4044
2.700      135.         54.0810    6.4287
2.700      140.         45.7730    5.4433
2.700      145.         38.7829    4.6142
2.806       45.       1384.7200  164.3080
2.806       50.        959.4880  113.8730
2.806       55.        750.7020   89.1096
2.806       60.        621.8320   73.8247
2.806       65.        510.7090   60.6449
2.806       70.        410.1710   38.8706
2.806       75.        358.6780   33.9950
2.806       80.        294.7970   27.9467
2.806       85.        256.1360   24.2861
2.806       90.        211.3780   20.0483
2.806       95.        183.2400   17.3841
2.806      100.        151.6930   14.3971
2.806      105.        131.0770   12.4451
2.806      110.        111.4720   13.2356
2.806      115.         93.6860   11.1261
2.806      120.         78.7483    9.3544
2.806      125.         66.6841    7.9235
2.806      130.         55.2256    6.5644
2.806      135.         45.5336    5.4149
2.806      140.         37.8960    4.5091
2.806      145.         30.8557    3.6740
2.901       45.       1416.5500  168.0830
2.901       50.       1052.0600  124.8520
2.901       55.        827.0590   98.1659
2.901       60.        680.4770   80.7804
2.901       65.        551.2350   65.4516
2.901       70.        441.6880   41.8547
2.901       75.        373.4360   35.3924
2.901       80.        307.9880   29.1956
2.901       85.        255.7240   24.2471
2.901       90.        212.6380   20.1676
2.901       95.        175.0790   16.6114
2.901      100.        145.2380   13.7859
2.901      105.        120.5480   11.4482
2.901      110.        100.9130   11.9832
2.901      115.         84.7117   10.0617
2.901      120.         70.7511    8.4059
2.901      125.         60.2621    7.1618
2.901      130.         51.5259    6.1256
2.901      135.         45.4271    5.4023
2.901      140.         40.7618    4.8490
2.901      145.         36.9527    4.3972
2.999       45.       1466.1100  173.9620
2.999       50.       1089.2100  129.2590
2.999       55.        849.5660  100.8350
2.999       60.        688.5530   81.7383
2.999       65.        549.9780   65.3025
2.999       70.        444.6030   42.1307
2.999       75.        362.5920   34.3657
2.999       80.        292.3250   27.7126
2.999       85.        235.5260   22.3347
2.999       90.        190.4130   18.0633
2.999       95.        153.9930   14.6149
2.999      100.        124.3140   11.8048
2.999      105.        102.9800    9.7848
2.999      110.         84.2265   10.0042
2.999      115.         72.0040    8.5545
2.999      120.         67.7956    8.0553
2.999      125.         58.0898    6.9041
2.999      130.         52.1612    6.2010
2.999      135.         52.6089    6.2541
2.999      140.         51.1414    6.0800
2.999      145.         52.4406    6.2341
3.050       45.       1505.0300  178.5780
3.050       50.       1119.0500  132.7980
3.050       55.        863.6750  102.5090
3.050       60.        685.6540   81.3944
3.050       65.        541.2220   64.2639
3.050       70.        428.0070   40.5593
3.050       75.        345.3470   32.7328
3.050       80.        277.4740   26.3064
3.050       85.        220.3570   20.8984
3.050       90.        176.4080   16.7372
3.050       95.        142.0240   13.4816
3.050      100.        115.1690   10.9389
3.050      105.         93.8253    8.9180
3.050      110.         79.3833    9.4297
3.050      115.         66.7804    7.9349
3.050      120.         60.4134    7.1797
3.050      125.         55.9501    6.6504
3.050      130.         54.1607    6.4381
3.050      135.         54.1444    6.4362
3.050      140.         56.0463    6.6618
3.050      145.         58.4565    6.9476
3.070       45.       1505.6100  178.6470
3.070       50.       1074.9300  127.5650
3.070       55.        859.5490  102.0190
3.070       60.        679.4680   80.6607
3.070       65.        529.9860   62.9313
3.070       70.        417.0960   39.5262
3.070       75.        331.8810   31.4579
3.070       80.        267.1260   25.3267
3.070       85.        211.9470   20.1021
3.070       90.        170.0860   16.1386
3.070       95.        137.8350   13.0850
3.070      100.        113.1420   10.7469
3.070      105.         93.1123    8.8505
3.070      110.         78.0067    9.2664
3.070      115.         66.6234    7.9163
3.070      120.         59.6791    7.0926
3.070      125.         54.1782    6.4402
3.070      130.         51.7049    6.1469
3.070      135.         52.6888    6.2636
3.070      140.         55.4103    6.5863
3.070      145.         58.9113    7.0016
3.080       45.       1499.0700  177.8710
3.080       50.       1059.9900  125.7930
3.080       55.        844.8170  100.2720
3.080       60.        667.7250   79.2680
3.080       65.        527.3640   62.6202
3.080       70.        412.4970   39.0908
3.080       75.        334.9170   31.7453
3.080       80.        265.0160   25.1268
3.080       85.        214.1930   20.3148
3.080       90.        170.3450   16.1631
3.080       95.        139.1760   13.2120
3.080      100.        113.1900   10.7515
3.080      105.         93.2747    8.8659
3.080      110.         78.8071    9.3614
3.080      115.         66.4742    7.8986
3.080      120.         58.4271    6.9442
3.080      125.         53.8877    6.4057
3.080      130.         51.5975    6.1341
3.080      135.         52.3398    6.2222
3.080      140.         54.9287    6.5292
3.080      145.         59.6954    7.0946
3.090       70.        300.6330   28.4992
3.090      100.         83.0650    7.8996
3.090      105.         71.7226    6.8255
3.090      110.         80.7251    9.5889
3.090      115.         67.4478    8.0141
3.090      120.         58.2894    6.9278
3.090      125.         52.1841    6.2037
3.090      130.         49.1541    5.8443
3.090      135.         50.1961    5.9679
3.090      140.         54.5173    6.4804
3.090      145.         61.4256    7.2998
3.102       45.       1451.8400  172.2690
3.102       50.       1014.5700  120.4060
3.102       55.        754.3320   89.5403
3.102       60.        585.2630   69.4875
3.102       65.        454.1350   53.9348
3.102       70.        360.6510   34.1819
3.102       75.        296.5330   28.1110
3.102       80.        245.0330   23.2348
3.102       85.        208.9660   19.8199
3.102       90.        176.7190   16.7667
3.102       95.        151.3270   14.3625
3.102      100.        124.4320   11.8160
3.102      105.        101.6580    9.6596
3.102      110.         81.9254    9.7312
3.102      115.         63.7697    7.5778
3.102      120.         51.8350    6.1623
3.102      125.         43.5261    5.1768
3.102      130.         41.5269    4.9397
3.102      135.         46.8872    5.5755
3.102      140.         56.5568    6.7223
3.102      145.         72.6270    8.6284
3.115       45.       1476.1500  175.1530
3.115       50.       1056.8000  125.4150
3.115       55.        827.2670   98.1908
3.115       60.        648.7860   77.0218
3.115       65.        515.2820   61.1873
3.115       70.        394.0860   37.3476
3.115       75.        314.4780   29.8101
3.115       80.        247.2200   23.4419
3.115       85.        193.5000   18.3555
3.115       90.        148.4620   14.0912
3.115       95.        110.8720   10.5321
3.115      100.         84.3306    8.0190
3.115      105.         64.7558    6.1656
3.115      110.         48.1426    5.7244
3.115      115.         43.3776    5.1592
3.115      120.         44.0674    5.2410
3.115      125.         48.9497    5.8201
3.115      130.         57.1308    6.7904
3.115      135.         67.0406    7.9658
3.115      140.         78.6777    9.3460
3.115      145.         90.4002   10.7364
3.121       40.       2153.7200  255.5170
3.121       45.       1496.5400  177.5710
3.121       60.        686.4180   81.4851
3.121       65.        542.8490   64.4570
3.121       70.        416.4490   39.4650
3.121       75.        326.5100   30.9493
3.121       80.        249.6840   23.6752
3.121       85.        188.3520   17.8681
3.121       90.        140.5300   13.3402
3.121       95.        103.7650    9.8592
3.121      100.         76.2357    7.2526
3.121      105.         59.8722    5.7032
3.121      110.         49.2696    5.8580
3.121      115.         46.2991    5.5057
3.121      120.         48.4789    5.7643
3.121      125.         53.4592    6.3549
3.121      130.         58.5965    6.9643
3.121      135.         66.9917    7.9600
3.121      140.         74.2706    8.8233
3.121      145.         81.2558    9.6518
3.150       40.       2106.9300  249.9670
3.150       45.       1508.5400  178.9940
3.150       60.        679.2060   80.6296
3.150       65.        529.0540   62.8207
3.150       70.        404.2820   38.3130
3.150       75.        315.6380   29.9199
3.150       80.        240.3820   22.7945
3.150       85.        181.9520   17.2621
3.150       90.        138.6560   13.1627
3.150       95.        104.0490    9.8860
3.150      100.         81.6965    7.7696
3.150      105.         66.3507    6.3166
3.150      110.         56.8072    6.7520
3.150      115.         53.3035    6.3365
3.150      120.         52.1602    6.2009
3.150      125.         54.7555    6.5087
3.150      130.         56.8481    6.7569
3.150      135.         62.9877    7.4851
3.150      140.         65.6779    7.8042
3.150      145.         69.4344    8.2497
3.200       40.       1959.9600  232.5350
3.200       45.       1426.9600  169.3190
3.200       60.        622.3770   73.8894
3.200       65.        483.6580   57.4364
3.200       70.        368.5970   34.9342
3.200       75.        288.0310   27.3060
3.200       80.        220.3050   20.8934
3.200       85.        166.1110   15.7622
3.200       90.        127.1220   12.0706
3.200       95.         96.6540    9.1859
3.200      100.         75.6352    7.1957
3.200      105.         62.1816    5.9219
3.200      110.         52.7727    6.2736
3.200      115.         48.6182    5.7808
3.200      120.         47.7196    5.6742
3.200      125.         49.5388    5.8899
3.200      130.         52.7845    6.2749
3.200      135.         56.4973    6.7153
3.200      140.         61.0468    7.2549
3.200      145.         64.9045    7.7124
3.250       40.       2018.0100  239.4200
3.250       45.       1428.6000  169.5130
3.250       60.        621.3680   73.7697
3.250       65.        472.3370   56.0937
3.250       70.        362.7360   34.3793
3.250       75.        280.8800   26.6289
3.250       80.        213.9940   20.2959
3.250       85.        163.2480   15.4912
3.250       90.        123.3590   11.7143
3.250       95.         96.8496    9.2044
3.250      100.         74.3267    7.0718
3.250      105.         61.9604    5.9009
3.250      110.         54.0576    6.4259
3.250      115.         50.7748    6.0366
3.250      120.         49.7368    5.9134
3.250      125.         51.6754    6.1434
3.250      130.         53.5911    6.3706
3.250      135.         58.7343    6.9806
3.250      140.         63.0080    7.4875
3.250      145.         68.2016    8.1035
3.300       40.       1988.3100  235.8980
3.300       45.       1403.0700  166.4840
3.300       60.        611.1760   72.5609
3.300       65.        468.0530   55.5856
3.300       70.        347.2750   32.9154
3.300       75.        263.5390   24.9870
3.300       80.        199.9240   18.9637
3.300       85.        150.1690   14.2528
3.300       90.        110.5180   10.4985
3.300       95.         85.3317    8.1138
3.300      100.         64.8465    6.1742
3.300      105.         53.8549    5.1335
3.300      110.         46.8843    5.5751
3.300      115.         43.7962    5.2089
3.300      120.         45.3229    5.3899
3.300      125.         47.3666    5.6323
3.300      130.         52.2416    6.2105
3.300      135.         57.1145    6.7885
3.300      140.         63.0340    7.4906
3.300      145.         69.7405    8.2860
3.310       40.       1961.1300  232.6740
3.310       45.       1395.6600  165.6060
3.310       60.        611.9510   72.6528
3.310       70.        350.6330   33.2161
3.310       75.        265.5850   25.1636
3.310       80.        198.3820   18.8006
3.310       85.        147.0190   13.9374
3.310       90.        109.2910   10.3652
3.310       95.         82.8250    7.8593
3.310      100.         63.5065    6.0302
3.310      105.         52.0294    4.9435
3.310      110.         44.0699    5.2413
3.310      115.         41.4152    4.9265
3.310      120.         43.0929    5.1254
3.310      125.         47.4030    5.6366
3.310      130.         51.4661    6.1185
3.310      135.         57.7142    6.8596
3.310      140.         63.3475    7.5277
3.310      145.         68.5582    8.1458
3.320       40.       1951.4300  231.5230
3.320       45.       1403.8100  166.5720
3.320       60.        618.5650   73.4373
3.320       65.        472.4540   56.1076
3.320       70.        346.7900   32.8523
3.320       75.        259.7000   24.6064
3.320       80.        192.0570   18.2017
3.320       85.        140.7760   13.3462
3.320       90.        102.7910    9.7497
3.320       95.         75.7691    7.1912
3.320      100.         56.9981    5.4139
3.320      105.         45.3724    4.3132
3.320      110.         39.4933    4.6985
3.320      115.         40.1300    4.7741
3.320      120.         40.8896    4.8641
3.320      125.         45.6148    5.4245
3.320      130.         51.7244    6.1492
3.320      135.         59.1822    7.0337
3.320      140.         66.3105    7.8792
3.320      145.         74.5077    8.8514
3.330       35.       2889.3500  342.7670
3.330       40.       1936.3100  229.7300
3.330       45.       1400.1600  166.1400
3.330       50.       1067.0300  126.6280
3.330       55.        799.6320   94.9129
3.330       60.        598.9060   71.1056
3.330       65.        462.7230   54.9531
3.330       70.        326.4720   30.9250
3.330       75.        244.8350   23.1954
3.330       80.        176.5250   16.7277
3.330       85.        125.1920   11.8673
3.330       90.         87.8421    8.3309
3.330       95.         62.4703    5.9286
3.330      100.         45.3142    4.3042
3.330      105.         35.3876    3.3644
3.330      110.         31.3640    3.7344
3.330      115.         33.3416    3.9689
3.330      120.         38.2461    4.5506
3.330      125.         44.6797    5.3136
3.330      130.         52.8973    6.2883
3.330      135.         62.6769    7.4482
3.330      140.         71.5111    8.4960
3.330      145.         80.8919    9.6086
3.340       35.       2962.7000  351.4660
3.340       40.       2088.0200  247.7240
3.340       45.       1542.6300  183.0380
3.340       50.       1157.5100  137.3600
3.340       55.        862.6220  102.3840
3.340       60.        627.9850   74.5546
3.340       65.        440.5370   52.3221
3.340       70.        304.7800   28.8712
3.340       75.        207.9210   19.7003
3.340       80.        136.7150   12.9583
3.340       85.         87.6037    8.3083
3.340       90.         56.0122    5.3172
3.340       95.         37.2425    3.5400
3.340      100.         29.3006    2.7880
3.340      105.         28.5076    2.7129
3.340      110.         33.1925    3.9513
3.340      115.         42.5994    5.0669
3.340      120.         53.0645    6.3081
3.340      125.         64.0575    7.6120
3.340      130.         72.9589    8.6677
3.340      135.         82.7237    9.8259
3.340      140.         90.1747   10.7096
3.340      145.         98.1930   11.6607
3.350       35.       3378.1100  400.7360
3.350       40.       2266.7500  268.9220
3.350       45.       1560.2200  185.1230
3.350       50.       1130.7200  134.1830
3.350       55.        799.2170   94.8638
3.350       60.        564.7580   67.0553
3.350       65.        402.5220   47.8132
3.350       75.        180.9080   17.1426
3.350       80.        137.8270   13.0636
3.350       85.        106.7620   10.1223
3.350       90.         87.1601    8.2663
3.350       95.         77.0828    7.3122
3.350      100.         71.4756    6.7813
3.350      105.         68.5722    6.5064
3.350      110.         77.3389    9.1873
3.350      115.         78.0730    9.2743
3.350      120.         78.6260    9.3399
3.350      125.         75.5863    8.9793
3.350      130.         71.9938    8.5533
3.350      135.         66.4690    7.8980
3.350      140.         62.4526    7.4216
3.350      145.         55.0527    6.5440
3.360       40.       2155.6700  255.7480
3.360       45.       1494.8400  177.3690
3.360       55.        784.6430   93.1352
3.360       60.        582.6050   69.1721
3.360       65.        438.2390   52.0495
3.360       70.        321.1740   30.4234
3.360       75.        246.9850   23.3990
3.360       80.        191.5430   18.1496
3.360       85.        152.5160   14.4544
3.360       90.        124.7260   11.8231
3.360       95.        105.8620   10.0371
3.360      100.         91.6900    8.6952
3.360      105.         81.8766    7.7661
3.360      110.         74.8195    8.8884
3.360      115.         68.9027    8.1867
3.360      120.         65.0636    7.7313
3.360      125.         60.9653    7.2452
3.360      130.         58.7091    6.9776
3.360      135.         56.1829    6.6780
3.360      140.         52.7083    6.2659
3.360      145.         50.5669    6.0119
3.400       40.       2042.4500  242.3190
3.400       45.       1397.9300  165.8750
3.400       55.        741.7440   88.0473
3.400       60.        563.4480   66.9001
3.400       65.        426.1660   50.6176
3.400       70.        328.3200   31.1000
3.400       75.        253.5910   24.0244
3.400       80.        195.3000   18.5054
3.400       85.        151.4100   14.3497
3.400       90.        118.9780   11.2789
3.400       95.         93.6153    8.8775
3.400      100.         77.1169    7.3154
3.400      105.         63.9933    6.0728
3.400      110.         55.6804    6.6184
3.400      115.         51.2318    6.0908
3.400      120.         48.4589    5.7619
3.400      125.         48.1657    5.7271
3.400      130.         48.0878    5.7179
3.400      135.         49.3989    5.8734
3.400      140.         50.4159    5.9940
3.400      145.         53.1390    6.3170
3.475       40.       1885.1000  223.6570
3.475       45.       1290.6100  153.1460
3.475       55.        690.9160   82.0187
3.475       60.        536.2060   63.6691
3.475       65.        408.2700   48.4950
3.475       70.        304.1770   28.8141
3.475       75.        233.7670   22.1475
3.475       80.        178.9860   16.9607
3.475       85.        138.7180   13.1480
3.475       90.        105.9110   10.0417
3.475       95.         83.3685    7.9073
3.475      100.         66.4825    6.3085
3.475      105.         54.6679    5.1899
3.475      110.         46.9892    5.5876
3.475      115.         42.2380    5.0241
3.475      120.         40.5552    4.8245
3.475      125.         39.8513    4.7410
3.475      130.         41.2836    4.9109
3.475      135.         42.8381    5.0952
3.475      140.         45.8674    5.4545
3.475      145.         48.5826    5.7766
3.500       40.       1859.9600  220.6740
3.500       45.       1275.8300  151.3940
3.500       55.        698.3630   82.9019
3.500       60.        530.8850   63.0380
3.500       65.        402.8460   47.8518
3.500       70.        304.0190   28.7991
3.500       75.        232.9230   22.0676
3.500       80.        178.5120   16.9158
3.500       85.        136.2300   12.9124
3.500       90.        103.8340    9.8450
3.500       95.         81.0005    7.6831
3.500      100.         63.1583    5.9938
3.500      105.         51.0697    4.8492
3.500      110.         43.6210    5.1881
3.500      115.         39.2336    4.6677
3.500      120.         37.6874    4.4843
3.500      125.         38.0845    4.5314
3.500      130.         38.8110    4.6176
3.500      135.         42.3631    5.0389
3.500      140.         45.1825    5.3733
3.500      145.         48.5079    5.7677
3.525       35.       2775.0300  329.2080
3.525       40.       1835.0200  217.7160
3.525       45.       1261.5900  149.7040
3.525       50.        912.9400  108.3520
3.525       55.        689.2890   81.8257
3.525       60.        515.8580   61.2557
3.525       65.        396.6650   47.1189
3.525       70.        301.3090   28.5425
3.525       75.        230.1250   21.8026
3.525       80.        174.6950   16.5544
3.525       85.        133.5230   12.6561
3.525       90.        100.4000    9.5199
3.525       95.         77.1353    7.3172
3.525      100.         59.2034    5.6193
3.525      105.         49.9830    4.7464
3.525      110.         40.5535    4.8243
3.525      115.         36.0431    4.2893
3.525      120.         34.5845    4.1163
3.525      125.         34.5122    4.1077
3.525      130.         34.8026    4.1422
3.525      135.         36.7320    4.3710
3.525      140.         39.3927    4.6866
3.525      145.         42.1335    5.0117
3.552       35.       2702.6200  320.6190
3.552       40.       1776.6000  210.7880
3.552       45.       1238.1100  146.9190
3.552       50.        877.3410  104.1300
3.552       55.        666.6500   79.1406
3.552       60.        512.2330   60.8257
3.552       65.        387.4890   46.0303
3.552       70.        290.6620   27.5345
3.552       75.        223.7710   21.2010
3.552       80.        169.6330   16.0750
3.552       85.        127.9350   12.1270
3.552       90.         96.3004    9.1318
3.552       95.         73.8455    7.0057
3.552      100.         56.0487    5.3206
3.552      105.         43.7383    4.1550
3.552      110.         36.1817    4.3057
3.552      115.         31.1727    3.7117
3.552      120.         29.0269    3.4571
3.552      125.         28.9394    3.4467
3.552      130.         29.4985    3.5131
3.552      135.         31.2449    3.7202
3.552      140.         33.5830    3.9975
3.552      145.         36.3988    4.3315
3.575       35.       2602.8800  308.7890
3.575       40.       1717.0100  203.7190
3.575       45.       1201.6600  142.5960
3.575       50.        886.3270  105.1960
3.575       55.        658.4530   78.1683
3.575       60.        513.3980   60.9638
3.575       65.        399.9130   47.5038
3.575       70.        292.6450   27.7222
3.575       75.        219.9400   20.8383
3.575       80.        167.1600   15.8409
3.575       85.        123.7500   11.7307
3.575       90.         91.4970    8.6770
3.575       95.         66.7528    6.3341
3.575      100.         50.0309    4.7509
3.575      105.         38.2682    3.6371
3.575      110.         29.0531    3.4555
3.575      115.         24.8856    2.9612
3.575      120.         22.4814    2.6761
3.575      125.         23.1668    2.7573
3.575      130.         24.5369    2.9199
3.575      135.         27.0989    3.2237
3.575      140.         30.4466    3.6207
3.575      145.         34.1542    4.0605
3.600       35.       2610.2400  309.6620
3.600       40.       1750.8500  207.7340
3.600       45.       1237.9300  146.8980
3.600       50.        901.6040  107.0070
3.600       55.        682.7800   81.0536
3.600       60.        519.3620   61.6711
3.600       65.        395.3830   46.9665
3.600       70.        291.7960   27.6418
3.600       75.        219.9000   20.8345
3.600       80.        161.1820   15.2749
3.600       85.        116.9020   11.0823
3.600       90.         83.9564    7.9630
3.600       95.         59.6616    5.6627
3.600      100.         42.0954    3.9995
3.600      105.         31.1755    2.9656
3.600      110.         24.4539    2.9100
3.600      115.         21.2181    2.5262
3.600      120.         21.2215    2.5266
3.600      125.         23.7277    2.8239
3.600      130.         26.9530    3.2064
3.600      135.         31.2862    3.7203
3.600      140.         35.7552    4.2504
3.600      145.         41.5799    4.9412
3.625       35.       2647.5500  314.0870
3.625       40.       1797.6800  213.2870
3.625       45.       1269.2300  150.6100
3.625       50.        936.0270  111.0900
3.625       55.        695.6920   82.5851
3.625       60.        531.1230   63.0661
3.625       65.        394.9380   46.9137
3.625       70.        289.1750   27.3937
3.625       75.        216.0190   20.4671
3.625       80.        155.9810   14.7824
3.625       85.        111.9630   10.6147
3.625       90.         79.8235    7.5717
3.625       95.         55.5321    5.2717
3.625      100.         39.3604    3.7405
3.625      105.         29.5489    2.8115
3.625      110.         23.3030    2.7735
3.625      115.         21.9254    2.6101
3.625      120.         23.5915    2.8077
3.625      125.         26.3629    3.1364
3.625      130.         31.4456    3.7392
3.625      135.         36.4301    4.3304
3.625      140.         42.9752    5.1067
3.625      145.         48.6760    5.7828
3.650       35.       2687.4400  318.8190
3.650       40.       1807.9900  214.5110
3.650       45.       1276.7100  151.4970
3.650       50.        937.1140  111.2190
3.650       55.        698.2470   82.8881
3.650       60.        523.8830   62.2074
3.650       65.        391.8260   46.5446
3.650       70.        281.6650   26.6787
3.650       75.        207.8530   19.6900
3.650       80.        149.7300   14.1867
3.650       85.        106.7340   10.1157
3.650       90.         74.3760    7.0520
3.650       95.         52.4920    4.9799
3.650      100.         37.0143    3.5145
3.650      105.         26.5225    2.5211
3.650      110.         23.3534    2.7795
3.650      115.         22.0094    2.6201
3.650      120.         24.2336    2.8839
3.650      125.         28.2340    3.3583
3.650      130.         33.2047    3.9479
3.650      135.         40.0034    4.7542
3.650      145.         52.8753    6.2809
3.676       35.       2710.7800  321.5870
3.676       40.       1806.1800  214.2960
3.676       45.       1268.4000  150.5120
3.676       50.        922.8800  109.5310
3.676       55.        678.0780   80.4960
3.676       60.        512.8560   60.8996
3.676       65.        377.5070   44.8463
3.676       70.        190.0090   18.0004
3.676       75.        196.1350   18.5805
3.676       80.        138.9460   13.1656
3.676       85.         97.8761    9.2770
3.676       90.         66.9833    6.3520
3.676       95.         46.6771    4.4293
3.676      100.         32.7707    3.1127
3.676      105.         24.5689    2.3361
3.676      110.         21.0042    2.5009
3.676      115.         21.0873    2.5107
3.676      120.         23.5854    2.8070
3.676      125.         27.5942    3.2825
3.676      130.         32.7909    3.8988
3.676      135.         38.7541    4.6061
3.676      140.         44.8997    5.3350
3.676      145.         51.3135    6.0957
ENDDATA           1045
ENDSUBENT         1053
SUBENT        D0554003   20090112   20090416   20090407       D065
BIB                  2          4
REACTION   (14-SI-0(P,EL)14-SI-0,,POL/DA,,ANA)
ERR-ANALYS (DATA-ERR) Quadrature sum of uncertainty in counting
                      statistics and beam-polarization
                      determination
ENDBIB               4
NOCOMMON             0          0
DATA                 4       1047
EN         ANG        DATA       DATA-ERR
MEV        ADEG       NO-DIM     NO-DIM
1.690       60.        0.2312    0.0066
1.690       65.        0.2180    0.0075
1.690       70.        0.2196    0.0034
1.690       75.        0.1580    0.0037
1.690       80.        0.0994    0.0041
1.690       85.        0.0143    0.0046
1.690       90.       -0.0807    0.0053
1.690       95.       -0.2536    0.0061
1.690      100.       -0.3833    0.0069
1.690      105.       -0.5629    0.0078
1.690      115.       -0.8383    0.0076
1.690      120.       -0.8706    0.0077
1.690      125.       -0.8232    0.0076
1.690      130.       -0.7411    0.0075
1.690      135.       -0.6391    0.0073
1.690      140.       -0.5413    0.0070
1.690      145.       -0.4408    0.0067
1.700       60.        0.1861    0.0065
1.700       65.        0.1552    0.0074
1.700       70.        0.1411    0.0033
1.700       75.        0.0795    0.0037
1.700       80.        0.0098    0.0042
1.700       85.       -0.0888    0.0047
1.700       90.       -0.1930    0.0055
1.700       95.       -0.3357    0.0062
1.700      100.       -0.4639    0.0071
1.700      105.       -0.6124    0.0077
1.700      115.       -0.8067    0.0074
1.700      120.       -0.8008    0.0075
1.700      125.       -0.7594    0.0075
1.700      130.       -0.6767    0.0073
1.700      135.       -0.5840    0.0072
1.700      140.       -0.4971    0.0070
1.700      145.       -0.4046    0.0067
1.710       60.        0.1484    0.0066
1.710       65.        0.1203    0.0076
1.710       70.        0.0876    0.0033
1.710       75.        0.0176    0.0038
1.710       80.       -0.0549    0.0043
1.710       85.       -0.1384    0.0049
1.710       90.       -0.2560    0.0056
1.710       95.       -0.3806    0.0063
1.710      100.       -0.4932    0.0071
1.710      105.       -0.6107    0.0077
1.710      115.       -0.7147    0.0073
1.710      120.       -0.7172    0.0074
1.710      125.       -0.6677    0.0074
1.710      130.       -0.6154    0.0073
1.710      135.       -0.5188    0.0071
1.710      140.       -0.4577    0.0070
1.710      145.       -0.3779    0.0068
1.720       60.        0.1228    0.0067
1.720       65.        0.0943    0.0078
1.720       70.        0.0598    0.0034
1.720       75.       -0.0029    0.0038
1.720       80.       -0.0747    0.0043
1.720       85.       -0.1612    0.0050
1.720       90.       -0.2607    0.0057
1.720       95.       -0.3800    0.0064
1.720      100.       -0.4845    0.0071
1.720      105.       -0.5776    0.0077
1.720      115.       -0.6642    0.0072
1.720      120.       -0.6672    0.0074
1.720      125.       -0.6272    0.0073
1.720      130.       -0.5702    0.0074
1.720      135.       -0.5096    0.0072
1.720      140.       -0.4225    0.0071
1.720      145.       -0.3480    0.0070
1.801       60.        0.0474    0.0073
1.801       65.        0.0212    0.0085
1.801       70.       -0.0259    0.0037
1.801       75.       -0.0728    0.0042
1.801       80.       -0.1208    0.0048
1.801       85.       -0.1759    0.0053
1.801       90.       -0.2412    0.0060
1.801       95.       -0.2954    0.0066
1.801      100.       -0.3229    0.0071
1.801      105.       -0.3910    0.0077
1.801      115.       -0.3997    0.0071
1.801      120.       -0.3976    0.0073
1.801      125.       -0.3726    0.0075
1.801      130.       -0.3246    0.0077
1.801      135.       -0.3011    0.0078
1.801      140.       -0.2874    0.0078
1.801      145.       -0.2399    0.0079
1.899       60.        0.0252    0.0077
1.899       65.       -0.0057    0.0090
1.899       70.       -0.0226    0.0039
1.899       75.       -0.0732    0.0045
1.899       80.       -0.1095    0.0051
1.899       85.       -0.1499    0.0057
1.899       90.       -0.2134    0.0063
1.899       95.       -0.2593    0.0070
1.899      100.       -0.2980    0.0076
1.899      105.       -0.3083    0.0081
1.899      115.       -0.3479    0.0074
1.899      120.       -0.3468    0.0076
1.899      125.       -0.3309    0.0079
1.899      130.       -0.3255    0.0082
1.899      135.       -0.2973    0.0083
1.899      140.       -0.2552    0.0084
1.899      145.       -0.2242    0.0086
2.000       65.       -0.0056    0.0096
2.000       70.       -0.0490    0.0042
2.000       75.       -0.0886    0.0047
2.000       80.       -0.1175    0.0054
2.000       85.       -0.1635    0.0060
2.000       90.       -0.2245    0.0067
2.000       95.       -0.2797    0.0073
2.000      100.       -0.3032    0.0080
2.000      105.       -0.3468    0.0087
2.000      115.       -0.3663    0.0079
2.000      120.       -0.3620    0.0083
2.000      125.       -0.3503    0.0086
2.000      130.       -0.3473    0.0089
2.000      135.       -0.3383    0.0091
2.000      140.       -0.2771    0.0094
2.000      145.       -0.2537    0.0094
2.053       60.        0.0351    0.0083
2.053       65.        0.0131    0.0096
2.053       70.       -0.0250    0.0043
2.053       75.       -0.0600    0.0050
2.053       80.       -0.1275    0.0056
2.053       85.       -0.1606    0.0063
2.053       90.       -0.1999    0.0072
2.053       95.       -0.2552    0.0079
2.053      100.       -0.2900    0.0086
2.053      105.       -0.3444    0.0094
2.053      115.       -0.3870    0.0087
2.053      120.       -0.3771    0.0094
2.053      125.       -0.3702    0.0097
2.053      130.       -0.3579    0.0101
2.053      135.       -0.3215    0.0105
2.053      140.       -0.3078    0.0107
2.053      145.       -0.2461    0.0109
2.060       55.       -0.1133    0.0073
2.060       60.        0.0289    0.0083
2.060       65.        0.0248    0.0098
2.060       70.       -0.0257    0.0044
2.060       75.       -0.0587    0.0050
2.060       80.       -0.0948    0.0057
2.060       85.       -0.1424    0.0064
2.060       90.       -0.1932    0.0072
2.060       95.       -0.2440    0.0081
2.060      100.       -0.3050    0.0090
2.060      105.       -0.3375    0.0098
2.060      110.       -0.3591    0.0087
2.060      115.       -0.3987    0.0095
2.060      120.       -0.3923    0.0098
2.060      125.       -0.4059    0.0104
2.060      130.       -0.3829    0.0106
2.060      135.       -0.3375    0.0110
2.060      140.       -0.3130    0.0112
2.060      145.       -0.2699    0.0115
2.071       55.       -0.0303    0.0072
2.071       60.        0.0457    0.0083
2.071       65.        0.0113    0.0097
2.071       70.       -0.0195    0.0069
2.071       75.       -0.0591    0.0079
2.071       80.       -0.1063    0.0091
2.071       85.       -0.1305    0.0103
2.071       90.       -0.2077    0.0117
2.071       95.       -0.2461    0.0130
2.071      100.       -0.3448    0.0143
2.071      105.       -0.3436    0.0156
2.071      110.       -0.4279    0.0126
2.071      115.       -0.4084    0.0143
2.071      120.       -0.4477    0.0143
2.071      125.       -0.4464    0.0157
2.071      130.       -0.3945    0.0156
2.071      135.       -0.3605    0.0165
2.071      140.       -0.3160    0.0163
2.071      145.       -0.3116    0.0169
2.080       55.       -0.0473    0.0071
2.080       60.        0.0414    0.0083
2.080       65.        0.0127    0.0100
2.080       70.       -0.0041    0.0072
2.080       75.       -0.0406    0.0083
2.080       80.       -0.1057    0.0097
2.080       85.       -0.1554    0.0112
2.080       90.       -0.2168    0.0127
2.080       95.       -0.2860    0.0144
2.080      100.       -0.3852    0.0160
2.080      105.       -0.4595    0.0177
2.080      110.       -0.5084    0.0146
2.080      115.       -0.5261    0.0155
2.080      120.       -0.5352    0.0162
2.080      125.       -0.4953    0.0171
2.080      130.       -0.4711    0.0177
2.080      135.       -0.3932    0.0180
2.080      140.       -0.3311    0.0183
2.080      145.       -0.2736    0.0183
2.090       55.       -0.0517    0.0076
2.090       60.        0.0658    0.0091
2.090       65.        0.0221    0.0112
2.090       70.       -0.0197    0.0080
2.090       75.       -0.0774    0.0097
2.090       80.       -0.1241    0.0115
2.090       85.       -0.2005    0.0136
2.090       90.       -0.3242    0.0154
2.090       95.       -0.3950    0.0175
2.090      100.       -0.4244    0.0192
2.090      105.       -0.4792    0.0201
2.090      110.       -0.4412    0.0157
2.090      115.       -0.4015    0.0155
2.090      120.       -0.3009    0.0155
2.090      125.       -0.2452    0.0149
2.090      130.       -0.2253    0.0148
2.090      135.       -0.1598    0.0144
2.090      140.       -0.1502    0.0140
2.090      145.       -0.1014    0.0134
2.101       55.       -0.0668    0.0090
2.101       60.        0.0382    0.0108
2.101       65.       -0.0019    0.0133
2.101       70.       -0.0692    0.0093
2.101       75.       -0.1537    0.0107
2.101       80.       -0.2292    0.0119
2.101       85.       -0.2807    0.0128
2.101       90.       -0.3357    0.0134
2.101       95.       -0.3534    0.0136
2.101      100.       -0.3701    0.0140
2.101      105.       -0.3194    0.0138
2.101      110.       -0.2785    0.0093
2.101      115.       -0.2596    0.0092
2.101      120.       -0.2265    0.0090
2.101      125.       -0.1878    0.0089
2.101      130.       -0.1650    0.0088
2.101      135.       -0.1348    0.0087
2.101      140.       -0.1224    0.0086
2.101      145.       -0.1044    0.0086
2.110       55.       -0.0410    0.0088
2.110       60.        0.0210    0.0101
2.110       65.       -0.0478    0.0117
2.110       70.       -0.1091    0.0083
2.110       75.       -0.1799    0.0091
2.110       80.       -0.2203    0.0099
2.110       85.       -0.2546    0.0104
2.110       90.       -0.2880    0.0109
2.110       95.       -0.2860    0.0113
2.110      100.       -0.3097    0.0115
2.110      105.       -0.3083    0.0117
2.110      110.       -0.3010    0.0085
2.110      115.       -0.2785    0.0086
2.110      120.       -0.2558    0.0086
2.110      125.       -0.2482    0.0087
2.110      130.       -0.2230    0.0088
2.110      135.       -0.1967    0.0088
2.110      140.       -0.1669    0.0088
2.110      145.       -0.1598    0.0089
2.130       45.       -0.0615    0.0054
2.130       50.       -0.0450    0.0067
2.130       55.       -0.0346    0.0080
2.130       60.       -0.0041    0.0092
2.130       65.       -0.0215    0.0106
2.130       70.       -0.0924    0.0074
2.130       75.       -0.1408    0.0081
2.130       80.       -0.1698    0.0089
2.130       85.       -0.2177    0.0095
2.130       90.       -0.2681    0.0102
2.130       95.       -0.2896    0.0108
2.130      100.       -0.3281    0.0114
2.130      105.       -0.3126    0.0119
2.130      110.       -0.3354    0.0092
2.130      115.       -0.3144    0.0094
2.130      120.       -0.3259    0.0097
2.130      125.       -0.2997    0.0099
2.130      130.       -0.2736    0.0101
2.130      135.       -0.2755    0.0103
2.130      140.       -0.2294    0.0104
2.130      145.       -0.1895    0.0106
2.151       45.       -0.0656    0.0053
2.151       50.       -0.0529    0.0066
2.151       55.       -0.0474    0.0078
2.151       60.        0.0434    0.0091
2.151       65.       -0.0216    0.0104
2.151       70.       -0.0594    0.0072
2.151       75.       -0.1272    0.0081
2.151       80.       -0.1728    0.0089
2.151       85.       -0.1944    0.0097
2.151       90.       -0.2531    0.0105
2.151       95.       -0.3112    0.0111
2.151      100.       -0.3278    0.0119
2.151      105.       -0.3755    0.0125
2.151      110.       -0.3805    0.0096
2.151      115.       -0.3621    0.0100
2.151      120.       -0.3444    0.0102
2.151      125.       -0.3539    0.0105
2.151      130.       -0.3314    0.0109
2.151      135.       -0.3012    0.0111
2.151      140.       -0.2838    0.0113
2.151      145.       -0.2577    0.0116
2.201       45.       -0.0575    0.0055
2.201       50.       -0.0619    0.0067
2.201       55.       -0.0369    0.0081
2.201       60.       -0.0048    0.0091
2.201       65.       -0.0192    0.0107
2.201       70.       -0.0918    0.0074
2.201       75.       -0.1524    0.0082
2.201       80.       -0.1862    0.0091
2.201       85.       -0.2579    0.0099
2.201       90.       -0.3139    0.0107
2.201       95.       -0.3643    0.0116
2.201      100.       -0.3801    0.0123
2.201      105.       -0.4184    0.0130
2.201      110.       -0.3945    0.0102
2.201      115.       -0.4069    0.0105
2.201      120.       -0.4006    0.0109
2.201      125.       -0.4015    0.0114
2.201      130.       -0.3713    0.0117
2.201      135.       -0.3659    0.0120
2.201      140.       -0.3086    0.0122
2.201      145.       -0.2641    0.0125
2.300       45.       -0.0560    0.0056
2.300       50.       -0.0459    0.0071
2.300       55.       -0.0195    0.0084
2.300       60.        0.0167    0.0096
2.300       65.       -0.0407    0.0111
2.300       70.       -0.0976    0.0077
2.300       75.       -0.1425    0.0087
2.300       80.       -0.2149    0.0095
2.300       85.       -0.2222    0.0103
2.300       90.       -0.2812    0.0113
2.300       95.       -0.3455    0.0121
2.300      100.       -0.3428    0.0130
2.300      105.       -0.3470    0.0137
2.300      110.       -0.4124    0.0106
2.300      115.       -0.3728    0.0111
2.300      120.       -0.3933    0.0117
2.300      125.       -0.3431    0.0121
2.300      130.       -0.3576    0.0125
2.300      135.       -0.3414    0.0130
2.300      140.       -0.3080    0.0133
2.300      145.       -0.2521    0.0137
2.401       45.       -0.0750    0.0059
2.401       50.       -0.0741    0.0073
2.401       55.       -0.0342    0.0086
2.401       60.        0.0014    0.0098
2.401       65.       -0.0492    0.0114
2.401       70.       -0.1120    0.0078
2.401       75.       -0.1835    0.0088
2.401       80.       -0.2547    0.0097
2.401       85.       -0.3129    0.0106
2.401       90.       -0.3793    0.0114
2.401       95.       -0.4533    0.0122
2.401      100.       -0.5308    0.0130
2.401      105.       -0.5472    0.0139
2.401      110.       -0.5581    0.0109
2.401      115.       -0.5834    0.0113
2.401      120.       -0.5971    0.0118
2.401      125.       -0.5541    0.0123
2.401      130.       -0.5298    0.0128
2.401      135.       -0.5123    0.0133
2.401      140.       -0.4693    0.0140
2.401      145.       -0.3986    0.0143
2.499       45.       -0.0661    0.0063
2.499       50.       -0.0583    0.0078
2.499       55.        0.0033    0.0092
2.499       60.       -0.0639    0.0104
2.499       65.       -0.1294    0.0119
2.499       70.       -0.2026    0.0082
2.499       75.       -0.3073    0.0091
2.499       80.       -0.3777    0.0099
2.499       85.       -0.4476    0.0107
2.499       90.       -0.5134    0.0116
2.499       95.       -0.5692    0.0124
2.499      100.       -0.6118    0.0131
2.499      105.       -0.6404    0.0136
2.499      110.       -0.6889    0.0109
2.499      115.       -0.6785    0.0113
2.499      120.       -0.6809    0.0119
2.499      125.       -0.6579    0.0126
2.499      130.       -0.6182    0.0133
2.499      135.       -0.5845    0.0140
2.499      140.       -0.5503    0.0147
2.499      145.       -0.4853    0.0152
2.606       45.       -0.0434    0.0065
2.606       50.       -0.0319    0.0082
2.606       55.        0.0361    0.0096
2.606       60.       -0.1551    0.0108
2.606       65.       -0.2240    0.0122
2.606       70.       -0.3339    0.0084
2.606       75.       -0.4110    0.0092
2.606       80.       -0.5229    0.0100
2.606       85.       -0.5933    0.0107
2.606       90.       -0.6660    0.0113
2.606       95.       -0.7057    0.0120
2.606      100.       -0.7550    0.0125
2.606      105.       -0.7776    0.0133
2.606      110.       -0.7933    0.0106
2.606      115.       -0.7695    0.0112
2.606      120.       -0.7793    0.0118
2.606      125.       -0.7398    0.0126
2.606      130.       -0.7029    0.0134
2.606      135.       -0.6378    0.0142
2.606      140.       -0.6112    0.0153
2.606      145.       -0.5400    0.0162
2.700       45.       -0.0316    0.0070
2.700       50.        0.0242    0.0086
2.700       55.        0.1626    0.0100
2.700       60.       -0.2748    0.0110
2.700       65.       -0.3896    0.0123
2.700       70.       -0.5083    0.0086
2.700       75.       -0.6112    0.0093
2.700       80.       -0.6988    0.0098
2.700       85.       -0.7646    0.0103
2.700       90.       -0.8026    0.0109
2.700       95.       -0.8623    0.0112
2.700      100.       -0.8687    0.0120
2.700      105.       -0.9041    0.0126
2.700      110.       -0.8913    0.0103
2.700      115.       -0.8957    0.0110
2.700      120.       -0.8736    0.0116
2.700      125.       -0.8378    0.0127
2.700      130.       -0.8033    0.0137
2.700      135.       -0.7313    0.0149
2.700      140.       -0.7071    0.0166
2.700      145.       -0.6351    0.0182
2.806       45.        0.0938    0.0075
2.806       50.        0.2304    0.0090
2.806       55.        0.3628    0.0101
2.806       60.       -0.4638    0.0109
2.806       65.       -0.5869    0.0116
2.806       70.       -0.6749    0.0084
2.806       75.       -0.7839    0.0088
2.806       80.       -0.8300    0.0094
2.806       85.       -0.8919    0.0098
2.806       90.       -0.9074    0.0105
2.806       95.       -0.9181    0.0111
2.806      100.       -0.9008    0.0119
2.806      105.       -0.8810    0.0127
2.806      110.       -0.8314    0.0106
2.806      115.       -0.7715    0.0117
2.806      120.       -0.6877    0.0128
2.806      125.       -0.6076    0.0142
2.806      130.       -0.4865    0.0160
2.806      135.       -0.3890    0.0182
2.806      140.       -0.2328    0.0200
2.806      145.       -0.0990    0.0226
2.901       45.       -0.2237    0.0073
2.901       50.       -0.3782    0.0084
2.901       55.       -0.4755    0.0096
2.901       60.       -0.5690    0.0103
2.901       65.       -0.6391    0.0112
2.901       70.       -0.6879    0.0082
2.901       75.       -0.7290    0.0087
2.901       80.       -0.7485    0.0094
2.901       85.       -0.7612    0.0100
2.901       90.       -0.7574    0.0108
2.901       95.       -0.7379    0.0119
2.901      100.       -0.6767    0.0132
2.901      105.       -0.5581    0.0147
2.901      110.       -0.4525    0.0120
2.901      115.       -0.3006    0.0134
2.901      120.        0.0001    0.0149
2.901      125.        0.1023    0.0161
2.901      130.        0.3003    0.0173
2.901      135.        0.4592    0.0178
2.901      140.        0.6460    0.0178
2.901      145.        0.7616    0.0178
2.999       45.       -0.2722    0.0072
2.999       50.       -0.3422    0.0082
2.999       55.       -0.4105    0.0095
2.999       60.       -0.4736    0.0104
2.999       65.       -0.5112    0.0115
2.999       70.       -0.5558    0.0082
2.999       75.       -0.5745    0.0089
2.999       80.       -0.5572    0.0098
2.999       85.       -0.5402    0.0109
2.999       90.       -0.4760    0.0120
2.999       95.       -0.3869    0.0136
2.999      100.       -0.2819    0.0153
2.999      105.       -0.1214    0.0168
2.999      110.        0.0395    0.0137
2.999      115.        0.2703    0.0146
2.999      120.        0.2727    0.0149
2.999      125.        0.6513    0.0151
2.999      130.        0.7858    0.0148
2.999      135.        0.8921    0.0144
2.999      140.        0.8930    0.0144
2.999      145.        0.8555    0.0144
3.050       45.       -0.2371    0.0071
3.050       50.       -0.3219    0.0082
3.050       55.       -0.3713    0.0094
3.050       60.       -0.4012    0.0105
3.050       65.       -0.4326    0.0117
3.050       70.       -0.4578    0.0083
3.050       75.       -0.4685    0.0092
3.050       80.       -0.4225    0.0102
3.050       85.       -0.3825    0.0114
3.050       90.       -0.3038    0.0129
3.050       95.       -0.1936    0.0144
3.050      100.       -0.0741    0.0161
3.050      105.        0.0695    0.0179
3.050      110.        0.2944    0.0138
3.050      115.        0.4891    0.0145
3.050      120.        0.6636    0.0145
3.050      125.        0.7971    0.0144
3.050      130.        0.8956    0.0140
3.050      135.        0.8910    0.0142
3.050      140.        0.8337    0.0141
3.050      145.        0.7432    0.0143
3.070       45.       -0.2303    0.0071
3.070       50.       -0.3129    0.0083
3.070       55.       -0.3557    0.0094
3.070       60.       -0.3894    0.0105
3.070       65.       -0.4283    0.0118
3.070       70.       -0.4431    0.0084
3.070       75.       -0.4279    0.0094
3.070       80.       -0.4141    0.0104
3.070       85.       -0.3566    0.0117
3.070       90.       -0.2922    0.0131
3.070       95.       -0.1870    0.0146
3.070      100.       -0.0206    0.0164
3.070      105.        0.1030    0.0179
3.070      110.        0.3403    0.0139
3.070      115.        0.4946    0.0145
3.070      120.        0.6830    0.0146
3.070      125.        0.8074    0.0146
3.070      130.        0.9001    0.0143
3.070      135.        0.8547    0.0141
3.070      140.        0.7876    0.0144
3.070      145.        0.6905    0.0146
3.080       45.       -0.2257    0.0071
3.080       50.       -0.2753    0.0085
3.080       55.       -0.3467    0.0095
3.080       60.       -0.3900    0.0106
3.080       65.       -0.4123    0.0119
3.080       70.       -0.4294    0.0085
3.080       75.       -0.4321    0.0094
3.080       80.       -0.3804    0.0104
3.080       85.       -0.3561    0.0117
3.080       90.       -0.2495    0.0132
3.080       95.       -0.1497    0.0147
3.080      100.       -0.0123    0.0162
3.080      105.        0.1400    0.0179
3.080      110.        0.3374    0.0139
3.080      115.        0.5218    0.0144
3.080      120.        0.6929    0.0148
3.080      125.        0.7944    0.0144
3.080      130.        0.8483    0.0143
3.080      135.        0.8437    0.0145
3.080      140.        0.7854    0.0146
3.080      145.        0.6542    0.0149
3.090       70.       -0.4413    0.0098
3.090      100.        0.0379    0.0192
3.090      105.        0.2043    0.0203
3.090      110.        0.3504    0.0137
3.090      115.        0.5003    0.0145
3.090      120.        0.6801    0.0149
3.090      125.        0.8005    0.0148
3.090      130.        0.8359    0.0150
3.090      135.        0.8009    0.0150
3.090      140.        0.6799    0.0152
3.090      145.        0.5853    0.0149
3.102       45.       -0.1727    0.0073
3.102       50.       -0.2584    0.0087
3.102       55.       -0.3443    0.0101
3.102       60.       -0.3993    0.0113
3.102       65.       -0.3965    0.0128
3.102       70.       -0.3887    0.0091
3.102       75.       -0.3520    0.0100
3.102       80.       -0.2567    0.0109
3.102       85.       -0.1664    0.0119
3.102       90.       -0.0851    0.0131
3.102       95.       -0.0010    0.0141
3.102      100.        0.0848    0.0155
3.102      105.        0.1653    0.0170
3.102      110.        0.2238    0.0138
3.102      115.        0.3095    0.0154
3.102      120.        0.4522    0.0166
3.102      125.        0.5843    0.0172
3.102      130.        0.6386    0.0177
3.102      135.        0.6888    0.0165
3.102      140.        0.5724    0.0156
3.102      145.        0.4589    0.0142
3.115       45.       -0.2946    0.0071
3.115       50.       -0.3504    0.0084
3.115       55.       -0.3539    0.0096
3.115       60.       -0.3367    0.0108
3.115       65.       -0.2986    0.0122
3.115       70.       -0.2306    0.0087
3.115       75.       -0.1627    0.0098
3.115       80.       -0.0617    0.0111
3.115       85.       -0.0244    0.0124
3.115       90.        0.0437    0.0142
3.115       95.        0.0747    0.0165
3.115      100.        0.1442    0.0189
3.115      105.        0.1685    0.0215
3.115      110.        0.3176    0.0176
3.115      115.        0.5462    0.0177
3.115      120.        0.6892    0.0170
3.115      125.        0.8405    0.0149
3.115      130.        0.9185    0.0137
3.115      135.        0.9205    0.0124
3.115      140.        0.9128    0.0118
3.115      145.        0.8374    0.0115
3.121       40.        0.2058    0.0061
3.121       45.       -0.2825    0.0071
3.121       60.       -0.3327    0.0106
3.121       65.       -0.3306    0.0118
3.121       70.       -0.2450    0.0085
3.121       75.       -0.2104    0.0096
3.121       80.       -0.1319    0.0109
3.121       85.       -0.0899    0.0126
3.121       90.       -0.0117    0.0146
3.121       95.        0.0313    0.0171
3.121      100.        0.1438    0.0197
3.121      105.        0.2814    0.0220
3.121      110.        0.4917    0.0169
3.121      115.        0.6824    0.0165
3.121      120.        0.8220    0.0149
3.121      125.        0.9294    0.0137
3.121      130.        0.9635    0.0131
3.121      135.        0.9375    0.0123
3.121      140.        0.9112    0.0120
3.121      145.        0.9030    0.0118
3.150       40.        0.1797    0.0061
3.150       45.       -0.2375    0.0071
3.150       60.       -0.3212    0.0106
3.150       65.       -0.3053    0.0119
3.150       70.       -0.2787    0.0086
3.150       75.       -0.2688    0.0097
3.150       80.       -0.2244    0.0111
3.150       85.       -0.1757    0.0127
3.150       90.       -0.1133    0.0146
3.150       95.        0.0163    0.0170
3.150      100.        0.1453    0.0190
3.150      105.        0.3502    0.0205
3.150      110.        0.5706    0.0155
3.150      115.        0.7362    0.0151
3.150      120.        0.8651    0.0143
3.150      125.        0.9101    0.0137
3.150      130.        0.8998    0.0135
3.150      135.        0.8703    0.0132
3.150      140.        0.7973    0.0132
3.150      145.        0.7537    0.0133
3.200       40.        0.1472    0.0064
3.200       45.       -0.2150    0.0073
3.200       60.       -0.2790    0.0111
3.200       65.       -0.2836    0.0125
3.200       70.       -0.2663    0.0090
3.200       75.       -0.2461    0.0101
3.200       80.       -0.2262    0.0116
3.200       85.       -0.1763    0.0135
3.200       90.       -0.0622    0.0153
3.200       95.        0.0480    0.0177
3.200      100.        0.2058    0.0199
3.200      105.        0.4263    0.0212
3.200      110.        0.5957    0.0159
3.200      115.        0.7426    0.0157
3.200      120.        0.8346    0.0151
3.200      125.        0.8784    0.0147
3.200      130.        0.8451    0.0146
3.200      135.        0.7726    0.0146
3.200      140.        0.6954    0.0144
3.200      145.        0.6235    0.0142
3.250       40.        0.1583    0.0063
3.250       45.       -0.2134    0.0073
3.250       60.       -0.2693    0.0111
3.250       65.       -0.2763    0.0127
3.250       70.       -0.2576    0.0091
3.250       75.       -0.2370    0.0103
3.250       80.       -0.2049    0.0117
3.250       85.       -0.1408    0.0135
3.250       90.       -0.0749    0.0156
3.250       95.        0.0743    0.0175
3.250      100.        0.2035    0.0201
3.250      105.        0.4013    0.0214
3.250      110.        0.5713    0.0158
3.250      115.        0.6731    0.0158
3.250      120.        0.7526    0.0153
3.250      125.        0.7352    0.0152
3.250      130.        0.7202    0.0153
3.250      135.        0.6580    0.0149
3.250      140.        0.5996    0.0147
3.250      145.        0.5337    0.0145
3.300       40.        0.1632    0.0063
3.300       45.       -0.2059    0.0074
3.300       60.       -0.2693    0.0112
3.300       65.       -0.2836    0.0128
3.300       70.       -0.2792    0.0092
3.300       75.       -0.2404    0.0106
3.300       80.       -0.1976    0.0122
3.300       85.       -0.1499    0.0142
3.300       90.       -0.0212    0.0164
3.300       95.        0.1265    0.0187
3.300      100.        0.3171    0.0211
3.300      105.        0.4863    0.0225
3.300      110.        0.6481    0.0167
3.300      115.        0.7539    0.0166
3.300      120.        0.7615    0.0160
3.300      125.        0.7357    0.0161
3.300      130.        0.6382    0.0156
3.300      135.        0.5379    0.0155
3.300      140.        0.4842    0.0150
3.300      145.        0.3892    0.0145
3.310       40.        0.1549    0.0064
3.310       45.       -0.2370    0.0074
3.310       60.       -0.3161    0.0111
3.310       70.       -0.3025    0.0066
3.310       75.       -0.2559    0.0075
3.310       80.       -0.2170    0.0087
3.310       85.       -0.1266    0.0101
3.310       90.       -0.0289    0.0117
3.310       95.        0.1091    0.0134
3.310      100.        0.2862    0.0151
3.310      105.        0.4599    0.0162
3.310      110.        0.6175    0.0168
3.310      115.        0.7173    0.0174
3.310      120.        0.6983    0.0168
3.310      125.        0.6415    0.0165
3.310      130.        0.5878    0.0161
3.310      135.        0.4935    0.0158
3.310      140.        0.3963    0.0152
3.310      145.        0.2925    0.0149
3.320       40.        0.2012    0.0064
3.320       45.       -0.2710    0.0073
3.320       60.       -0.3441    0.0110
3.320       65.       -0.3619    0.0125
3.320       70.       -0.3182    0.0067
3.320       75.       -0.3006    0.0076
3.320       80.       -0.2413    0.0089
3.320       85.       -0.1570    0.0103
3.320       90.       -0.0514    0.0121
3.320       95.        0.1041    0.0140
3.320      100.        0.2884    0.0158
3.320      105.        0.4770    0.0174
3.320      110.        0.6309    0.0180
3.320      115.        0.7112    0.0182
3.320      120.        0.6622    0.0176
3.320      125.        0.5518    0.0171
3.320      130.        0.4367    0.0166
3.320      135.        0.3347    0.0159
3.320      140.        0.2709    0.0152
3.320      145.        0.1916    0.0145
3.330       35.       -0.1505    0.0053
3.330       40.       -0.2624    0.0064
3.330       45.       -0.3385    0.0072
3.330       50.       -0.4078    0.0082
3.330       55.       -0.4354    0.0097
3.330       60.       -0.4599    0.0114
3.330       65.       -0.4392    0.0125
3.330       70.       -0.4048    0.0063
3.330       75.       -0.3596    0.0071
3.330       80.       -0.3046    0.0082
3.330       85.       -0.2064    0.0097
3.330       90.       -0.0690    0.0117
3.330       95.        0.1440    0.0138
3.330      100.        0.3731    0.0157
3.330      105.        0.5692    0.0170
3.330      110.        0.6780    0.0197
3.330      115.        0.5891    0.0198
3.330      120.        0.4137    0.0195
3.330      125.        0.2656    0.0184
3.330      130.        0.1440    0.0170
3.330      135.        0.0446    0.0159
3.330      140.       -0.0040    0.0148
3.330      145.       -0.0498    0.0139
3.340       35.       -0.3341    0.0054
3.340       40.       -0.4395    0.0064
3.340       45.       -0.4955    0.0066
3.340       50.       -0.5153    0.0076
3.340       55.       -0.5241    0.0093
3.340       60.       -0.5005    0.0108
3.340       65.       -0.4680    0.0129
3.340       70.       -0.4478    0.0065
3.340       75.       -0.3711    0.0076
3.340       80.       -0.2891    0.0093
3.340       85.       -0.1461    0.0117
3.340       90.        0.0205    0.0147
3.340       95.        0.1748    0.0177
3.340      100.        0.2483    0.0201
3.340      105.        0.1449    0.0205
3.340      110.       -0.3472    0.0214
3.340      115.       -0.5175    0.0182
3.340      120.       -0.6233    0.0156
3.340      125.       -0.6394    0.0143
3.340      130.       -0.6823    0.0132
3.340      135.       -0.6935    0.0126
3.340      140.       -0.6545    0.0122
3.340      145.       -0.6097    0.0118
3.350       35.       -0.2154    0.0049
3.350       40.       -0.2244    0.0059
3.350       45.       -0.1862    0.0070
3.350       50.       -0.1467    0.0083
3.350       55.       -0.0634    0.0099
3.350       60.        0.0156    0.0117
3.350       65.        0.1154    0.0139
3.350       75.        0.2202    0.0082
3.350       80.        0.2891    0.0093
3.350       85.        0.3114    0.0106
3.350       90.        0.2529    0.0117
3.350       95.        0.1817    0.0124
3.350      100.        0.0708    0.0130
3.350      105.       -0.0364    0.0132
3.350      110.       -0.0536    0.0144
3.350      115.       -0.1063    0.0141
3.350      120.       -0.1131    0.0141
3.350      125.       -0.1295    0.0145
3.350      130.       -0.1197    0.0148
3.350      135.       -0.1111    0.0152
3.350      140.       -0.1009    0.0159
3.350      145.       -0.0923    0.0168
3.360       40.       -0.0957    0.0060
3.360       45.       -0.0737    0.0072
3.360       55.        0.0186    0.0100
3.360       60.        0.0287    0.0116
3.360       65.        0.1024    0.0134
3.360       70.        0.1386    0.0061
3.360       75.        0.1766    0.0070
3.360       80.        0.1866    0.0079
3.360       85.        0.1926    0.0089
3.360       90.        0.1713    0.0098
3.360       95.        0.1726    0.0106
3.360      100.        0.1648    0.0114
3.360      105.        0.1762    0.0120
3.360      110.        0.2520    0.0143
3.360      115.        0.3349    0.0147
3.360      120.        0.4049    0.0152
3.360      125.        0.4695    0.0151
3.360      130.        0.5715    0.0154
3.360      135.        0.6424    0.0153
3.360      140.        0.6448    0.0156
3.360      145.        0.7026    0.0157
3.400       40.       -0.1015    0.0062
3.400       45.       -0.1072    0.0075
3.400       55.       -0.0869    0.0103
3.400       60.       -0.0999    0.0118
3.400       65.       -0.0531    0.0135
3.400       70.       -0.0568    0.0061
3.400       75.       -0.0368    0.0069
3.400       80.       -0.0119    0.0078
3.400       85.        0.0480    0.0089
3.400       90.        0.1017    0.0101
3.400       95.        0.1947    0.0113
3.400      100.        0.2725    0.0123
3.400      105.        0.3692    0.0133
3.400      110.        0.4941    0.0160
3.400      115.        0.6374    0.0162
3.400      120.        0.6884    0.0158
3.400      125.        0.7692    0.0157
3.400      130.        0.7620    0.0155
3.400      135.        0.7616    0.0153
3.400      140.        0.7124    0.0154
3.400      145.        0.6974    0.0153
3.475       40.       -0.0894    0.0065
3.475       45.       -0.1234    0.0078
3.475       55.       -0.1082    0.0107
3.475       60.       -0.1105    0.0121
3.475       65.       -0.1197    0.0138
3.475       70.       -0.0807    0.0063
3.475       75.       -0.0377    0.0071
3.475       80.       -0.0008    0.0082
3.475       85.        0.0340    0.0093
3.475       90.        0.0993    0.0106
3.475       95.        0.2061    0.0120
3.475      100.        0.2940    0.0133
3.475      105.        0.4145    0.0143
3.475      110.        0.5313    0.0172
3.475      115.        0.6238    0.0173
3.475      120.        0.6627    0.0178
3.475      125.        0.7158    0.0175
3.475      130.        0.6850    0.0173
3.475      135.        0.6602    0.0171
3.475      140.        0.5923    0.0167
3.475      145.        0.5286    0.0169
3.500       40.       -0.0828    0.0065
3.500       45.       -0.1063    0.0078
3.500       55.       -0.0939    0.0107
3.500       60.       -0.0800    0.0121
3.500       65.       -0.0633    0.0140
3.500       70.       -0.0527    0.0063
3.500       75.       -0.0303    0.0072
3.500       80.        0.0185    0.0082
3.500       85.        0.0772    0.0094
3.500       90.        0.1337    0.0108
3.500       95.        0.2342    0.0120
3.500      100.        0.3240    0.0136
3.500      105.        0.4586    0.0147
3.500      110.        0.5920    0.0175
3.500      115.        0.6818    0.0180
3.500      120.        0.7194    0.0180
3.500      125.        0.6996    0.0177
3.500      130.        0.6770    0.0179
3.500      135.        0.6063    0.0177
3.500      140.        0.5210    0.0176
3.500      145.        0.4620    0.0171
3.525       35.       -0.0696    0.0053
3.525       40.       -0.0883    0.0065
3.525       45.       -0.1035    0.0079
3.525       50.       -0.1336    0.0092
3.525       55.       -0.1196    0.0107
3.525       60.       -0.1149    0.0123
3.525       65.       -0.0793    0.0141
3.525       70.       -0.0481    0.0063
3.525       75.        0.0015    0.0072
3.525       80.        0.0396    0.0083
3.525       85.        0.0957    0.0094
3.525       90.        0.1646    0.0108
3.525       95.        0.2453    0.0124
3.525      100.        0.3636    0.0137
3.525      105.        0.4623    0.0150
3.525      110.        0.5637    0.0148
3.525      115.        0.6630    0.0184
3.525      120.        0.7348    0.0185
3.525      125.        0.7121    0.0183
3.525      130.        0.7299    0.0186
3.525      135.        0.6842    0.0155
3.525      140.        0.6043    0.0183
3.525      145.        0.5181    0.0182
3.552       35.       -0.0686    0.0054
3.552       40.       -0.0877    0.0066
3.552       45.       -0.0918    0.0079
3.552       50.       -0.0887    0.0094
3.552       55.       -0.0812    0.0108
3.552       60.       -0.0908    0.0123
3.552       65.       -0.0378    0.0141
3.552       70.       -0.0038    0.0064
3.552       75.        0.0283    0.0073
3.552       80.        0.0830    0.0084
3.552       85.        0.1357    0.0096
3.552       90.        0.2102    0.0111
3.552       95.        0.2924    0.0127
3.552      100.        0.3960    0.0141
3.552      105.        0.4838    0.0155
3.552      110.        0.5766    0.0155
3.552      115.        0.6857    0.0164
3.552      120.        0.7320    0.0205
3.552      125.        0.7079    0.0201
3.552      130.        0.6772    0.0169
3.552      135.        0.6176    0.0167
3.552      140.        0.5401    0.0201
3.552      145.        0.4427    0.0199
3.575       35.       -0.0565    0.0055
3.575       40.       -0.0635    0.0067
3.575       45.       -0.0652    0.0081
3.575       50.       -0.1046    0.0094
3.575       55.       -0.0497    0.0109
3.575       60.       -0.0243    0.0124
3.575       65.        0.0063    0.0143
3.575       70.        0.0301    0.0064
3.575       75.        0.0651    0.0074
3.575       80.        0.1403    0.0085
3.575       85.        0.1929    0.0098
3.575       90.        0.2631    0.0114
3.575       95.        0.3240    0.0131
3.575      100.        0.4007    0.0149
3.575      105.        0.5300    0.0167
3.575      110.        0.6337    0.0175
3.575      115.        0.6713    0.0181
3.575      120.        0.6483    0.0193
3.575      125.        0.6003    0.0195
3.575      130.        0.5534    0.0192
3.575      135.        0.4427    0.0189
3.575      140.        0.3321    0.0180
3.575      145.        0.2956    0.0171
3.600       35.       -0.0402    0.0055
3.600       40.       -0.0552    0.0067
3.600       45.       -0.0752    0.0080
3.600       50.       -0.0680    0.0093
3.600       55.       -0.0468    0.0107
3.600       60.       -0.0311    0.0122
3.600       65.       -0.0020    0.0142
3.600       70.        0.0237    0.0064
3.600       75.        0.0503    0.0074
3.600       80.        0.1057    0.0086
3.600       85.        0.1398    0.0101
3.600       90.        0.1931    0.0119
3.600       95.        0.2872    0.0140
3.600      100.        0.3267    0.0166
3.600      105.        0.4385    0.0188
3.600      110.        0.5069    0.0196
3.600      115.        0.5086    0.0211
3.600      120.        0.4948    0.0212
3.600      125.        0.4213    0.0202
3.600      130.        0.3441    0.0193
3.600      135.        0.2605    0.0181
3.600      140.        0.1846    0.0170
3.600      145.        0.1762    0.0158
3.625       35.       -0.0452    0.0055
3.625       40.       -0.0471    0.0066
3.625       45.       -0.0596    0.0078
3.625       50.       -0.0593    0.0091
3.625       55.       -0.0566    0.0105
3.625       60.       -0.0547    0.0121
3.625       65.       -0.0227    0.0140
3.625       70.       -0.0247    0.0064
3.625       75.       -0.0102    0.0074
3.625       80.        0.0125    0.0088
3.625       85.        0.0729    0.0103
3.625       90.        0.0953    0.0123
3.625       95.        0.1777    0.0147
3.625      100.        0.1949    0.0173
3.625      105.        0.3196    0.0197
3.625      110.        0.3957    0.0206
3.625      115.        0.4562    0.0206
3.625      120.        0.4143    0.0201
3.625      125.        0.3376    0.0195
3.625      130.        0.2905    0.0179
3.625      135.        0.2505    0.0168
3.625      140.        0.2101    0.0154
3.625      145.        0.1900    0.0145
3.650       35.       -0.0446    0.0054
3.650       40.       -0.0571    0.0066
3.650       45.       -0.0817    0.0078
3.650       50.       -0.1169    0.0091
3.650       55.       -0.0796    0.0106
3.650       60.       -0.0890    0.0122
3.650       65.       -0.0879    0.0142
3.650       70.       -0.0597    0.0055
3.650       75.       -0.0511    0.0064
3.650       80.       -0.0367    0.0076
3.650       85.       -0.0142    0.0090
3.650       90.        0.0290    0.0108
3.650       95.        0.1059    0.0127
3.650      100.        0.1801    0.0151
3.650      105.        0.2532    0.0185
3.650      110.        0.3304    0.0206
3.650      115.        0.3849    0.0212
3.650      120.        0.3209    0.0202
3.650      125.        0.2759    0.0188
3.650      130.        0.2294    0.0175
3.650      135.        0.2125    0.0160
3.650      145.        0.1555    0.0141
3.676       35.       -0.0738    0.0054
3.676       40.       -0.0740    0.0066
3.676       45.       -0.1098    0.0079
3.676       50.       -0.0875    0.0092
3.676       55.       -0.1280    0.0107
3.676       60.       -0.1192    0.0124
3.676       65.       -0.1074    0.0144
3.676       70.       -0.1118    0.0202
3.676       75.       -0.0842    0.0066
3.676       80.       -0.0665    0.0078
3.676       85.       -0.0485    0.0094
3.676       90.       -0.0205    0.0113
3.676       95.        0.0538    0.0135
3.676      100.        0.1235    0.0162
3.676      105.        0.2296    0.0185
3.676      110.        0.2848    0.0223
3.676      115.        0.2934    0.0218
3.676      120.        0.2542    0.0207
3.676      125.        0.2442    0.0193
3.676      130.        0.1608    0.0177
3.676      135.        0.1418    0.0165
3.676      140.        0.1487    0.0153
3.676      145.        0.0688    0.0143
ENDDATA           1049
ENDSUBENT         1058
ENDENTRY             3
