ENTRY            F0534   20050511   20050831                  F021
SUBENT        F0534001   20050511   20050831                  F021
BIB                 11         26
TITLE      The 13C(p,a)10B reaction in the energy range between
           18 and 45 MeV.
AUTHOR     (S.Abd El-Kariem,T.Rohwer,G.Staudt,W.Leitner)
INSTITUTE  (2GERTUE)
REFERENCE  (J,NP/A,487,353,1988)
FACILITY   (ISOCY,2GERJUL) For momentum-analyzed proton beam with
           energies of 22.5, 27.0, 31.0, 36.0, 41.0 and 45.0 MeV.
           (CYCLO,2GERHAM)For proton beam with energies of 18.0
           and 22.5 MeV.
DETECTOR   (TELES,SIBAR)Four detector telescopes,each employing a
           50 mu-m dE and a 1000 mu-m E silicon surface-barrier
           detector,mounted in a 110cm diameter scattering chamber
           (GELI)To provide a relative normalization between the
           different measurements,elastic-scattering events were
           recorded with a Ge(Li)detector in Julich.
           (CSICR) CsI scintillation counter was used in Hamburg.
SAMPLE     The targets consisted of enriched (82% 13C) carbon foil
           with areal densities of 100 mu-g/cm2 typically.
METHOD     (BCINT)
           (EDE)
REL-REF    (A,,D.L.Olberg+,J,PR/C,11,410,1975)
           (A,,S.Micheletti+,J,PR/C,11,64,1975)
ERR-ANALYS (DATA-ERR)The resulting overall normalization
           uncertainty in the cross sections.
           (ERR-DIG)Digitizing error
HISTORY    (20050201C)
ENDBIB              26
COMMON               1          3
DATA-ERR
PER-CENT
 20.
ENDCOMMON            3
ENDSUBENT           33
SUBENT        F0534002   20050511   20050831                  F021
BIB                  3          4
REACTION   (6-C-13(P,A)5-B-10,PAR,DA)
ERR-ANALYS (ANG-ERR-D)Digitizing error
           (DATA-ERR1)Error from the graphic bars
STATUS     (CURVE)Fig.3
ENDBIB               4
COMMON               2          3
ANG-ERR-D  ERR-DIG
ADEG       PER-CENT
 0.21       0.2
ENDCOMMON            3
DATA                 5        347
E-LVL      EN         ANG-CM     DATA-CM    DATA-ERR1
MEV        MEV        ADEG       MU-B/SR    MU-B/SR
 0.0000     18.000     21.600     1190.1
 0.0000     18.000     27.837     1369.3
 0.0000     18.000     33.393     1416.2
 0.0000     18.000     38.728     1338.3     59.491
 0.0000     18.000     42.915     1165.0
 0.0000     18.000     48.459     1329.4
 0.0000     18.000     52.626     1363.4     48.461
 0.0000     18.000     57.711     1493.2     31.042
 0.0000     18.000     61.868     1662.2
 0.0000     18.000     66.725     1761.7
 0.0000     18.000     74.825     1883.4     57.728
 0.0000     18.000     79.472     1694.3     29.864
 0.0000     18.000     83.658     1487.0
 0.0000     18.000     87.837     1382.1
 0.0000     18.000     91.824     933.13
 0.0000     18.000     96.931     853.35
 0.0000     18.000     108.27     943.21
 0.0000     18.000     114.70     1446.0
 0.0000     18.000     118.38     1911.8
 0.0000     18.000     123.22     2181.4
 0.0000     18.000     128.99     2614.8
 0.0000     18.000     133.18     2313.7
 0.0000     18.000     137.80     2575.8
 0.0000     18.000     146.39     2262.2
 0.0000     18.000     153.78     2734.6
 0.0000     18.000     158.40     2922.1
 0.0000     18.000     162.08     3708.3
 0.0000     18.000     166.93     3995.2
 0.0000     18.000     170.85     4748.6
 0.0000     22.500     8.7319     1643.5
 0.0000     22.500     15.697     1448.4
 0.0000     22.500     21.067     1021.3
 0.0000     22.500     25.455     1142.3
 0.0000     22.500     27.113     844.42
 0.0000     22.500     33.384     738.22     30.815
 0.0000     22.500     39.636     756.72
 0.0000     22.500     45.700     537.88
 0.0000     22.500     51.449     764.04
 0.0000     22.500     57.673     994.40     32.373
 0.0000     22.500     62.084     918.90
 0.0000     22.500     68.089     1069.8
 0.0000     22.500     73.871     1159.4
 0.0000     22.500     84.819     697.73
 0.0000     22.500     89.947     536.96
 0.0000     22.500     95.300     436.93
 0.0000     22.500     100.68     277.80
 0.0000     22.500     106.00     293.93
 0.0000     22.500     110.61     356.03
 0.0000     22.500     115.47     370.73
 0.0000     22.500     118.47     438.36
 0.0000     22.500     120.08     449.05
 0.0000     22.500     125.18     445.81
 0.0000     22.500     130.03     498.70
 0.0000     22.500     134.68     442.87
 0.0000     22.500     138.64     371.95
 0.0000     22.500     143.26     399.83
 0.0000     22.500     147.20     419.62
 0.0000     22.500     151.59     440.41
 0.0000     22.500     155.98     504.53
 0.0000     22.500     164.05     656.82
 0.0000     22.500     168.91     706.07
 0.0000     22.500     172.84     741.02
0.72000     18.000     20.869     187.61
0.72000     18.000     27.795     232.49
0.72000     18.000     32.854     328.49
0.72000     18.000     37.949     334.16
0.72000     18.000     40.016     390.71
0.72000     18.000     43.047     328.95
0.72000     18.000     47.190     417.66
0.72000     18.000     52.529     378.74
0.72000     18.000     56.729     288.99
0.72000     18.000     61.605     262.05
0.72000     18.000     66.003     270.96
0.72000     18.000     70.625     299.22
0.72000     18.000     75.482     319.76
0.72000     18.000     79.174     367.86
0.72000     18.000     83.584     339.06
0.72000     18.000     88.227     309.97
0.72000     18.000     92.185     258.87
0.72000     18.000     97.052     254.83
0.72000     18.000     108.24     133.39
0.72000     18.000     115.16     175.09
0.72000     18.000     115.89     136.87
0.72000     18.000     120.24     208.20     15.972
0.72000     18.000     124.39     253.70
0.72000     18.000     129.91     344.06
0.72000     18.000     134.32     319.74
0.72000     18.000     138.71     358.92
0.72000     18.000     147.05     356.40     27.342
0.72000     18.000     150.75     377.68
0.72000     18.000     153.74     483.41
0.72000     18.000     155.59     491.54
0.72000     18.000     158.82     574.81
0.72000     18.000     162.50     672.23
0.72000     18.000     167.13     754.62
0.72000     18.000     171.28     854.05
0.72000     22.500     9.2248     327.41
0.72000     22.500     15.029     292.08     15.001
0.72000     22.500     26.674     165.99
0.72000     22.500     32.460     174.52
0.72000     22.500     39.149     227.19     17.480
0.72000     22.500     45.262     100.84
0.72000     22.500     51.027     129.12     18.208
0.72000     22.500     56.591     124.02
0.72000     22.500     62.422     86.477
0.72000     22.500     68.218     83.064     10.122
0.72000     22.500     73.740     117.37     10.046
0.72000     22.500     84.392     122.47
0.72000     22.500     90.644     124.61     8.4621
0.72000     22.500     95.511     122.66
0.72000     22.500     100.65     84.127
0.72000     22.500     105.76     74.429
0.72000     22.500     110.64     61.659
0.72000     22.500     115.52     57.777     10.876
0.72000     22.500     120.36     68.137     11.507
0.72000     22.500     125.25     58.332     8.7403
0.72000     22.500     129.83     94.761     8.9595
0.72000     22.500     134.68     101.26     10.488
0.72000     22.500     139.06     128.58     14.487
0.72000     22.500     143.69     129.72     11.103
0.72000     22.500     147.40     126.63     10.839
0.72000     22.500     151.57     125.67     10.756
0.72000     22.500     155.51     119.69     11.316
0.72000     22.500     164.32     116.92     11.054
0.72000     22.500     167.99     166.52
0.72000     22.500     172.38     173.61     19.562
 1.7400     18.000     21.319     540.97
 1.7400     18.000     27.783     646.03
 1.7400     18.000     33.552     771.43
 1.7400     18.000     34.031     682.30
 1.7400     18.000     39.106     802.24
 1.7400     18.000     43.274     815.14
 1.7400     18.000     48.130     874.05
 1.7400     18.000     52.536     848.14
 1.7400     18.000     56.720     756.33
 1.7400     18.000     61.364     695.53
 1.7400     18.000     70.694     426.08
 1.7400     18.000     74.657     349.18
 1.7400     18.000     80.211     365.92
 1.7400     18.000     84.396     326.31
 1.7400     18.000     89.267     311.84
 1.7400     18.000     92.541     244.02
 1.7400     18.000     97.166     261.65     12.250
 1.7400     18.000     109.27     161.59     16.959
 1.7400     18.000     115.59     96.693
 1.7400     18.000     116.72     120.82
 1.7400     18.000     120.90     111.96
 1.7400     18.000     124.58     136.77
 1.7400     18.000     129.88     171.00
 1.7400     18.000     134.77     142.32
 1.7400     18.000     139.14     184.89
 1.7400     18.000     146.78     187.95
 1.7400     18.000     151.43     174.18
 1.7400     18.000     155.59     186.75
 1.7400     18.000     159.29     200.21
 1.7400     18.000     162.74     235.35
 1.7400     22.500     9.5186     73.760     8.0692
 1.7400     22.500     15.305     76.608     7.1295
 1.7400     22.500     20.988     172.05
 1.7400     22.500     27.205     226.56
 1.7400     22.500     34.322     367.24
 1.7400     22.500     39.148     487.11     27.310
 1.7400     22.500     44.968     396.09
 1.7400     22.500     50.763     384.82
 1.7400     22.500     57.031     349.76     22.550
 1.7400     22.500     62.209     191.96
 1.7400     22.500     66.549     301.95
 1.7400     22.500     68.725     153.81
 1.7400     22.500     74.088     118.74
 1.7400     22.500     84.986     110.42     13.910
 1.7400     22.500     90.769     117.26
 1.7400     22.500     96.057     159.04     11.399
 1.7400     22.500     101.45     101.25
 1.7400     22.500     106.31     102.07     8.6749
 1.7400     22.500     111.19     90.711     6.9823
 1.7400     22.500     115.67     52.433     8.3826
 1.7400     22.500     120.96     67.518     11.964
 1.7400     22.500     125.35     74.396     11.256
 1.7400     22.500     130.45     69.642     9.3567
 1.7400     22.500     134.59     91.681     7.7920
 1.7400     22.500     138.97     107.20     15.307
 1.7400     22.500     147.49     158.99
 1.7400     22.500     154.63     201.77
 1.7400     22.500     167.99     360.47
 1.7400     22.500     171.86     628.99
 2.1500     18.000     22.159     532.84
 2.1500     18.000     27.730     491.76     19.154
 2.1500     18.000     28.445     421.56
 2.1500     18.000     33.306     435.81
 2.1500     18.000     37.504     353.17
 2.1500     18.000     41.695     300.48
 2.1500     18.000     47.225     377.45
 2.1500     18.000     52.338     334.48
 2.1500     18.000     57.675     311.20
 2.1500     18.000     62.080     303.94
 2.1500     18.000     71.116     301.93
 2.1500     18.000     75.293     285.45
 2.1500     18.000     79.469     274.29
 2.1500     18.000     84.332     276.75
 2.1500     18.000     87.592     245.17
 2.1500     18.000     92.234     229.93
 2.1500     18.000     96.868     228.25
 2.1500     18.000     109.40     197.64
 2.1500     18.000     116.35     197.87
 2.1500     18.000     120.25     258.78
 2.1500     18.000     123.95     267.48
 2.1500     18.000     129.01     367.34
 2.1500     18.000     134.10     367.65
 2.1500     18.000     138.95     402.29
 2.1500     18.000     147.52     416.14
 2.1500     18.000     150.55     365.66
 2.1500     18.000     155.64     390.51
 2.1500     18.000     159.37     313.88
 2.1500     18.000     163.55     301.61
 2.1500     18.000     166.36     242.38
 2.1500     18.000     171.23     231.05
 2.1500     18.000     171.71     201.30
 2.1500     22.500     8.7487     86.315
 2.1500     22.500     15.165     147.40
 2.1500     22.500     21.446     120.52
 2.1500     22.500     27.869     194.48
 2.1500     22.500     33.191     204.33
 2.1500     22.500     38.729     242.39
 2.1500     22.500     44.346     156.72
 2.1500     22.500     50.347     185.93
 2.1500     22.500     56.851     162.21
 2.1500     22.500     63.428     81.620
 2.1500     22.500     69.455     79.740
 2.1500     22.500     74.049     106.79
 2.1500     22.500     85.230     67.449     10.576
 2.1500     22.500     90.305     79.363
 2.1500     22.500     95.902     59.842
 2.1500     22.500     101.26     48.923     4.9891
 2.1500     22.500     106.80     56.645     5.7765
 2.1500     22.500     111.45     48.609     6.7192
 2.1500     22.500     116.29     58.598     9.7391
 2.1500     22.500     120.48     49.075     12.480
 2.1500     22.500     125.05     83.104     13.031
 2.1500     22.500     129.51     53.722     7.4260
 2.1500     22.500     134.11     67.982     6.9326
 2.1500     22.500     138.97     69.707     10.280
 2.1500     22.500     147.31     71.516     9.2296
 2.1500     22.500     155.88     71.037     15.227
 2.1500     22.500     167.38     137.08     18.948
 2.1500     22.500     172.20     182.10
 3.5900     22.500     16.732     322.27
 3.5900     22.500     22.590     191.14
 3.5900     22.500     28.790     293.14
 3.5900     22.500     35.279     288.74
 3.5900     22.500     40.107     386.10
 3.5900     22.500     45.292     191.81
 3.5900     22.500     51.996     214.91
 3.5900     22.500     58.274     178.76
 3.5900     22.500     64.355     113.99
 3.5900     22.500     69.911     117.82
 3.5900     22.500     75.214     143.05
 3.5900     22.500     85.835     188.40     14.181
 3.5900     22.500     91.398     184.06
 3.5900     22.500     97.420     185.72
 3.5900     22.500     102.10     128.34
 3.5900     22.500     107.64     147.28
 3.5900     22.500     112.07     124.46
 3.5900     22.500     120.86     137.27     13.618
 3.5900     22.500     126.06     60.435     17.474
 3.5900     22.500     130.12     144.27
 4.7700     18.000     25.550     237.26     26.427
 4.7700     18.000     32.333     239.35     32.400
 4.7700     18.000     32.988     376.26
 4.7700     18.000     38.155     306.31
 4.7700     18.000     44.754     190.43
 4.7700     18.000     48.509     169.13     22.895
 4.7700     18.000     53.669     147.88     26.814
 4.7700     18.000     58.978     295.12
 4.7700     18.000     63.874     346.08
 4.7700     18.000     68.759     449.93
 4.7700     18.000     72.015     540.22
 4.7700     18.000     76.919     589.84
 4.7700     18.000     81.127     604.35
 4.7700     18.000     85.552     725.73
 4.7700     18.000     90.007     660.17
 4.7700     18.000     93.531     568.01
 4.7700     18.000     99.174     430.56
 4.7700     18.000     104.54     481.46
 4.7700     18.000     121.41     392.49
 4.7700     18.000     125.84     449.41
 4.7700     18.000     130.25     593.58
 4.7700     18.000     135.16     622.89
 4.7700     18.000     138.91     594.19
 4.7700     18.000     143.36     557.94
 4.7700     18.000     152.52     363.89
 4.7700     18.000     156.52     313.11
 4.7700     18.000     160.51     278.11
 4.7700     18.000     164.28     200.97     14.563
 4.7700     18.000     168.29     152.31     18.783
 4.7700     18.000     172.29     119.15     19.388
 4.7700     22.500     13.706     89.018     9.6908
 4.7700     22.500     20.012     97.226     10.584
 4.7700     22.500     26.307     118.69     11.879
 4.7700     22.500     32.405     102.13     18.553
 4.7700     22.500     38.741     83.785     8.3855
 4.7700     22.500     44.798     107.28     10.736
 4.7700     22.500     50.668     86.616     11.747
 4.7700     22.500     57.217     87.375     10.285
 4.7700     22.500     63.537     84.034     10.641
 4.7700     22.500     69.641     67.853     10.437
 4.7700     22.500     74.983     97.869     9.7950
 4.7700     22.500     80.598     97.159     8.8778
 4.7700     22.500     91.103     118.67     15.027
 4.7700     22.500     96.769     71.969     7.8346
 4.7700     22.500     102.40     62.915     8.5327
 4.7700     22.500     117.61     56.392     9.1933
 4.7700     22.500     125.97     108.32     24.869
 4.7700     22.500     130.43     88.146     20.236
 6.5600     27.000     12.569     171.85     41.672
 6.5600     27.000     18.444     129.47     34.104
 6.5600     27.000     24.747     148.09
 6.5600     27.000     31.327     108.82     10.469
 6.5600     27.000     37.185     97.694     10.297
 6.5600     27.000     43.486     113.63
 6.5600     27.000     49.336     111.83
 6.5600     27.000     55.470     65.581     8.1330
 6.5600     27.000     60.910     35.375     6.7806
 6.5600     27.000     67.204     44.356     8.9453
 6.5600     27.000     77.955     48.689     9.3325
 6.5600     27.000     83.783     60.036     10.913
 6.5600     27.000     88.901     79.798     12.943
 6.5600     27.000     94.016     110.59     12.681
 6.5600     27.000     99.846     132.99
 6.5600     27.000     109.22     115.52
 7.0000     27.000     12.119     132.11     47.278
 7.0000     27.000     18.402     176.68     50.080
 7.0000     27.000     24.340     80.333     15.565
 7.0000     27.000     30.400     97.535     12.518
 7.0000     27.000     36.527     65.796     12.749
 7.0000     27.000     42.795     100.09     11.042
 7.0000     27.000     49.089     120.55     12.226
 7.0000     27.000     54.977     85.343     11.732
 7.0000     27.000     60.678     39.752     11.680
 7.0000     27.000     66.242     61.941     10.821
 7.0000     27.000     71.883     48.688     10.855
 7.0000     27.000     77.085     30.058     10.756
 7.0000     27.000     83.121     44.630     10.391
 7.0000     27.000     88.513     40.225     11.819
 7.0000     27.000     93.408     46.904     10.457
 7.0000     27.000     98.703     99.236     12.737
 7.0000     27.000     103.65     73.131     16.304
 7.0000     27.000     108.81     64.338     11.239
ENDDATA            349
ENDSUBENT          362
SUBENT        F0534003   20050511   20050831                  F021
BIB                  3          3
REACTION   (6-C-13(P,A)5-B-10,PAR,DA)
ERR-ANALYS (ANG-ERR-D)Digitizing error
STATUS     (CURVE)Fig.3
ENDBIB               3
COMMON               2          3
ANG-ERR-D  ERR-DIG
ADEG       PER-CENT
 0.21       0.2
ENDCOMMON            3
DATA                 5         64
E-LVL-MIN  E-LVL-MAX  EN         ANG-CM     DATA-CM
MEV        MEV        MEV        ADEG       MU-B/SR
 5.1600     5.1800     18.000     27.181     943.62
 5.1600     5.1800     18.000     33.706     1179.6
 5.1600     5.1800     18.000     37.895     1450.1
 5.1600     5.1800     18.000     39.554     1190.3
 5.1600     5.1800     18.000     45.394     1282.9
 5.1600     5.1800     18.000     48.448     1134.3
 5.1600     5.1800     18.000     53.575     1349.3
 5.1600     5.1800     18.000     59.423     1350.4
 5.1600     5.1800     18.000     64.578     1244.5
 5.1600     5.1800     18.000     69.028     1185.2
 5.1600     5.1800     18.000     73.480     1101.2
 5.1600     5.1800     18.000     77.932     1031.6
 5.1600     5.1800     18.000     82.146     998.70
 5.1600     5.1800     18.000     86.590     1007.6
 5.1600     5.1800     18.000     90.569     983.48
 5.1600     5.1800     18.000     94.077     992.08
 5.1600     5.1800     18.000     98.293     937.03
 5.1600     5.1800     18.000     103.42     1133.2
 5.1600     5.1800     18.000     121.65     1264.3
 5.1600     5.1800     18.000     126.57     1174.8
 5.1600     5.1800     18.000     130.29     1444.1
 5.1600     5.1800     18.000     135.20     1569.1
 5.1600     5.1800     18.000     139.66     1299.1
 5.1600     5.1800     22.500     13.546     200.26
 5.1600     5.1800     22.500     20.268     356.74
 5.1600     5.1800     22.500     26.550     488.23
 5.1600     5.1800     22.500     32.842     610.32
 5.1600     5.1800     22.500     39.144     691.15
 5.1600     5.1800     22.500     44.753     726.70
 5.1600     5.1800     22.500     57.174     582.78
 5.1600     5.1800     22.500     62.802     515.44
 5.1600     5.1800     22.500     68.922     362.02
 5.1600     5.1800     22.500     76.877     353.56
 5.1600     5.1800     22.500     82.253     368.69
 5.1600     5.1800     22.500     90.222     318.23
 5.1600     5.1800     22.500     95.842     300.63
 5.1600     5.1800     22.500     101.69     305.86
 5.1600     5.1800     22.500     116.43     284.57
 5.1600     5.1800     22.500     124.88     226.22
 5.1600     5.1800     22.500     130.95     254.07
 5.9200     6.0300     22.500     13.317     913.08
 5.9200     6.0300     22.500     19.633     913.77
 5.9200     6.0300     22.500     25.739     731.43
 5.9200     6.0300     22.500     32.056     726.37
 5.9200     6.0300     22.500     38.605     732.55
 5.9200     6.0300     22.500     43.970     835.54
 5.9200     6.0300     22.500     50.096     560.26
 5.9200     6.0300     22.500     57.330     659.16
 5.9200     6.0300     22.500     62.716     624.97
 5.9200     6.0300     22.500     69.062     477.69
 5.9200     6.0300     22.500     74.418     593.01
 5.9200     6.0300     22.500     79.775     730.51
 5.9200     6.0300     22.500     89.851     622.19
 5.9200     6.0300     22.500     101.10     534.10
 7.4800     7.5600     22.500     13.331     867.90
 7.4800     7.5600     22.500     20.155     580.99
 7.4800     7.5600     22.500     26.045     379.61
 7.4800     7.5600     22.500     32.119     411.70
 7.4800     7.5600     22.500     38.666     425.49
 7.4800     7.5600     22.500     45.269     248.42
 7.4800     7.5600     22.500     51.123     234.98
 7.4800     7.5600     22.500     56.765     177.45
 7.4800     7.5600     22.500     62.853     166.51
 7.4800     7.5600     22.500     69.199     122.75
ENDDATA             66
ENDSUBENT           78
SUBENT        F0534004   20050511   20050831                  F021
BIB                  3          4
REACTION   (6-C-13(P,A)5-B-10,PAR,DA)
ERR-ANALYS (ANG-ERR-D)Digitizing error
           (DATA-ERR1)Error from the graphic bars
STATUS     (CURVE)Fig.4(a,b)
ENDBIB               4
COMMON               2          3
ANG-ERR-D  ERR-DIG
ADEG       PER-CENT
 0.2        0.2
ENDCOMMON            3
DATA                 5        798
E-LVL      EN         ANG-CM     DATA-CM    DATA-ERR1
MEV        MEV        ADEG       MU-B/SR    MU-B/SR
 0.0000     27.000     12.205     902.10
 0.0000     27.000     18.823     890.47
 0.0000     27.000     25.021     842.30
 0.0000     27.000     31.412     898.90
 0.0000     27.000     37.400     838.26
 0.0000     27.000     42.953     815.63
 0.0000     27.000     49.341     889.17
 0.0000     27.000     54.489     761.39
 0.0000     27.000     60.031     789.69
 0.0000     27.000     65.780     854.70
 0.0000     27.000     70.915     791.28
 0.0000     27.000     76.722     604.92
 0.0000     27.000     81.438     532.86
 0.0000     27.000     85.975     382.07
 0.0000     27.000     91.607     232.75
 0.0000     27.000     97.156     231.34
 0.0000     27.000     102.30     205.25
 0.0000     27.000     107.20     212.85
 0.0000     27.000     111.44     250.78
 0.0000     27.000     118.07     237.23
 0.0000     27.000     123.17     266.01
 0.0000     27.000     126.18     237.59
 0.0000     27.000     130.44     237.78
 0.0000     27.000     135.35     234.64
 0.0000     27.000     140.08     192.53
 0.0000     27.000     147.74     222.20
 0.0000     27.000     156.91     237.25
 0.0000     27.000     160.54     224.31
 0.0000     27.000     165.86     246.23
 0.0000     27.000     169.10     196.33     11.503
 0.0000     31.000     19.021     767.19
 0.0000     31.000     26.057     801.27
 0.0000     31.000     32.022     848.55
 0.0000     31.000     39.067     837.78
 0.0000     31.000     50.008     599.04
 0.0000     31.000     54.105     465.45
 0.0000     31.000     60.310     422.30
 0.0000     31.000     65.437     410.98
 0.0000     31.000     72.510     342.77
 0.0000     31.000     78.325     250.08
 0.0000     31.000     81.561     204.08
 0.0000     31.000     86.667     223.82
 0.0000     31.000     92.237     197.42
 0.0000     31.000     96.928     201.80
 0.0000     31.000     102.04     216.69
 0.0000     31.000     107.15     224.66
 0.0000     31.000     112.34     151.69
 0.0000     31.000     116.02     114.59
 0.0000     31.000     120.95     96.206
 0.0000     31.000     125.86     99.737
 0.0000     31.000     129.72     90.452
 0.0000     31.000     134.40     95.096
 0.0000     31.000     138.67     97.199
 0.0000     31.000     143.13     108.86
 0.0000     31.000     147.83     103.72
 0.0000     31.000     151.89     103.07
 0.0000     31.000     156.81     95.486
 0.0000     31.000     160.46     85.385
 0.0000     31.000     165.18     72.701
 0.0000     36.000     13.748     714.47
 0.0000     36.000     19.072     761.63
 0.0000     36.000     25.456     840.94
 0.0000     36.000     31.221     830.19
 0.0000     36.000     37.002     748.42
 0.0000     36.000     43.413     713.58
 0.0000     36.000     49.217     563.31
 0.0000     36.000     54.171     438.45
 0.0000     36.000     59.967     363.47
 0.0000     36.000     66.202     281.00
 0.0000     36.000     71.151     224.91
 0.0000     36.000     75.917     152.22
 0.0000     36.000     81.604     70.655
 0.0000     36.000     86.747     62.803
 0.0000     36.000     92.294     63.312
 0.0000     36.000     97.352     90.506
 0.0000     36.000     106.34     76.665
 0.0000     36.000     111.69     71.067
 0.0000     36.000     115.58     55.303
 0.0000     36.000     120.77     39.034
 0.0000     36.000     125.68     38.261
 0.0000     36.000     130.37     38.835
 0.0000     36.000     134.85     39.970
 0.0000     36.000     138.94     31.987
 0.0000     36.000     143.85     32.695
 0.0000     36.000     147.92     28.653
 0.0000     36.000     152.44     23.418
 0.0000     36.000     156.12     18.222
 0.0000     36.000     160.20     15.748
 0.0000     36.000     164.71     13.328
 0.0000     41.000     11.885     476.67
 0.0000     41.000     17.851     577.91
 0.0000     41.000     24.439     779.32
 0.0000     41.000     30.875     769.43
 0.0000     41.000     36.268     654.50
 0.0000     41.000     42.545     490.18
 0.0000     41.000     47.535     367.01
 0.0000     41.000     53.188     248.88
 0.0000     41.000     58.611     182.44
 0.0000     41.000     64.448     144.59
 0.0000     41.000     69.689     90.049
 0.0000     41.000     76.623     62.837
 0.0000     41.000     83.331     46.403
 0.0000     41.000     91.474     47.821
 0.0000     41.000     100.70     47.579
 0.0000     41.000     113.07     22.040
 0.0000     41.000     118.07     16.041
 0.0000     41.000     124.07     16.176
 0.0000     41.000     129.19     18.397
 0.0000     41.000     133.08     15.867
 0.0000     41.000     138.01     16.341
 0.0000     41.000     142.34     13.224
 0.0000     41.000     147.11     10.258
 0.0000     41.000     151.01     8.1840
 0.0000     41.000     154.94     5.7477    0.68987
 0.0000     41.000     159.18     7.2683    0.81491
 0.0000     41.000     163.47     21.356     2.1333
 0.0000     41.000     167.62     14.893     1.9062
 0.0000     45.000     16.936     673.67
 0.0000     45.000     23.337     789.99
 0.0000     45.000     29.144     725.81
 0.0000     45.000     35.209     541.64
 0.0000     45.000     41.062     398.42
 0.0000     45.000     45.428     274.66
 0.0000     45.000     51.963     167.69
 0.0000     45.000     57.397     117.30
 0.0000     45.000     62.828     83.836
 0.0000     45.000     69.972     60.374
 0.0000     45.000     76.049     42.542
 0.0000     45.000     82.946     35.871
 0.0000     45.000     90.263     31.580
 0.0000     45.000     100.39     25.525
 0.0000     45.000     112.72     14.735
 0.0000     45.000     118.76     12.692
 0.0000     45.000     123.69     12.525
 0.0000     45.000     128.81     14.475
 0.0000     45.000     133.51     16.021
 0.0000     45.000     137.83     13.501
 0.0000     45.000     142.17     10.439
 0.0000     45.000     146.10     7.3520    0.83510
 0.0000     45.000     151.05     6.9003     1.0644
 0.0000     45.000     154.60     11.167    0.23037
 0.0000     45.000     159.17     7.8098    0.64113
 0.0000     45.000     163.17     11.189    0.40057
 0.0000     45.000     166.98     14.498
0.72000     27.000     13.622     314.80
0.72000     27.000     19.011     183.03
0.72000     27.000     25.945     80.258
0.72000     27.000     31.110     49.373     7.8952
0.72000     27.000     36.990     47.410     5.2994
0.72000     27.000     42.131     68.084
0.72000     27.000     43.563     77.351
0.72000     27.000     48.809     75.853     8.4786
0.72000     27.000     54.901     72.330     7.5188
0.72000     27.000     60.500     42.057     4.7010
0.72000     27.000     65.825     30.871     5.4462
0.72000     27.000     71.380     21.117     4.4373
0.72000     27.000     77.178     12.721     3.4640
0.72000     27.000     82.226     25.641     4.7374
0.72000     27.000     87.532     43.321     5.5276
0.72000     27.000     92.512     52.137     8.1305
0.72000     27.000     97.445     74.340     8.8954
0.72000     27.000     102.55     57.331     5.9596
0.72000     27.000     107.51     34.772     3.8867
0.72000     27.000     112.80     28.985     5.3551
0.72000     27.000     117.63     27.824     2.8923
0.72000     27.000     118.98     20.113     3.2163
0.72000     27.000     123.21     37.501     4.4873
0.72000     27.000     127.67     64.697     5.2277
0.72000     27.000     131.22     68.535
0.72000     27.000     135.79     77.391
0.72000     27.000     139.51     93.764
0.72000     27.000     143.95     83.268     8.0088
0.72000     27.000     148.36     79.360     7.0205
0.72000     27.000     156.19     61.255     6.3676
0.72000     27.000     160.12     73.177     6.4735
0.72000     27.000     164.32     73.273     6.4821
0.72000     27.000     168.43     96.640     8.0454
0.72000     31.000     20.253     165.83
0.72000     31.000     25.286     74.696
0.72000     31.000     31.566     76.963
0.72000     31.000     37.617     85.649
0.72000     31.000     54.260     137.66
0.72000     31.000     59.539     119.01
0.72000     31.000     65.504     82.804
0.72000     31.000     72.263     68.185
0.72000     31.000     77.995     51.965
0.72000     31.000     81.805     45.219
0.72000     31.000     87.904     41.940
0.72000     31.000     92.435     56.768
0.72000     31.000     96.788     68.204
0.72000     31.000     102.72     54.596
0.72000     31.000     106.79     39.046
0.72000     31.000     112.39     21.707
0.72000     31.000     117.53     14.682
0.72000     31.000     122.07     19.324
0.72000     31.000     126.92     37.138
0.72000     31.000     130.86     43.686
0.72000     31.000     134.97     60.380
0.72000     31.000     139.57     63.059
0.72000     31.000     144.01     53.741
0.72000     31.000     147.86     40.365
0.72000     31.000     151.93     29.071
0.72000     31.000     156.73     32.340
0.72000     31.000     161.07     39.680
0.72000     31.000     164.06     71.057
0.72000     36.000     13.151     300.23
0.72000     36.000     19.233     135.32
0.72000     36.000     25.061     32.688
0.72000     36.000     30.787     25.444
0.72000     36.000     36.340     37.996
0.72000     36.000     42.295     60.443
0.72000     36.000     48.166     60.126
0.72000     36.000     54.506     49.508
0.72000     36.000     59.627     35.175
0.72000     36.000     65.673     18.111
0.72000     36.000     71.442     11.999
0.72000     36.000     76.321     9.6704
0.72000     36.000     86.852     17.598
0.72000     36.000     91.615     21.898     2.4265
0.72000     36.000     95.749     27.244
0.72000     36.000     101.85     24.917
0.72000     36.000     106.99     16.738     3.5961
0.72000     36.000     112.50     13.398
0.72000     36.000     122.35     6.0879     8.3715
0.72000     36.000     126.80     10.981     1.7976
0.72000     36.000     131.01     22.626     2.6840
0.72000     36.000     135.19     24.129
0.72000     36.000     139.37     24.846
0.72000     36.000     143.79     23.358
0.72000     36.000     147.83     19.086
0.72000     36.000     152.49     15.818
0.72000     36.000     155.98     20.957
0.72000     36.000     160.48     31.728
0.72000     36.000     164.38     42.633
0.72000     41.000     14.268     160.76
0.72000     41.000     20.379     66.337
0.72000     41.000     24.489     19.376     26.174
0.72000     41.000     30.842     15.281     30.691
0.72000     41.000     36.711     32.976
0.72000     41.000     42.756     37.238
0.72000     41.000     48.225     34.765
0.72000     41.000     54.778     28.402
0.72000     41.000     59.928     18.386
0.72000     41.000     64.847     12.859
0.72000     41.000     72.340     7.2360     1.1989
0.72000     41.000     78.573     8.8921
0.72000     41.000     85.241     10.258
0.72000     41.000     92.531     12.173
0.72000     41.000     102.49     8.3489
0.72000     41.000     115.14     2.9568     4.9527
0.72000     41.000     121.19     3.2922     4.7114
0.72000     41.000     126.46     6.2140     6.9204
0.72000     41.000     131.27     6.5837     5.8032
0.72000     41.000     136.03     8.2014
0.72000     41.000     140.86     7.8187
0.72000     41.000     143.73     4.6808
0.72000     41.000     148.30     5.4343     5.2077
0.72000     41.000     152.40     7.4693
0.72000     41.000     156.52     10.052
0.72000     41.000     160.53     18.965
0.72000     41.000     165.08     23.958
0.72000     41.000     169.55     41.255
0.72000     45.000     18.304     51.369
0.72000     45.000     24.314     14.488     1.7589
0.72000     45.000     29.758     14.829     1.8003
0.72000     45.000     34.612     28.094
0.72000     45.000     41.060     33.673
0.72000     45.000     47.451     23.251
0.72000     45.000     52.946     19.755
0.72000     45.000     58.947     12.250
0.72000     45.000     65.269     10.868
0.72000     45.000     71.646     7.8898
0.72000     45.000     77.706     8.4316
0.72000     45.000     84.026     7.5341     2.9449
0.72000     45.000     91.546     8.2893
0.72000     45.000     102.08     3.1858
0.72000     45.000     115.23     1.8432     3.1450
0.72000     45.000     120.74     3.2050     1.8760
0.72000     45.000     126.31     4.3687     1.0202
0.72000     45.000     130.98     7.4332     2.0920
0.72000     45.000     135.43     6.2236     1.0720
0.72000     45.000     139.67     5.2479     3.7939
0.72000     45.000     143.58     3.2057     6.0113
0.72000     45.000     148.19     3.2802     5.3231
0.72000     45.000     152.41     2.9713     5.2164
0.72000     45.000     156.30     18.878     1.5472
0.72000     45.000     159.97     12.656
0.72000     45.000     163.62     19.612
0.72000     45.000     168.52     31.968
 1.7400     27.000     14.893     438.12
 1.7400     27.000     19.898     312.71
 1.7400     27.000     25.353     203.67
 1.7400     27.000     32.243     174.71
 1.7400     27.000     38.187     219.26
 1.7400     27.000     50.732     326.47
 1.7400     27.000     56.349     266.47
 1.7400     27.000     61.782     190.21
 1.7400     27.000     67.834     150.95
 1.7400     27.000     72.923     75.199
 1.7400     27.000     78.211     39.917     5.4023
 1.7400     27.000     82.861     52.246     4.9826
 1.7400     27.000     87.540     60.230     6.0027
 1.7400     27.000     92.639     71.934     5.7391
 1.7400     27.000     102.93     69.134     5.4826
 1.7400     27.000     107.86     68.251
 1.7400     27.000     112.82     60.190     6.0163
 1.7400     27.000     118.84     53.850
 1.7400     27.000     123.95     60.787
 1.7400     27.000     128.65     65.306
 1.7400     27.000     132.01     86.660
 1.7400     27.000     136.51     84.346
 1.7400     27.000     141.01     83.259
 1.7400     27.000     144.84     95.963     4.5921
 1.7400     27.000     149.80     82.858
 1.7400     27.000     157.37     150.11
 1.7400     27.000     161.34     229.41
 1.7400     27.000     164.93     289.78
 1.7400     27.000     170.04     331.75
 1.7400     31.000     19.011     328.77
 1.7400     31.000     24.711     184.99
 1.7400     31.000     30.732     166.72
 1.7400     31.000     37.506     237.33
 1.7400     31.000     48.661     220.27
 1.7400     31.000     54.210     93.555
 1.7400     31.000     60.105     57.277
 1.7400     31.000     66.281     26.103     2.9028
 1.7400     31.000     72.601     16.209     1.6763
 1.7400     31.000     79.293     12.874     1.4316
 1.7400     31.000     82.239     16.247     1.5547
 1.7400     31.000     86.905     51.159
 1.7400     31.000     91.558     66.433
 1.7400     31.000     97.103     73.921
 1.7400     31.000     101.65     59.095
 1.7400     31.000     106.21     45.611
 1.7400     31.000     111.93     23.259
 1.7400     31.000     117.41     13.178     1.3629
 1.7400     31.000     122.09     15.618     1.3747
 1.7400     31.000     127.07     31.144
 1.7400     31.000     131.71     42.781
 1.7400     31.000     135.48     62.592
 1.7400     31.000     140.19     64.000
 1.7400     31.000     144.27     59.715
 1.7400     31.000     149.27     43.574
 1.7400     31.000     152.55     32.689
 1.7400     31.000     156.82     35.603
 1.7400     31.000     161.21     56.684
 1.7400     31.000     164.96     90.233
 1.7400     36.000     13.692     425.16
 1.7400     36.000     18.551     223.80
 1.7400     36.000     24.930     107.62
 1.7400     36.000     31.469     65.631     1.2599
 1.7400     36.000     37.028     68.534     1.4754
 1.7400     36.000     43.578     101.52
 1.7400     36.000     49.806     94.810
 1.7400     36.000     55.440     71.289
 1.7400     36.000     61.534     46.617
 1.7400     36.000     67.280     21.493    0.71714
 1.7400     36.000     71.977     8.9835     1.7171
 1.7400     36.000     77.989     8.4483    0.67495
 1.7400     36.000     82.875     10.073    0.80474
 1.7400     36.000     87.727     14.006
 1.7400     36.000     93.017     18.546     1.0059
 1.7400     36.000     97.594     33.627
 1.7400     36.000     107.73     25.312
 1.7400     36.000     113.21     14.391     1.0497
 1.7400     36.000     118.21     10.303     1.2187
 1.7400     36.000     123.45     6.6423     3.4354
 1.7400     36.000     128.26     11.231
 1.7400     36.000     133.56     14.362     2.1540
 1.7400     36.000     137.32     21.862
 1.7400     36.000     142.29     17.625
 1.7400     36.000     145.60     11.518     1.3624
 1.7400     36.000     150.11     10.980     1.2988
 1.7400     36.000     154.44     9.2296     1.2370
 1.7400     36.000     158.87     4.8920    0.77317
 1.7400     36.000     162.85     7.0423     1.1702
 1.7400     36.000     166.80     11.989     1.6068
 1.7400     41.000     12.328     304.84
 1.7400     41.000     19.346     148.75
 1.7400     41.000     25.319     65.213
 1.7400     41.000     31.704     30.485     2.9233
 1.7400     41.000     37.886     34.709
 1.7400     41.000     43.790     52.166
 1.7400     41.000     49.810     47.288
 1.7400     41.000     61.353     20.613
 1.7400     41.000     67.088     9.9838
 1.7400     41.000     74.050     6.2507     1.6553
 1.7400     41.000     80.595     9.4632    0.99210
 1.7400     41.000     86.468     16.283
 1.7400     41.000     92.921     14.450
 1.7400     41.000     103.45     12.565
 1.7400     41.000     116.58     3.6513    0.41163
 1.7400     41.000     122.82     3.2632    0.47280
 1.7400     41.000     128.51     4.8694    0.62667
 1.7400     41.000     133.22     4.9101    0.67151
 1.7400     41.000     137.16     8.7508    0.91742
 1.7400     41.000     141.63     9.8181     1.0293
 1.7400     41.000     145.94     8.7080    0.77688
 1.7400     41.000     150.50     6.7947    0.82002
 1.7400     41.000     154.62     5.4933    0.66297
 1.7400     41.000     158.13     3.7428    0.57291
 1.7400     41.000     163.06     3.7743    0.45550
 1.7400     41.000     167.22     2.5176     1.2737
 1.7400     41.000     170.82     7.5458     1.9313
 1.7400     45.000     18.574     149.36
 1.7400     45.000     24.381     53.744
 1.7400     45.000     31.020     21.519     1.7639
 1.7400     45.000     36.936     30.532
 1.7400     45.000     43.490     44.261
 1.7400     45.000     49.742     37.114
 1.7400     45.000     55.409     24.435
 1.7400     45.000     61.103     14.257
 1.7400     45.000     66.686     5.3533
 1.7400     45.000     73.871     3.2376    0.28828
 1.7400     45.000     80.199     4.9326    0.13920
 1.7400     45.000     86.074     8.3595    0.94055
 1.7400     45.000     92.672     10.002
 1.7400     45.000     102.88     5.4417
 1.7400     45.000     115.93     2.3101    0.33404
 1.7400     45.000     121.97     1.9096    0.30742
 1.7400     45.000     127.64     3.1679    0.40689
 1.7400     45.000     132.31     3.8428    0.52450
 1.7400     45.000     136.71     5.7282    0.59935
 1.7400     45.000     141.62     6.3355     1.0724
 1.7400     45.000     145.15     3.9106    0.72741
 1.7400     45.000     149.42     4.1736    0.70645
 1.7400     45.000     153.37     2.7860    0.71155
 1.7400     45.000     157.60     3.5263    0.62631
 1.7400     45.000     162.20     2.2721    0.93888
 1.7400     45.000     166.15     3.8215    0.79902
 1.7400     45.000     170.40     4.5373    0.92309
 2.1500     27.000     13.750     230.66
 2.1500     27.000     19.802     212.24
 2.1500     27.000     25.908     157.95
 2.1500     27.000     31.449     196.99
 2.1500     27.000     37.917     191.84
 2.1500     27.000     49.741     206.59
 2.1500     27.000     55.838     159.28
 2.1500     27.000     61.273     130.85
 2.1500     27.000     66.943     99.450
 2.1500     27.000     72.798     85.253
 2.1500     27.000     78.048     62.095
 2.1500     27.000     83.614     70.640     1.8060
 2.1500     27.000     88.574     68.764     1.6253
 2.1500     27.000     93.699     35.408     1.0951
 2.1500     27.000     98.530     24.715     3.9593
 2.1500     27.000     103.89     26.567     4.2560
 2.1500     27.000     109.37     42.447     5.0880
 2.1500     27.000     113.64     49.656
 2.1500     27.000     119.03     48.687     3.2013
 2.1500     27.000     119.62     58.531
 2.1500     27.000     124.32     69.457
 2.1500     27.000     128.44     62.094    0.55026
 2.1500     27.000     132.52     64.404    0.42348
 2.1500     27.000     136.83     63.127    0.46286
 2.1500     27.000     141.75     72.311
 2.1500     27.000     145.53     46.351     4.3294
 2.1500     27.000     150.85     59.046
 2.1500     27.000     158.44     47.517     4.0791
 2.1500     27.000     163.21     96.550
 2.1500     27.000     166.79     129.18
 2.1500     27.000     171.04     162.20
 2.1500     31.000     20.861     200.05
 2.1500     31.000     26.941     163.36
 2.1500     31.000     32.996     147.23
 2.1500     31.000     39.888     146.46
 2.1500     31.000     50.892     134.03
 2.1500     31.000     56.167     86.746
 2.1500     31.000     61.449     54.582
 2.1500     31.000     67.148     36.338
 2.1500     31.000     73.851     32.524
 2.1500     31.000     79.661     33.035
 2.1500     31.000     83.526     34.496
 2.1500     31.000     88.822     49.466
 2.1500     31.000     93.156     44.246
 2.1500     31.000     99.838     43.093
 2.1500     31.000     104.43     32.786
 2.1500     31.000     108.58     25.117
 2.1500     31.000     112.93     21.690
 2.1500     31.000     118.54     20.103
 2.1500     31.000     123.46     23.501
 2.1500     31.000     128.15     28.657
 2.1500     31.000     132.44     31.000
 2.1500     31.000     137.38     32.152
 2.1500     31.000     141.53     25.514
 2.1500     31.000     145.27     18.474     1.4875
 2.1500     31.000     150.42     19.297     1.5537
 2.1500     31.000     154.38     13.778     1.3204
 2.1500     31.000     158.22     16.446     2.3537
 2.1500     31.000     162.61     28.313
 2.1500     31.000     167.00     47.058
 2.1500     36.000     12.916     280.92
 2.1500     36.000     19.226     220.28
 2.1500     36.000     25.097     177.61
 2.1500     36.000     31.221     124.51
 2.1500     36.000     37.108     94.928
 2.1500     36.000     43.163     86.214
 2.1500     36.000     49.052     65.271
 2.1500     36.000     54.515     48.383
 2.1500     36.000     60.671     30.114
 2.1500     36.000     65.269     22.631
 2.1500     36.000     71.324     20.554
 2.1500     36.000     76.379     14.007
 2.1500     36.000     81.272     17.547
 2.1500     36.000     87.333     15.605
 2.1500     36.000     102.42     14.715
 2.1500     36.000     107.34     16.714     1.0464
 2.1500     36.000     111.71     13.099    0.94480E-01
 2.1500     36.000     116.90     12.403     1.6651
 2.1500     36.000     122.06     12.597     1.6910
 2.1500     36.000     127.21     13.624    0.88569
 2.1500     36.000     131.46     16.827    0.18624
 2.1500     36.000     135.41     12.468    0.10923
 2.1500     36.000     139.98     10.628     1.0040
 2.1500     36.000     144.49     10.944    0.13825
 2.1500     36.000     148.69     7.5084     1.0677
 2.1500     36.000     152.41     5.8833     1.1248
 2.1500     36.000     157.17     5.3789     1.0806
 2.1500     36.000     161.48     11.959
 2.1500     36.000     165.44     19.679
 2.1500     41.000     11.213     200.41
 2.1500     41.000     17.345     141.12
 2.1500     41.000     23.841     124.55
 2.1500     41.000     29.753     88.943
 2.1500     41.000     35.906     58.366
 2.1500     41.000     41.795     45.042
 2.1500     41.000     47.525     28.732    0.21060
 2.1500     41.000     53.045     17.942
 2.1500     41.000     58.816     9.9394    0.15434
 2.1500     41.000     64.414     9.9568    0.33258
 2.1500     41.000     71.311     9.7693    0.93800E-01
 2.1500     41.000     77.773     9.7202    0.18584
 2.1500     41.000     84.407     11.216
 2.1500     41.000     91.556     9.6934
 2.1500     41.000     101.47     4.5395     1.4224
 2.1500     41.000     113.78     3.9296     1.6939
 2.1500     41.000     119.21     3.3705     2.1056
 2.1500     41.000     125.32     5.4938     1.0360
 2.1500     41.000     129.84     5.4629     1.0957
 2.1500     41.000     134.35     5.7070     1.1832
 2.1500     41.000     138.90     5.2513     1.0728
 2.1500     41.000     143.32     3.4442     1.3519
 2.1500     41.000     147.94     1.2059     4.2711
 2.1500     41.000     151.50     1.6817     4.2448
 2.1500     41.000     156.29     2.9403     3.6068
 2.1500     41.000     159.76     5.6320     1.0756
 2.1500     41.000     163.67     10.789     2.7977
 2.1500     41.000     168.22     9.7199     1.7926
 2.1500     45.000     18.208     128.36
 2.1500     45.000     24.342     89.986
 2.1500     45.000     30.052     61.737
 2.1500     45.000     36.211     39.724
 2.1500     45.000     42.706     35.255
 2.1500     45.000     47.985     24.184     2.3533
 2.1500     45.000     53.871     9.1054     1.3983
 2.1500     45.000     59.635     5.1881     1.8287
 2.1500     45.000     65.052     4.6358     1.4326
 2.1500     45.000     72.392     4.3575     1.2760
 2.1500     45.000     78.509     6.7507     1.5691
 2.1500     45.000     84.969     6.7648
 2.1500     45.000     92.198     4.4486    0.98145
 2.1500     45.000     102.00     1.4538    0.18770
 2.1500     45.000     114.95     2.7768    0.58529
 2.1500     45.000     120.67     3.8367    0.40353
 2.1500     45.000     126.04     4.0404    0.45697
 2.1500     45.000     130.51     4.8031    0.46739
 2.1500     45.000     135.28     4.2603     1.5428
 2.1500     45.000     139.68     3.1157     1.4651
 2.1500     45.000     144.04     2.5544     1.5080
 2.1500     45.000     148.55     2.6893     1.1874
 2.1500     45.000     153.07     1.3183    0.70723
 2.1500     45.000     156.40     3.9938     1.1331
 2.1500     45.000     161.25     2.7197     1.4024
 2.1500     45.000     164.78     4.2401    0.81788
 2.1500     45.000     168.98     6.2446    0.90812
 3.5900     27.000     18.776     241.41     2.3086
 3.5900     27.000     25.203     185.31     1.0300
 3.5900     27.000     37.390     119.60    0.59091
 3.5900     27.000     43.122     60.207     1.4650
 3.5900     27.000     49.456     59.934     1.1008
 3.5900     27.000     55.431     50.045     1.7462
 3.5900     27.000     61.092     55.731     1.9642
 3.5900     27.000     66.927     68.967    0.76647
 3.5900     27.000     72.595     75.202    0.60421
 3.5900     27.000     78.024     49.092     1.0740
 3.5900     27.000     83.097     48.164     1.0110
 3.5900     27.000     88.674     37.482
 3.5900     27.000     94.079     47.364     1.0638
 3.5900     27.000     98.945     83.253
 3.5900     27.000     104.20     88.872    0.21855
 3.5900     27.000     109.66     96.220    0.62803
 3.5900     27.000     114.21     125.89    0.10115
 3.5900     27.000     118.95     95.896    0.69794
 3.5900     27.000     119.91     69.437    0.55789
 3.5900     27.000     128.56     70.165    0.72520
 3.5900     27.000     132.15     68.799    0.60517
 3.5900     27.000     136.51     84.493    0.80802
 3.5900     27.000     140.06     95.346
 3.5900     27.000     144.44     109.15     1.0601
 3.5900     27.000     148.57     142.79
 3.5900     27.000     156.70     189.73    0.12384
 3.5900     27.000     160.68     116.20    0.73362
 3.5900     27.000     164.55     91.261    0.28606
 3.5900     31.000     24.804     173.03
 3.5900     31.000     38.845     233.51
 3.5900     31.000     49.044     55.291    0.65635
 3.5900     31.000     60.629     31.913
 3.5900     31.000     66.107     32.889
 3.5900     31.000     73.300     31.398
 3.5900     31.000     88.558     26.315
 3.5900     31.000     93.960     33.940
 3.5900     31.000     99.141     45.015
 3.5900     31.000     103.47     61.384
 3.5900     31.000     108.83     87.949
 3.5900     31.000     113.90     47.210
 3.5900     31.000     117.81     34.245
 3.5900     31.000     123.14     29.615
 3.5900     31.000     127.09     34.606
 3.5900     31.000     131.99     30.558
 3.5900     31.000     140.01     31.083
 3.5900     31.000     143.95     37.617
 3.5900     31.000     148.38     37.680
 3.5900     31.000     152.36     41.337
 3.5900     31.000     156.82     38.874
 3.5900     31.000     160.56     45.422
 3.5900     31.000     165.28     36.357
 3.5900     36.000     43.252     20.872     3.8986
 3.5900     36.000     49.507     26.326     3.4470
 3.5900     36.000     55.375     29.907
 3.5900     36.000     61.043     32.809
 3.5900     36.000     66.617     25.407
 3.5900     36.000     72.451     16.998
 3.5900     36.000     77.820     12.890     1.9267
 3.5900     36.000     88.584     12.940     1.7285
 3.5900     36.000     93.861     12.965     1.8345
 3.5900     36.000     104.19     13.665     1.2950
 3.5900     36.000     108.73     18.339     1.4955
 3.5900     36.000     113.63     16.094
 3.5900     36.000     118.65     18.278     1.0168
 3.5900     36.000     123.16     14.548     1.0669
 3.5900     36.000     127.57     15.514     1.3525
 3.5900     36.000     131.97     17.131     1.2372
 3.5900     36.000     136.72     12.631
 3.5900     36.000     141.03     9.7084    0.94638
 3.5900     36.000     145.03     10.138     1.3795
 3.5900     36.000     149.44     10.587     1.3124
 3.5900     36.000     153.25     10.528     1.2412
 3.5900     36.000     157.24     11.071     1.3051
 3.5900     36.000     161.08     9.6444     1.1370
 3.5900     36.000     165.69     10.875     1.1139
 3.5900     41.000     29.279     14.444     1.2536
 3.5900     41.000     35.576     15.986     1.4291
 3.5900     41.000     41.236     17.940    0.15891
 3.5900     41.000     52.987     11.873    0.13288
 3.5900     41.000     60.739     9.1052
 3.5900     41.000     64.775     13.075    0.11582
 3.5900     41.000     70.525     11.295
 3.5900     41.000     77.931     10.705
 3.5900     41.000     84.668     11.277    0.19889
 3.5900     41.000     91.431     10.991
 3.5900     41.000     101.52     6.8207
 3.5900     41.000     114.39     6.8063     1.7893
 3.5900     41.000     119.85     7.4248     1.8959
 3.5900     41.000     125.15     6.9811     1.3643
 3.5900     41.000     130.00     7.1442     1.9958
 3.5900     41.000     134.13     5.0596     1.2770
 3.5900     41.000     138.53     5.5563     1.9915
 3.5900     41.000     142.45     3.8521     1.4852
 3.5900     41.000     146.35     5.3038     1.2008
 3.5900     41.000     150.80     5.0206     1.6286
 3.5900     41.000     154.96     6.0014     1.2465
 3.5900     41.000     158.78     5.8014     1.4020
 3.5900     41.000     163.11     7.8213     2.1407
 3.5900     41.000     167.39     6.6110     2.1696
 3.5900     45.000     24.417     20.275     2.6309
 3.5900     45.000     36.559     27.181     2.0155
 3.5900     45.000     42.997     19.990
 3.5900     45.000     48.748     17.223
 3.5900     45.000     54.463     8.8959     1.3788
 3.5900     45.000     60.025     7.1825     1.1457
 3.5900     45.000     66.161     6.8956
 3.5900     45.000     72.262     7.3227    0.54705
 3.5900     45.000     79.316     5.6655    0.51162
 3.5900     45.000     85.362     7.0498    0.80458
 3.5900     45.000     92.652     5.0757    0.49837
 3.5900     45.000     102.78     2.8023     1.9741
 3.5900     45.000     116.14     7.8383    0.89457
 3.5900     45.000     121.41     4.4135    0.53926
 3.5900     45.000     126.76     6.6216    0.54613
 3.5900     45.000     131.49     5.1554    0.46555
 3.5900     45.000     135.18     3.7602    0.45943
 3.5900     45.000     139.79     4.1371     1.1058
 3.5900     45.000     143.93     1.5441     2.2231
 3.5900     45.000     147.43     3.6979     1.2656
 3.5900     45.000     152.32     3.3496     1.9904
 3.5900     45.000     156.21     8.7475    0.98994
 3.5900     45.000     160.14     6.1108     1.4647
 3.5900     45.000     164.67     4.6221     3.6438
 3.5900     45.000     168.70     2.3348     7.1577
 4.7700     27.000     14.353     88.170
 4.7700     27.000     19.840     111.35
 4.7700     27.000     26.489     109.31
 4.7700     27.000     32.960     97.277
 4.7700     27.000     38.900     63.585     1.5434
 4.7700     27.000     45.008     47.153     1.8600
 4.7700     27.000     51.348     33.297     1.9502
 4.7700     27.000     56.762     51.524     1.5178
 4.7700     27.000     62.101     54.226     1.5890
 4.7700     27.000     67.527     81.021
 4.7700     27.000     72.679     78.938
 4.7700     27.000     77.348     89.712
 4.7700     27.000     82.163     67.908     1.9567
 4.7700     27.000     87.835     51.421     1.5104
 4.7700     27.000     92.761     28.597     1.9744
 4.7700     27.000     98.203     40.968     1.8338
 4.7700     27.000     103.66     31.019     1.6890
 4.7700     27.000     108.79     31.964     2.2454
 4.7700     27.000     114.26     42.099     1.9242
 4.7700     27.000     119.99     49.571     1.1828
 4.7700     27.000     129.18     53.734     1.1557
 4.7700     27.000     132.81     54.953     1.3869
 4.7700     27.000     137.21     72.348     1.3461
 4.7700     27.000     140.78     49.622     1.9736
 4.7700     27.000     144.82     29.590     5.8960
 4.7700     31.000     20.323     78.514
 4.7700     31.000     26.532     79.801     1.8048
 4.7700     31.000     32.997     72.044
 4.7700     31.000     39.647     38.277
 4.7700     31.000     50.507     25.287
 4.7700     31.000     55.890     23.465     2.3221
 4.7700     31.000     66.520     29.865     1.9423
 4.7700     31.000     72.702     32.776     1.6269
 4.7700     31.000     79.412     27.027     1.1556
 4.7700     31.000     82.480     22.256
 4.7700     31.000     87.048     18.338     2.4651
 4.7700     31.000     92.656     16.550
 4.7700     31.000     103.12     18.319     1.3066
 4.7700     31.000     108.57     14.081
 4.7700     36.000     13.889     23.595     1.3547
 4.7700     36.000     19.914     21.895     1.3465
 4.7700     36.000     26.191     34.104     1.0399
 4.7700     36.000     32.375     37.176
 4.7700     36.000     38.521     24.314     1.6520
 4.7700     36.000     44.073     13.822     1.7459
 4.7700     36.000     49.964     10.181     1.6114
 4.7700     36.000     56.416     9.5155     1.8189
 4.7700     36.000     61.784     17.162
 4.7700     36.000     66.922     17.437
 4.7700     36.000     72.033     19.133
 4.7700     36.000     77.428     17.140
 4.7700     36.000     87.284     9.2281     1.9189
 4.7700     36.000     92.484     7.8163     2.1905
 4.7700     36.000     103.49     11.777     1.7689
 4.7700     36.000     149.50     14.069     1.5568
 4.7700     36.000     152.55     12.159     1.3456
 4.7700     36.000     157.32     10.370     1.6413
 4.7700     36.000     161.48     7.8501     1.6620
 4.7700     36.000     165.28     17.578
 4.7700     41.000     14.746     20.005     2.3668
 4.7700     41.000     20.545     19.213     4.1995
 4.7700     41.000     26.764     18.986     2.4865
 4.7700     41.000     33.153     21.319     1.7786
 4.7700     41.000     39.123     12.372     3.3972
 4.7700     41.000     45.025     8.7580     3.6501
 4.7700     41.000     56.713     6.2129     1.1911
 4.7700     41.000     62.472     6.7316     1.4051
 4.7700     41.000     67.357     7.6625     1.5562
 4.7700     41.000     74.278     6.3428     1.2160
 4.7700     41.000     79.961     4.5537     1.3669
 4.7700     41.000     93.931     4.0286     1.3229
 4.7700     41.000     117.90     2.3704     1.2013
 4.7700     41.000     123.82     3.0023     1.3598
 4.7700     41.000     129.59     1.6345     2.4679
 4.7700     41.000     134.83     2.3351     4.6108
 4.7700     41.000     138.18     5.5562     1.6263
 4.7700     41.000     142.38     7.2355     1.9401
 4.7700     41.000     145.94     9.0919     1.2027
 4.7700     41.000     150.25     8.5430     1.3024
 4.7700     41.000     153.63     9.8579     1.1850
 4.7700     41.000     157.77     7.9237     1.2735
 4.7700     41.000     162.11     6.7414     1.1281
 4.7700     45.000     21.682     11.175     1.2875
 4.7700     45.000     27.355     15.584     1.2786
 4.7700     45.000     33.890     11.390     1.3385
 4.7700     45.000     39.777     15.885     1.0070
 4.7700     45.000     45.184     7.3277     1.4204
 4.7700     45.000     51.648     6.5955     1.3165
 4.7700     45.000     56.893     4.8876     1.0590
 4.7700     45.000     62.831     5.8623     1.1702
 4.7700     45.000     68.091     4.1610     1.7427
 4.7700     45.000     74.875     2.7504     1.3592
 4.7700     45.000     86.671     5.0151     2.7791
 4.7700     45.000     129.60     4.0805     1.3068
 4.7700     45.000     138.96     5.0436     1.0613
 4.7700     45.000     150.76     4.7153     1.3022
 4.7700     45.000     155.11     2.1279     3.7367
 4.7700     45.000     168.11     4.9203     4.8354
 4.7700     45.000     172.40     2.6005     4.9777
ENDDATA            800
ENDSUBENT          813
SUBENT        F0534005   20050511   20050831                  F021
BIB                  3          4
REACTION   (6-C-13(P,A)5-B-10,PAR,DA)
ERR-ANALYS (ANG-ERR-D)Digitizing error
           (DATA-ERR1)Error from the graphic bars
STATUS     (CURVE)Fig.4(c)
ENDBIB               4
COMMON               2          3
ANG-ERR-D  ERR-DIG
ADEG       PER-CENT
 0.32       0.2
ENDCOMMON            3
DATA                 6        287
E-LVL-MIN  E-LVL-MAX  EN         ANG-CM     DATA-CM    DATA-ERR1
MEV        MEV        MEV        ADEG       MU-B/SR    MU-B/SR
 5.1600     5.1800     27.000     13.880     377.54
 5.1600     5.1800     27.000     19.991     475.08
 5.1600     5.1800     27.000     26.156     500.38
 5.1600     5.1800     27.000     32.738     542.32
 5.1600     5.1800     27.000     39.598     474.81
 5.1600     5.1800     27.000     45.569     469.04
 5.1600     5.1800     27.000     50.898     466.55
 5.1600     5.1800     27.000     51.983     437.76
 5.1600     5.1800     27.000     56.309     354.10
 5.1600     5.1800     27.000     67.452     289.14
 5.1600     5.1800     27.000     73.842     291.83
 5.1600     5.1800     27.000     78.822     224.64
 5.1600     5.1800     27.000     84.981     241.71
 5.1600     5.1800     27.000     89.731     196.94
 5.1600     5.1800     27.000     95.188     127.82
 5.1600     5.1800     27.000     100.52     128.04
 5.1600     5.1800     27.000     105.09     92.435
 5.1600     5.1800     27.000     109.90     123.96
 5.1600     5.1800     27.000     115.16     155.94
 5.1600     5.1800     27.000     120.67     176.32
 5.1600     5.1800     27.000     129.56     214.31
 5.1600     5.1800     27.000     133.01     183.46
 5.1600     5.1800     27.000     138.07     222.71
 5.1600     5.1800     27.000     141.35     167.72
 5.1600     5.1800     27.000     146.06     159.82
 5.1600     5.1800     27.000     157.91     210.28
 5.1600     5.1800     27.000     166.27     364.78
 5.1600     5.1800     31.000     20.061     520.39
 5.1600     5.1800     31.000     26.427     571.38
 5.1600     5.1800     31.000     32.655     487.06
 5.1600     5.1800     31.000     39.757     387.11
 5.1600     5.1800     31.000     49.002     295.17
 5.1600     5.1800     31.000     56.496     129.07
 5.1600     5.1800     31.000     61.859     114.73
 5.1600     5.1800     31.000     73.750     132.57
 5.1600     5.1800     31.000     79.569     106.81
 5.1600     5.1800     31.000     83.194     106.19
 5.1600     5.1800     31.000     89.313     130.47
 5.1600     5.1800     31.000     94.045     112.73
 5.1600     5.1800     31.000     98.820     84.634
 5.1600     5.1800     31.000     104.44     64.456
 5.1600     5.1800     31.000     108.59     93.686
 5.1600     5.1800     31.000     114.22     69.861
 5.1600     5.1800     31.000     128.29     69.692
 5.1600     5.1800     31.000     131.94     63.234
 5.1600     5.1800     31.000     136.40     65.592
 5.1600     5.1800     31.000     141.31     65.237
 5.1600     5.1800     31.000     145.54     71.580
 5.1600     5.1800     31.000     149.01     58.856
 5.1600     5.1800     31.000     154.35     56.523
 5.1600     5.1800     31.000     157.07     67.444
 5.1600     5.1800     31.000     161.71     79.402
 5.1600     5.1800     31.000     165.48     48.600
 5.1600     5.1800     31.000     169.82     74.731
 5.1600     5.1800     36.000     13.187     306.18
 5.1600     5.1800     36.000     18.470     355.35
 5.1600     5.1800     36.000     25.061     374.04
 5.1600     5.1800     36.000     31.081     314.54
 5.1600     5.1800     36.000     36.718     229.88
 5.1600     5.1800     36.000     42.785     165.70
 5.1600     5.1800     36.000     49.083     112.93
 5.1600     5.1800     36.000     55.088     99.740
 5.1600     5.1800     36.000     61.070     95.153
 5.1600     5.1800     36.000     67.312     77.812
 5.1600     5.1800     36.000     71.597     72.140
 5.1600     5.1800     36.000     76.974     61.509
 5.1600     5.1800     36.000     83.195     53.951
 5.1600     5.1800     36.000     98.744     55.382
 5.1600     5.1800     36.000     103.40     30.785
 5.1600     5.1800     36.000     108.01     39.681
 5.1600     5.1800     36.000     112.58     29.607
 5.1600     5.1800     36.000     117.46     30.929
 5.1600     5.1800     36.000     122.81     29.500
 5.1600     5.1800     36.000     131.48     35.749
 5.1600     5.1800     36.000     149.01     30.819
 5.1600     5.1800     36.000     156.42     35.794
 5.1600     5.1800     36.000     163.56     24.920
 5.1600     5.1800     41.000     14.511     244.88
 5.1600     5.1800     41.000     19.825     255.99
 5.1600     5.1800     41.000     25.790     258.34
 5.1600     5.1800     41.000     31.805     221.52
 5.1600     5.1800     41.000     37.952     125.06
 5.1600     5.1800     41.000     41.362     125.21
 5.1600     5.1800     41.000     43.404     84.267
 5.1600     5.1800     41.000     50.878     80.398
 5.1600     5.1800     41.000     60.630     48.097
 5.1600     5.1800     41.000     66.823     46.195
 5.1600     5.1800     41.000     73.684     40.473
 5.1600     5.1800     41.000     80.417     27.090
 5.1600     5.1800     41.000     86.444     22.421
 5.1600     5.1800     41.000     93.714     20.792
 5.1600     5.1800     41.000     103.27     22.874
 5.1600     5.1800     41.000     116.59     16.356
 5.1600     5.1800     41.000     121.84     10.788
 5.1600     5.1800     41.000     141.04     19.692
 5.1600     5.1800     41.000     148.13     16.419
 5.1600     5.1800     41.000     155.76     18.702
 5.1600     5.1800     41.000     160.01     19.682
 5.1600     5.1800     45.000     18.851     235.15
 5.1600     5.1800     45.000     23.511     130.47
 5.1600     5.1800     45.000     30.076     148.88
 5.1600     5.1800     45.000     36.373     102.59
 5.1600     5.1800     45.000     43.168     56.147
 5.1600     5.1800     45.000     48.366     43.089
 5.1600     5.1800     45.000     54.817     35.811
 5.1600     5.1800     45.000     60.781     36.147
 5.1600     5.1800     45.000     65.539     28.961
 5.1600     5.1800     45.000     72.832     24.959
 5.1600     5.1800     45.000     79.198     13.757
 5.1600     5.1800     45.000     85.679     10.411     1.4835
 5.1600     5.1800     45.000     93.368     9.8550    0.74932
 5.1600     5.1800     45.000     126.78     11.602
 5.1600     5.1800     45.000     135.14     9.9313    0.83181
 5.1600     5.1800     45.000     148.09     11.359     1.0042
 5.1600     5.1800     45.000     151.78     18.698
 5.1600     5.1800     45.000     163.39     26.725
 5.1600     5.1800     45.000     167.67     6.3358     2.6932
 5.9200     6.0300     27.000     14.465     592.00
 5.9200     6.0300     27.000     20.638     734.49
 5.9200     6.0300     27.000     26.580     582.92
 5.9200     6.0300     27.000     32.407     609.96
 5.9200     6.0300     27.000     39.327     566.08
 5.9200     6.0300     27.000     44.492     644.73
 5.9200     6.0300     27.000     50.748     655.91
 5.9200     6.0300     27.000     56.460     546.99
 5.9200     6.0300     27.000     62.373     466.01
 5.9200     6.0300     27.000     68.667     432.35
 5.9200     6.0300     27.000     73.509     392.41
 5.9200     6.0300     27.000     80.030     348.94
 5.9200     6.0300     27.000     84.504     464.36
 5.9200     6.0300     27.000     90.148     455.82
 5.9200     6.0300     27.000     95.572     460.26
 5.9200     6.0300     27.000     100.31     535.38
 5.9200     6.0300     27.000     105.42     421.73
 5.9200     6.0300     27.000     109.71     322.79
 5.9200     6.0300     27.000     119.84     249.52
 5.9200     6.0300     27.000     120.63     275.66
 5.9200     6.0300     27.000     129.51     349.82
 5.9200     6.0300     27.000     133.67     358.06
 5.9200     6.0300     27.000     138.12     511.49
 5.9200     6.0300     27.000     142.76     454.43
 5.9200     6.0300     27.000     146.21     579.26
 5.9200     6.0300     27.000     166.96     469.63
 5.9200     6.0300     31.000     17.618     448.50
 5.9200     6.0300     31.000     24.306     440.53
 5.9200     6.0300     31.000     30.776     441.83
 5.9200     6.0300     31.000     38.957     402.10
 5.9200     6.0300     31.000     48.959     421.26
 5.9200     6.0300     31.000     54.718     186.25
 5.9200     6.0300     31.000     60.511     211.81
 5.9200     6.0300     31.000     66.462     273.24
 5.9200     6.0300     31.000     72.906     175.11
 5.9200     6.0300     31.000     79.100     207.72
 5.9200     6.0300     31.000     83.271     209.58
 5.9200     6.0300     31.000     112.73     119.66
 5.9200     6.0300     31.000     117.68     82.767
 5.9200     6.0300     31.000     122.02     91.468
 5.9200     6.0300     31.000     130.82     140.74
 5.9200     6.0300     31.000     136.29     127.92
 5.9200     6.0300     31.000     138.89     170.64
 5.9200     6.0300     31.000     144.52     171.08
 5.9200     6.0300     31.000     151.92     230.31
 5.9200     6.0300     31.000     156.50     235.69
 5.9200     6.0300     31.000     159.96     174.72
 5.9200     6.0300     36.000     13.096     534.29
 5.9200     6.0300     36.000     25.775     365.89
 5.9200     6.0300     36.000     37.328     306.70
 5.9200     6.0300     36.000     43.579     316.29
 5.9200     6.0300     36.000     49.237     299.86
 5.9200     6.0300     36.000     54.923     265.10
 5.9200     6.0300     36.000     60.652     211.05
 5.9200     6.0300     36.000     66.978     180.23
 5.9200     6.0300     36.000     72.885     154.96
 5.9200     6.0300     36.000     77.581     119.91
 5.9200     6.0300     36.000     83.572     83.605
 5.9200     6.0300     36.000     89.207     83.818
 5.9200     6.0300     36.000     99.139     104.56
 5.9200     6.0300     36.000     108.79     92.604
 5.9200     6.0300     36.000     113.43     81.831
 5.9200     6.0300     36.000     117.95     98.334
 5.9200     6.0300     36.000     123.16     101.36
 5.9200     6.0300     36.000     131.73     98.948
 5.9200     6.0300     36.000     140.73     55.241
 5.9200     6.0300     36.000     149.27     58.642
 5.9200     6.0300     36.000     154.07     58.769
 5.9200     6.0300     36.000     157.59     63.566
 5.9200     6.0300     36.000     165.11     62.897
 5.9200     6.0300     41.000     11.826     383.69
 5.9200     6.0300     41.000     17.916     350.97
 5.9200     6.0300     41.000     24.212     323.35
 5.9200     6.0300     41.000     30.536     277.56
 5.9200     6.0300     41.000     36.438     241.61
 5.9200     6.0300     41.000     42.923     233.91
 5.9200     6.0300     41.000     48.415     199.30
 5.9200     6.0300     41.000     53.933     159.33
 5.9200     6.0300     41.000     59.471     121.23
 5.9200     6.0300     41.000     65.192     98.313
 5.9200     6.0300     41.000     72.146     83.821
 5.9200     6.0300     41.000     78.899     69.958
 5.9200     6.0300     41.000     85.240     57.557
 5.9200     6.0300     41.000     93.029     49.092
 5.9200     6.0300     41.000     102.67     44.979
 5.9200     6.0300     41.000     114.74     49.238
 5.9200     6.0300     41.000     120.63     44.089
 5.9200     6.0300     41.000     125.84     45.143
 5.9200     6.0300     41.000     130.23     44.916
 5.9200     6.0300     41.000     139.72     35.220
 5.9200     6.0300     41.000     142.96     26.581
 5.9200     6.0300     41.000     147.99     25.535
 5.9200     6.0300     41.000     151.63     33.943
 5.9200     6.0300     41.000     156.26     31.027
 5.9200     6.0300     41.000     159.88     43.644
 5.9200     6.0300     45.000     17.666     274.19
 5.9200     6.0300     45.000     23.742     259.60
 5.9200     6.0300     45.000     30.656     244.12
 5.9200     6.0300     45.000     35.726     210.39
 5.9200     6.0300     45.000     41.611     190.76
 5.9200     6.0300     45.000     47.370     140.39
 5.9200     6.0300     45.000     53.132     102.57
 5.9200     6.0300     45.000     58.669     78.239
 5.9200     6.0300     45.000     64.506     47.412
 5.9200     6.0300     45.000     71.394     47.568
 5.9200     6.0300     45.000     77.768     36.038
 5.9200     6.0300     45.000     84.610     40.567
 5.9200     6.0300     45.000     91.244     27.004
 5.9200     6.0300     45.000     100.74     20.786
 5.9200     6.0300     45.000     113.69     35.109
 5.9200     6.0300     45.000     119.36     32.292
 5.9200     6.0300     45.000     124.96     35.298
 5.9200     6.0300     45.000     129.48     24.685
 5.9200     6.0300     45.000     133.52     20.661
 5.9200     6.0300     45.000     138.46     14.768
 5.9200     6.0300     45.000     142.77     10.476     1.2854
 5.9200     6.0300     45.000     147.05     13.700     1.0385
 5.9200     6.0300     45.000     150.95     26.992
 5.9200     6.0300     45.000     162.27     69.150
 5.9200     6.0300     45.000     167.75     60.908
 7.4800     7.5600     27.000     13.590     214.48     1.6935
 7.4800     7.5600     27.000     19.115     336.31
 7.4800     7.5600     27.000     25.580     272.74
 7.4800     7.5600     27.000     37.194     311.74
 7.4800     7.5600     27.000     43.549     321.77
 7.4800     7.5600     27.000     49.191     390.84
 7.4800     7.5600     27.000     55.695     291.09
 7.4800     7.5600     27.000     61.167     203.28
 7.4800     7.5600     27.000     66.235     215.71
 7.4800     7.5600     27.000     72.645     197.35
 7.4800     7.5600     27.000     78.891     162.31
 7.4800     7.5600     27.000     83.668     204.18
 7.4800     7.5600     27.000     88.896     153.05     1.5931
 7.4800     7.5600     27.000     93.980     156.75     1.3726
 7.4800     7.5600     27.000     98.822     171.11     1.7392
 7.4800     7.5600     27.000     104.20     91.897     2.5826
 7.4800     7.5600     31.000     19.025     374.19
 7.4800     7.5600     31.000     25.408     362.45
 7.4800     7.5600     31.000     30.815     290.50
 7.4800     7.5600     31.000     37.819     182.39
 7.4800     7.5600     31.000     49.203     135.75
 7.4800     7.5600     31.000     54.651     62.158
 7.4800     7.5600     31.000     60.845     91.619
 7.4800     7.5600     31.000     66.490     110.98
 7.4800     7.5600     31.000     73.271     71.151
 7.4800     7.5600     31.000     83.405     80.539
 7.4800     7.5600     31.000     88.176     103.13
 7.4800     7.5600     31.000     93.694     40.486
 7.4800     7.5600     31.000     116.54     48.094
 7.4800     7.5600     31.000     121.49     41.621
 7.4800     7.5500     41.000     19.500     194.60
 7.4800     7.5500     41.000     26.275     202.36
 7.4800     7.5500     41.000     36.163     94.676
 7.4800     7.5500     41.000     42.545     56.780
 7.4800     7.5500     41.000     55.042     60.497
 7.4800     7.5500     41.000     60.886     46.912
 7.4800     7.5500     41.000     66.726     36.639
 7.4800     7.5500     41.000     73.277     39.200
 7.4800     7.5500     41.000     80.223     27.717
 7.4800     7.5500     41.000     86.036     23.084
 7.4800     7.5500     41.000     93.166     17.408     1.1843
 7.4800     7.5500     41.000     103.48     13.242     1.8371
 7.4800     7.5500     41.000     115.40     19.875
 7.4800     7.5500     41.000     120.48     20.503
 7.4800     7.5500     41.000     125.95     22.723
 7.4800     7.5500     41.000     130.57     25.717     1.7946
 7.4800     7.5500     41.000     140.26     11.691     2.1895
 7.4800     7.5500     41.000     149.33     13.261     2.3164
 7.4800     7.5500     41.000     153.61     19.687
 7.4800     7.5500     41.000     157.50     27.402
ENDDATA            289
ENDSUBENT          302
SUBENT        F0534006   20050511   20050831                  F021
BIB                  3          3
REACTION   (6-C-13(P,A)5-B-10,PAR,IPA)
ERR-ANALYS (EN-ERR-DIG)Digitizing error
STATUS     (CURVE)Fig.5
ENDBIB               3
COMMON               4          3
EN-ERR-DIG ERR-DIG    ANG-CM-MIN ANG-CM-MAX
MEV        PER-CENT   ADEG       ADEG
 0.1        0.23       0.         90.
ENDCOMMON            3
DATA                 3         41
E-LVL      EN         DATA-CM
MEV        MEV        MICRO-B
 0.0000     17.844     4470.8
 0.0000     22.283     5487.3
 0.0000     26.716     4240.6
 0.0000     30.825     2827.7
 0.0000     36.112     2358.7
 0.0000     41.170     1540.6
 0.0000     45.121     1236.2
0.72000     17.770     1001.8
0.72000     22.327     960.16
0.72000     30.834     480.43
0.72000     36.382     240.81
0.72000     41.340     138.58
0.72000     45.234     96.256
 1.7400     17.672     1870.0
 1.7400     22.284     1424.6
 1.7400     26.649     1022.8
 1.7400     30.829     599.15
 1.7400     36.280     350.00
 1.7400     41.220     236.82
 1.7400     45.144     149.26
 2.1500     17.647     1120.3
 2.1500     22.253     833.59
 2.1500     26.837     796.37
 2.1500     30.832     529.46
 2.1500     36.278     381.20
 2.1500     41.188     212.37
 2.1500     45.141     164.98
 3.5900     17.673     1706.9
 3.5900     22.228     1285.1
 3.5900     26.980     569.32
 3.5900     30.732     400.26
 3.5900     36.361     160.87
 3.5900     41.421     94.229
 3.5900     45.125     76.278
 4.7700     17.691     1223.8
 4.7700     22.315     588.94
 4.7700     26.849     396.33
 4.7700     30.878     193.99
 4.7700     36.465     98.679
 4.7700     41.476     46.346
 4.7700     45.377     38.753
ENDDATA             43
ENDSUBENT           55
SUBENT        F0534007   20050511   20050831                  F021
BIB                  3          3
REACTION   (6-C-13(P,A)5-B-10,PAR,SIG)
ERR-ANALYS (EN-ERR-DIG)Digitizing error
STATUS     (CURVE)Fig.5
ENDBIB               3
COMMON               2          3
EN-ERR-DIG ERR-DIG
MEV        PER-CENT
 0.1        0.22
ENDCOMMON            3
DATA                 4         17
E-LVL-MIN  E-LVL-MAX  EN         DATA
MEV        MEV        MEV        MICRO-B
 5.1600     5.1800     17.770     3491.1
 5.1600     5.1800     22.217     2829.0
 5.1600     5.1800     26.888     2135.5
 5.1600     5.1800     30.813     1386.7
 5.1600     5.1800     36.044     802.88
 5.1600     5.1800     41.272     474.47
 5.1600     5.1800     45.240     300.82
 5.9200     6.0300     22.306     4209.9
 5.9200     6.0300     26.790     3085.6
 5.9200     6.0300     30.860     1839.7
 5.9200     6.0300     36.092     1455.3
 5.9200     6.0300     41.219     947.78
 5.9200     6.0300     44.866     756.01
 7.4800     7.5600     22.204     1755.8
 7.4800     7.5600     26.645     1352.9
 7.4800     7.5600     30.744     811.41
 7.4800     7.5600     41.031     390.65
ENDDATA             19
ENDSUBENT           31
ENDENTRY             7
