ENTRY            F0542   20030422   20030930
SUBENT        F0542001   20030422   20030930
BIB                 10         18
TITLE      Spectroscopic information on 13,14C,15N,17O,29-31Si,
           33S,38Cl and 111,113,115,117Cd from the (d,p) reaction
AUTHOR     (S.PISKOR,W.SCHAFERLINGOVA)
INSTITUTE  (3CZRUJF)
REFERENCE  (J,NP/A,510,301,1990)
FACILITY   (CYCLO)
DETECTOR   (PLATE) A 700 mm long nuclear emulsion plates Ilford
           L4 located in the focal planes of the spectrograph
           channels and covered by the Teflon-coated aluminium
           absorbers to remove the heavier products of competing
           reactions
SAMPLE     Two natural chlorine targets of approximately 50 mu-g/
           cm**2 thickness were made by evaporation of CdCl2 on
           10 mu-g/cm**2 carbon backing.
EN-SEC     (E-LVL,17-CL-38)
ERR-ANALYS (ERR-1) normalization is estimated as arising from
           target thicknesses
HISTORY    (20010424C)
ENDBIB              18
COMMON               2          3
EN         ERR-1
MEV        PER-CENT
  12.3       10.0
ENDCOMMON            3
ENDSUBENT           25
SUBENT        F0542002   20030422   20030930
BIB                  3          5
REACTION   (17-CL-37(D,P)17-CL-38,PAR,DA)
ERR-ANALYS (ANG-ERR) Digitizing error
           (DATA-ERR) Digitizing error
           (ERR-S) Statistical error
STATUS     (CURVE) Fig.2
ENDBIB               5
COMMON               2          3
ANG-ERR    DATA-ERR
ADEG       PER-CENT
 0.4         0.5
ENDCOMMON            3
DATA                 4        138
E-LVL      ANG-CM     DATA-CM    ERR-S
KEV        ADEG       MB/SR      MB/SR
  670.9      3.193     0.9302     0.2181
  670.9      11.79      1.331     0.3712
  670.9      15.33      1.651     0.1959
  670.9      18.61      2.120     0.3888
  670.9      27.48      2.636     0.2930
  670.9      31.16      2.742     0.3082
  670.9      34.02      2.515     0.3394
  670.9      45.89      1.160     0.2268
  755.5      3.522      3.148     0.4983
  755.5      12.41      3.662     0.4915
  755.5      15.59      3.364     0.4598
  755.5      19.19      2.724     0.4090
  755.5      34.27      1.506     0.3262
  755.5      46.02     0.8757     0.5142
  1617.      1.380      9.007
  1617.      12.97      10.75
  1617.      16.92      8.846
  1617.      28.81      1.985     0.2175
  1617.      32.64      1.545     0.4246
  1617.      44.41      1.378     0.3786
  1692.      1.318      8.169
  1692.      13.47      9.781
  1692.      16.90      7.885
  1692.      28.26      1.835     0.2614
  1692.      32.66      1.419     0.2362
  1692.      44.39      1.487     0.2968
  1746.      2.511      3.549
  1746.      14.45      4.387
  1746.      18.08      3.639
  1746.      29.08     0.7474     0.3792
  1746.      33.55     0.6695     0.3841
  1981.      1.039      11.89
  1981.      12.87      14.05
  1981.      16.70      11.94
  1981.      28.59      2.553     0.3595
  1981.      32.29      2.044     0.2893
  1981.      43.60      1.838     0.3784
  2743.     0.5408      12.23
  2743.      2.608      11.48
  2743.      12.53      11.51
  2743.      14.32      10.80
  2743.      15.98      9.659
  2743.      18.05      8.110
  2743.      29.76      2.064     0.4088
  2743.      31.69      1.833     0.3330
  2743.      42.99      1.902     0.3455
  2895.      13.28      1.854     0.3355
  2895.      15.42      1.454     0.3093
  2895.      16.63      1.301     0.3321
  2895.      19.48      1.179     0.2588
  2895.      30.29     0.2965     0.1106
  3254.      1.738      2.063     0.1897
  3254.      3.496      1.566     0.2946
  3254.      9.164      1.969
  3254.      12.10      1.903     0.4052
  3254.      15.54      1.436     0.3668
  3254.      19.42      1.177     0.4171
  3254.      27.82     0.6041     0.2128
  3254.      31.18     0.5721     0.2354
  3254.      43.16     0.4036     0.1661
  3294.      4.236      3.121     0.4786
  3294.      12.19      2.818     0.6519
  3294.      15.86      2.322     0.3286
  3294.      19.39      1.823     0.5011
  3294.      27.80     0.9786     0.2574
  3294.      31.49     0.9012     0.2007
  3294.      35.44     0.7125     0.2543
  3294.      43.13     0.7187     0.2430
  3404.      3.374      2.475     0.4466
  3404.      11.51      2.253     0.4812
  3404.      15.51      1.859     0.3355
  3404.      19.23      1.345     0.3683
  3404.      30.96     0.5352     0.2106
  3404.      35.10     0.4967     0.2198
  3404.      41.99     0.4019     0.1992
  3685.     0.6072      4.014     0.5162
  3685.      4.331      3.897     0.7577
  3685.      16.01      3.052     0.5438
  3685.      30.40     0.5810     0.1723
  3685.      42.23     0.5585     0.2168
  3756.     0.6163      1.940     0.3045
  3756.      4.699      1.920     0.4531
  3756.      16.36      1.285     0.3254
  3756.      30.26     0.4592     0.2192
  3756.      41.95     0.3798     0.2044
  3822.      1.862      5.497     0.3784
  3822.      5.415      5.385      1.526
  3822.      12.11      5.204      1.150
  3822.      15.75      3.833     0.5875
  3822.      17.23      3.302     0.5608
  3822.      20.90      2.948     0.5007
  3822.      30.43      1.074     0.2655
  3822.      42.16     0.8693     0.2385
  3893.     0.9501      13.92
  3893.      4.475      13.80
  3893.      10.98      12.24
  3893.      14.92      8.781
  3893.      16.41      7.752
  3893.      20.07      6.295
  3893.      26.44      2.803     0.6438
  3893.      41.49      1.650     0.4646
  3936.     0.8858      1.998     0.3603
  3936.      4.435      1.857     0.3510
  3936.      10.72      1.616     0.4566
  3936.      14.81     0.9654     0.2392
  3936.      16.45     0.9736     0.2244
  3936.      20.27     0.8567     0.2496
  3936.      32.42     0.3267     0.1193
  3974.     0.6382      6.457     0.2461
  3974.      4.290      7.638     0.4331
  3974.      10.72      6.248     0.2944
  3974.      14.50      5.256     0.2819
  3974.      16.32      3.827     0.2053
  3974.      20.23      3.378     0.1916
  3974.      29.88      1.200     0.2962
  3974.      32.40      1.016     0.2863
  4011.     0.5984      3.938     0.4391
  4011.      4.149      3.833     0.4976
  4011.      10.03      3.029     0.5011
  4011.      13.85      3.318     0.4692
  4011.      16.05      2.378     0.4715
  4011.      20.18      1.503     0.3880
  4011.      29.76     0.9193     0.1987
  4011.      32.36     0.8229     0.3025
  4063.     0.7076      2.685     0.4286
  4063.      4.375      3.020     0.4645
  4063.      11.36      2.349     0.5654
  4063.      14.70      1.484     0.6026
  4063.      20.84      1.308     0.4077
  4063.      36.80     0.4028     0.1637
  4286.      9.807      2.327     0.4434
  4286.      13.52      2.247     0.4470
  4286.      16.95      1.350     0.3261
  4286.      19.97      1.370     0.4283
  4286.      24.78     0.8582     0.3248
  4286.      29.31     0.6270     0.3193
  4286.      32.75     0.4486     0.1555
  4286.      40.85     0.4069     0.1904
ENDDATA            140
ENDSUBENT          154
ENDENTRY             2
