ENTRY            F0594   20040401
SUBENT        F0594001   20040401
BIB                  9         13
TITLE      l-dependent resonance absorption in the optical model
           description of alpha particle elastic scattering.
AUTHOR     (K.Chyla,L.Jarczyk,B.Maciuk,W.Zipper)
INSTITUTE  (3POLPOL)
REFERENCE  (J,APP/B,7,523,1976)
FACILITY   (CYCLO,3POLIFJ) U-120
METHOD     The experimental arrangement was included in earlier
           papers (R,INP-577/PL,1967),(T,K.Chyla,1972).
ANALYSIS   Optical model analysis with l-dependent resonance
           absorption.
ERR-ANALYS (ANG-ERR-D)    Digitizing error
           (ERR-DIG)   Digitizing error
HISTORY    (20031031C)
ENDBIB              13
NOCOMMON
ENDSUBENT           16
SUBENT        F0594002   20040401
BIB                  2          2
REACTION   (14-SI-28(A,EL)14-SI-28,,DA)
STATUS     (CURVE)Fig.1
ENDBIB               2
COMMON               2          3
ANG-ERR-D  ERR-DIG
ADEG       PER-CENT
 0.2        0.1
ENDCOMMON            3
DATA                 3        400
EN         ANG-CM     DATA-CM
MEV        ADEG       MB/SR
 23.500     150.80     1.6000
 23.500     152.60     2.5070
 23.500     156.80     3.0230
 23.500     161.60     1.6600
 23.500     162.20    0.75630
 23.500     165.20    0.13020
 23.500     167.60    0.30790
 23.500     171.20     1.9280
 23.500     171.20     5.2980
 23.500     173.00     11.200
 23.500     176.10     17.550
 24.000     35.340     57.580
 24.000     38.280     18.720
 24.000     40.110     34.060
 24.000     44.330     49.480
 24.000     46.720     41.020
 24.000     48.450     9.8840
 24.000     50.760     1.7000
 24.000     53.730    0.89920
 24.000     57.420     5.2210
 24.000     58.650     10.630
 24.000     64.650     9.8530
 24.000     68.210     5.0190
 24.000     70.560     1.7580
 24.000     72.910    0.59350
 24.000     75.940     1.0400
 24.000     77.760     1.8230
 24.000     80.770     2.1970
 24.000     85.550     1.2990
 24.000     87.910    0.57000
 24.000     89.070    0.25960
 24.000     94.470    0.26920
 24.000     96.900    0.47190
 24.000     98.110    0.59060
 24.000     101.70    0.68550
 24.000     105.30    0.65980
 24.000     107.10    0.43690
 24.000     109.40    0.19900
 24.000     111.80    0.15300
 24.000     115.50    0.25830
 24.000     116.70    0.56680
 24.000     119.70     1.0310
 24.000     123.90    0.99250
 24.000     126.30    0.73530
 24.000     128.70    0.32250
 24.000     131.60    0.11730
 24.000     133.50    0.22160
 24.000     136.50    0.48610
 24.000     137.70    0.88470
 24.000     143.70    0.95240
 24.000     145.50    0.76050
 24.000     147.30    0.32140
 24.000     149.10    0.22090
 24.000     153.20    0.21260
 24.000     153.90    0.52210
 24.000     155.70    0.91530
 24.000     158.70     1.1890
 24.000     161.10     1.0230
 24.000     162.90    0.58320
 24.000     164.60    0.15720
 24.000     166.40    0.10030
 24.000     169.50    0.52060
 24.000     172.00     2.1580
 24.000     173.80     5.3000
 24.000     176.20     7.4200
 24.500     152.00    0.12410
 24.500     154.50    0.38150
 24.500     155.70    0.55470
 24.500     157.50    0.74830
 24.500     162.90    0.66840
 24.500     165.20    0.27210
 24.500     169.40    0.30430
 24.500     170.10     1.0470
 24.500     172.50     2.7700
 24.500     173.70     4.5060
 24.500     176.10     7.8980
 25.000     28.900     267.80
 25.000     31.910     97.460
 25.000     34.920     28.330
 25.000     36.730     21.800
 25.000     39.720     47.870
 25.000     43.320     53.570
 25.000     45.720     30.550
 25.000     48.140     9.2210
 25.000     51.170    0.51620
 25.000     54.150     3.8990
 25.000     55.940     9.9420
 25.000     60.130     13.930
 25.000     61.940     10.320
 25.000     65.540     7.3720
 25.000     67.350     2.0640
 25.000     70.370    0.53640
 25.000     73.360     1.5310
 25.000     74.550     2.6840
 25.000     78.750     2.5860
 25.000     80.550     2.0660
 25.000     83.560     1.0140
 25.000     84.780    0.34250
 25.000     87.780    0.27360
 25.000     90.170    0.53690
 25.000     94.970    0.62380
 25.000     95.570    0.48000
 25.000     99.170    0.42900
 25.000     101.60    0.67250
 25.000     105.20     1.0540
 25.000     108.80    0.72500
 25.000     110.60    0.49860
 25.000     113.00    0.18150
 25.000     115.40    0.79640E-01
 25.000     117.20    0.42940
 25.000     119.60    0.97860
 25.000     123.80     1.6530
 25.000     127.40     1.2260
 25.000     129.20    0.69900
 25.000     131.60    0.35630
 25.000     134.60    0.76780E-01
 25.000     137.60    0.14510
 25.000     138.80    0.42980
 25.000     140.00    0.69940
 25.000     144.80    0.90910
 25.000     147.80    0.69960
 25.000     150.20    0.46350
 25.000     152.60    0.43820E-01
 25.000     155.00    0.41430
 25.000     156.80    0.58040
 25.000     160.40    0.81310
 25.000     162.80    0.51890
 25.000     165.20    0.19610
 25.000     166.40    0.71350E-01
 25.000     171.20    0.35700
 25.000     172.40     1.0180
 25.000     174.10     2.1540
 25.000     178.90     4.7290
 26.000     31.280     134.20
 26.000     33.090     63.790
 26.000     36.720     15.520
 26.000     39.710     27.130
 26.000     40.900     49.190
 26.000     45.100     40.850
 26.000     46.910     22.530
 26.000     49.330     5.2820
 26.000     51.760    0.70890
 26.000     54.730     6.1320
 26.000     57.120     13.390
 26.000     60.720     14.430
 26.000     63.720     9.5870
 26.000     64.940     4.0750
 26.000     68.560    0.92060
 26.000     70.370    0.40620
 26.000     73.950     1.3360
 26.000     78.150     2.0120
 26.000     81.750     1.2410
 26.000     83.570    0.36360
 26.000     85.990    0.10270
 26.000     89.570    0.35050
 26.000     90.760    0.65960
 26.000     93.760    0.79460
 26.000     96.760    0.88850
 26.000     100.40    0.79490
 26.000     104.60    0.68520
 26.000     109.40    0.56910
 26.000     111.20    0.43870
 26.000     113.60    0.35100
 26.000     116.00    0.45540
 26.000     117.80    0.59090
 26.000     120.20    0.79580
 26.000     123.20    0.99500
 26.000     126.20    0.79610
 26.000     128.60    0.52890
 26.000     130.40    0.36460
 26.000     132.80    0.11950
 26.000     136.40    0.12400
 26.000     138.20    0.45600
 26.000     140.00    0.82700
 26.000     141.10     1.2920
 26.000     145.40     1.1140
 26.000     147.80    0.82740
 26.000     149.00    0.45630
 26.000     150.20    0.23360
 26.000     153.20    0.29210
 26.000     156.80    0.66220
 26.000     158.60     1.1150
 26.000     160.90     1.4470
 26.000     163.40     1.1570
 26.000     164.60    0.66250
 26.000     167.00    0.16730
 26.000     169.40    0.29240
 26.000     171.80     1.3950
 26.000     173.50     3.8080
 26.000     175.30     6.1770
 26.000     180.10     12.070
 26.500     37.790     31.980
 26.500     40.190     44.800
 26.500     44.380     46.530
 26.500     46.210     22.010
 26.500     49.250     5.1140
 26.500     51.710    0.88050
 26.500     55.250     5.7260
 26.500     57.020     12.570
 26.500     61.820     12.580
 26.500     62.440     7.4480
 26.500     65.460     3.3940
 26.500     67.900    0.88220
 26.500     69.780    0.69200E-01
 26.500     73.300    0.91650
 26.500     75.690     1.5480
 26.500     78.680     2.0130
 26.500     81.690     1.2380
 26.500     83.520    0.50410
 26.500     85.990    0.61970E-01
 26.500     88.340    0.27710
 26.500     90.110    0.82070
 26.500     93.700    0.99010
 26.500     96.100     1.1940
 26.500     99.100    0.91930
 26.500     101.50    0.58680
 26.500     105.10    0.43510
 26.500     108.10    0.54490
 26.500     111.10    0.65730
 26.500     114.10    0.65750
 26.500     117.70    0.76410
 26.500     120.10    0.88770
 26.500     123.10     1.0310
 26.500     126.10    0.73670
 26.500     128.50    0.52610
 26.500     130.40    0.12690
 26.500     134.60    0.15890
 26.500     136.90    0.48870
 26.500     139.30    0.79520
 26.500     141.10     1.0730
 26.500     144.70     1.1150
 26.500     146.50    0.82630
 26.500     148.30    0.52740
 26.500     152.50    0.28990
 26.500     156.10    0.76760
 26.500     156.70     1.5060
 26.500     161.50     1.5070
 26.500     163.90    0.96180
 26.500     166.30    0.39170
 26.500     168.10    0.19970
 26.500     171.10     1.0380
 26.500     172.90     3.9940
 26.500     174.60     7.8360
 26.500     177.00     11.830
 26.500     178.80     17.210
 27.000     29.990     150.60
 27.000     33.020     49.440
 27.000     38.440     26.310
 27.000     40.220     47.670
 27.000     44.420     45.960
 27.000     46.850     18.850
 27.000     48.090     3.9630
 27.000     50.510     1.5090
 27.000     54.080     6.1920
 27.000     56.460     9.3180
 27.000     59.460     11.220
 27.000     61.870     8.0360
 27.000     64.290     3.6850
 27.000     66.730    0.89890
 27.000     70.350    0.41220
 27.000     72.730    0.89940
 27.000     74.510     1.9620
 27.000     77.500     2.4530
 27.000     80.510     1.6310
 27.000     82.340    0.55550
 27.000     85.370    0.17570
 27.000     87.760    0.27450
 27.000     90.130    0.83650
 27.000     91.920     1.4070
 27.000     95.520     1.1690
 27.000     97.330    0.86880
 27.000     99.750    0.46220
 27.000     102.80    0.22000
 27.000     105.20    0.41370
 27.000     108.70    0.86990
 27.000     113.50     1.2620
 27.000     115.90    0.87050
 27.000     117.80    0.31940
 27.000     120.20    0.41440
 27.000     123.10    0.64730
 27.000     124.30     1.0110
 27.000     127.30     1.2630
 27.000     130.30     1.0120
 27.000     132.70    0.51850
 27.000     134.60    0.22910
 27.000     137.00    0.17670
 27.000     139.30    0.97550
 27.000     143.50    0.97590
 27.000     146.50    0.62520
 27.000     147.80    0.38580
 27.000     150.20    0.21300
 27.000     153.80    0.20530
 27.000     156.10    0.64950
 27.000     157.30     1.3650
 27.000     157.90     1.7060
 27.000     162.70     1.7720
 27.000     163.90     1.2220
 27.000     165.80    0.40120
 27.000     168.80    0.75450E-01
 27.000     171.10    0.97880
 27.000     172.90     3.5910
 27.000     175.30     6.5080
 27.000     177.10     9.4360
 27.500     28.940     121.70
 27.500     31.350     19.090
 27.500     34.950     15.220
 27.500     36.150     45.560
 27.500     39.150     53.000
 27.500     40.290     46.120
 27.500     42.690     36.920
 27.500     42.750     32.420
 27.500     44.560     9.3120
 27.500     48.170     1.2550
 27.500     50.560     4.2100
 27.500     51.730     2.3760
 27.500     52.360     8.9680
 27.500     53.510     7.5010
 27.500     55.950     11.250
 27.500     57.700     15.180
 27.500     59.560     7.4250
 27.500     60.110     10.870
 27.500     61.360     3.2320
 27.500     61.920     4.9910
 27.500     63.770    0.76830
 27.500     64.930     1.8340
 27.500     66.750    0.56010
 27.500     67.380    0.36070
 27.500     69.140    0.78210
 27.500     69.770     1.3550
 27.500     71.570     1.8340
 27.500     72.140     1.3640
 27.500     75.170     1.7000
 27.500     76.330     1.5250
 27.500     78.170     1.3550
 27.500     79.940     1.0150
 27.500     80.570    0.58990
 27.500     82.980    0.34750
 27.500     85.960    0.19130
 27.500     85.970    0.52670
 27.500     87.770    0.92880
 27.500     89.570     1.1650
 27.500     91.350    0.54050
 27.500     92.570     1.3050
 27.500     94.970     1.2570
 27.500     97.970    0.86140
 27.500     99.770    0.56830
 27.500     104.00    0.43620
 27.500     107.60    0.47050
 27.500     110.00    0.52710
 27.500     112.40    0.59040
 27.500     117.20    0.63680
 27.500     122.60    0.23830
 27.500     124.40    0.14040
 27.500     126.20    0.63470E-01
 27.500     129.20    0.56670E-01
 27.500     131.00    0.96210E-01
 27.500     131.60    0.19900
 27.500     134.00    0.19000
 27.500     135.20    0.11420
 27.500     135.80    0.22100
 27.500     138.20    0.26710
 27.500     138.80    0.12760
 27.500     141.80    0.26790
 27.500     143.00    0.20670
 27.500     145.40    0.19010
 27.500     145.40    0.17170
 27.500     147.20    0.82740E-01
 27.500     147.80    0.94900E-01
 27.500     149.60    0.58880E-01
 27.500     150.20    0.24980E-01
 27.500     151.40    0.43510E-01
 27.500     152.60    0.81850E-01
 27.500     153.80    0.52570E-01
 27.500     154.40    0.19930
 27.500     155.60    0.89260E-01
 27.500     156.80    0.31100
 27.500     157.90    0.43420
 27.500     158.60    0.16980
 27.500     160.40    0.22120
 27.500     162.10    0.45070
 27.500     162.80    0.23860
 27.500     163.90    0.36090
 27.500     165.80    0.18520
 27.500     167.60    0.52490E-01
 27.500     169.40    0.14830
 27.500     171.20    0.85980E-01
 27.500     172.30    0.78650
 27.500     174.10     1.7140
 27.500     174.20    0.22130
 27.500     175.90     2.9890
 27.500     176.00    0.33540
 27.500     178.90     4.0210
 28.500     152.10    0.13550
 28.500     157.50    0.39650
 28.500     161.70    0.31460
 28.500     165.80    0.88600E-01
 28.500     169.40    0.88530E-01
 28.500     170.10    0.19820
 28.500     173.80     1.1570
 28.500     176.80     1.4550
ENDDATA            402
ENDSUBENT          413
SUBENT        F0594003   20040401
BIB                  2          2
REACTION   (14-SI-28(A,EL)14-SI-28,,DA,,RTH)
STATUS     (CURVE)Fig.5
ENDBIB               2
COMMON               2          3
ANG-ERR-D  ERR-DIG
ADEG       PER-CENT
 0.7        0.1
ENDCOMMON            3
DATA                 3        300
EN         ANG-CM     DATA-CM
MEV        ADEG       NO-DIM
 24.000     34.000    0.16940
 24.000     36.480    0.78260E-01
 24.000     39.180    0.18030
 24.000     42.200    0.36730
 24.000     45.560    0.34540
 24.000     46.790    0.26980
 24.000     47.760    0.11180
 24.000     49.670    0.22770E-01
 24.000     52.440    0.14110E-01
 24.000     56.310    0.10360
 24.000     59.310    0.26200
 24.000     61.740    0.35160
 24.000     64.790    0.31080
 24.000     66.960    0.17820
 24.000     69.140    0.71650E-01
 24.000     71.940    0.27500E-01
 24.000     74.650    0.57750E-01
 24.000     77.060    0.11060
 24.000     79.180    0.14160
 24.000     82.840    0.14610
 24.000     85.300    0.10240
 24.000     87.170    0.51920E-01
 24.000     89.660    0.22550E-01
 24.000     92.400    0.23990E-01
 24.000     95.140    0.29800E-01
 24.000     96.930    0.59740E-01
 24.000     100.30    0.85280E-01
 24.000     102.40    0.10430
 24.000     104.80    0.99590E-01
 24.000     107.60    0.76610E-01
 24.000     109.80    0.34310E-01
 24.000     112.50    0.27220E-01
 24.000     114.60    0.51310E-01
 24.000     117.70    0.11640
 24.000     120.40    0.20630
 24.000     122.80    0.22300
 24.000     125.20    0.24470
 24.000     127.10    0.16380
 24.000     128.70    0.74490E-01
 24.000     131.10    0.30410E-01
 24.000     133.60    0.57320E-01
 24.000     135.90    0.14490
 24.000     138.10    0.29970
 24.000     140.50    0.30920
 24.000     143.20    0.29990
 24.000     144.80    0.23420
 24.000     146.60    0.10990
 24.000     149.10    0.67040E-01
 24.000     151.60    0.64030E-01
 24.000     153.30    0.17220
 24.000     155.40    0.30510
 24.000     158.20    0.40930
 24.000     160.30    0.34540
 24.000     163.10    0.19510
 24.000     164.40    0.51660E-01
 24.000     166.90    0.33010E-01
 24.000     169.50    0.18930
 24.000     171.60    0.78470
 24.000     174.00     1.7530
 24.000     176.40     2.5410
 24.000     177.60     3.0120
 24.000     179.10     3.3060
 25.000     29.310    0.29900
 25.000     32.090    0.18740
 25.000     34.290    0.85380E-01
 25.000     37.940    0.10130
 25.000     41.240    0.21760
 25.000     43.360    0.26720
 25.000     47.040    0.22270
 25.000     49.840    0.10500
 25.000     51.520    0.15120E-01
 25.000     54.450    0.73780E-01
 25.000     57.430    0.19010
 25.000     60.760    0.26770
 25.000     63.210    0.23090
 25.000     65.060    0.18810
 25.000     67.260    0.81870E-01
 25.000     72.750    0.83810E-01
 25.000     75.460    0.14000
 25.000     78.200    0.15880
 25.000     81.260    0.13230
 25.000     83.440    0.77470E-01
 25.000     88.380    0.40020E-01
 25.000     91.090    0.65350E-01
 25.000     93.520    0.71610E-01
 25.000     96.580    0.68440E-01
 25.000     99.620    0.72480E-01
 25.000     100.80    0.92090E-01
 25.000     103.60    0.10440
 25.000     106.30    0.13120
 25.000     108.70    0.11840
 25.000     111.20    0.94320E-01
 25.000     113.70    0.45490E-01
 25.000     118.50    0.92270E-01
 25.000     121.20    0.18290
 25.000     123.00    0.21460
 25.000     125.20    0.23250
 25.000     127.30    0.22210
 25.000     129.80    0.15780
 25.000     132.60    0.91360E-01
 25.000     133.90    0.32760E-01
 25.000     136.60    0.51110E-01
 25.000     139.60    0.11750
 25.000     140.80    0.15100
 25.000     143.50    0.19630
 25.000     145.90    0.22260
 25.000     147.80    0.18130
 25.000     150.20    0.13180
 25.000     154.50    0.12180
 25.000     156.90    0.16570
 25.000     159.40    0.20820
 25.000     162.10    0.21060
 25.000     164.00    0.14800
 25.000     165.60    0.73840E-01
 25.000     167.40    0.32880E-01
 25.000     169.80    0.11520
 25.000     172.50    0.26490
 25.000     174.60    0.46850
 25.000     176.70    0.67480
 25.000     179.10    0.76520
 26.000     29.310    0.27090
 26.000     31.640    0.18130
 26.000     34.630    0.55910E-01
 26.000     37.090    0.13890
 26.000     40.120    0.35020
 26.000     42.670    0.39490
 26.000     45.300    0.25280
 26.000     47.730    0.73430E-01
 26.000     50.520    0.12110E-01
 26.000     53.370    0.12770
 26.000     55.850    0.27740
 26.000     59.510    0.40910
 26.000     62.390    0.32260
 26.000     66.910    0.46560E-01
 26.000     69.290    0.21470E-01
 26.000     72.830    0.83420E-01
 26.000     75.340    0.14280
 26.000     78.750    0.15630
 26.000     80.790    0.10780
 26.000     82.640    0.36870E-01
 26.000     88.050    0.39210E-01
 26.000     91.100    0.82690E-01
 26.000     93.630    0.11320
 26.000     96.470    0.13350
 26.000     98.740    0.13970
 26.000     101.00    0.12780
 26.000     103.30    0.13380
 26.000     106.20    0.11530
 26.000     108.80    0.12070
 26.000     111.10    0.96610E-01
 26.000     113.70    0.83310E-01
 26.000     115.90    0.11740
 26.000     118.10    0.15840
 26.000     120.40    0.22000
 26.000     122.30    0.28780
 26.000     125.50    0.24090
 26.000     127.50    0.17630
 26.000     129.60    0.12520
 26.000     132.30    0.42230E-01
 26.000     136.10    0.15460
 26.000     138.90    0.30720
 26.000     140.60    0.44610
 26.000     143.10    0.40220
 26.000     145.20    0.31710
 26.000     147.00    0.17220
 26.000     151.90    0.11540
 26.000     154.00    0.28650
 26.000     155.70    0.48300
 26.000     158.80    0.65140
 26.000     161.10    0.52910
 26.000     163.20    0.30510
 26.000     165.10    0.70860E-01
 26.000     167.00    0.12310
 26.000     169.40    0.63450
 26.000     171.50     1.7490
 26.000     173.70     2.9050
 26.000     175.70     4.3470
 26.000     177.10     5.3580
 26.000     179.60     5.6080
 26.500     33.490    0.28120E-01
 26.500     37.100    0.20190
 26.500     39.830    0.38430
 26.500     42.880    0.55210
 26.500     45.950    0.27320
 26.500     47.820    0.66880E-01
 26.500     50.930    0.73250E-02
 26.500     53.900    0.11990
 26.500     56.920    0.39290
 26.500     59.970    0.46170
 26.500     63.040    0.31520
 26.500     64.890    0.14680
 26.500     67.070    0.28230E-01
 26.500     72.550    0.43100E-01
 26.500     75.890    0.10030
 26.500     78.010    0.15620
 26.500     81.080    0.96430E-01
 26.500     82.630    0.35290E-01
 26.500     85.940    0.18000
 26.500     87.830    0.22230E-01
 26.500     91.150    0.96540E-01
 26.500     94.190    0.12800
 26.500     96.020    0.16290
 26.500     98.770    0.13880
 26.500     101.50    0.82300E-01
 26.500     104.00    0.52890E-01
 26.500     105.80    0.98680E-01
 26.500     107.90    0.13890
 26.500     110.70    0.14760
 26.500     113.70    0.16000
 26.500     115.80    0.19570
 26.500     117.40    0.22990
 26.500     119.50    0.28120
 26.500     120.10    0.23940
 26.500     121.90    0.31110
 26.500     122.90    0.22550
 26.500     125.00    0.15710
 26.500     126.60    0.26230E-01
 26.500     128.70    0.19020E-01
 26.500     131.20    0.44280E-01
 26.500     133.90    0.18100
 26.500     136.00    0.35150
 26.500     138.70    0.50500
 26.500     141.50    0.58150
 26.500     143.90    0.37370
 26.500     146.10    0.15750
 26.500     147.60    0.65010E-01
 26.500     150.10    0.10330
 26.500     153.40    0.39740
 26.500     155.80    0.78760
 26.500     157.30     1.1540
 26.500     160.10    0.96350
 26.500     162.20    0.58300
 26.500     164.40    0.15470
 26.500     165.90    0.60110E-01
 26.500     169.90    0.60750
 26.500     172.20     3.1610
 26.500     175.30     8.4690
 26.500     176.80     14.580
 26.500     178.30     19.720
 26.500     180.10     22.700
 27.000     29.360    0.32720
 27.000     31.230    0.14680
 27.000     34.360    0.39230E-01
 27.000     37.030    0.15650
 27.000     40.340    0.37160
 27.000     43.680    0.44900
 27.000     46.470    0.24720
 27.000     48.070    0.64000E-01
 27.000     51.170    0.26140E-01
 27.000     54.430    0.14730
 27.000     57.140    0.28520
 27.000     60.480    0.36700
 27.000     63.240    0.31370
 27.000     65.410    0.16740
 27.000     67.320    0.45430E-01
 27.000     69.340    0.34510
 27.000     70.420    0.21370E-01
 27.000     72.800    0.55770E-01
 27.000     75.790    0.15990
 27.000     78.520    0.21570
 27.000     81.600    0.15510
 27.000     86.130    0.33000
 27.000     88.400    0.32760E-01
 27.000     91.070    0.11710
 27.000     94.090    0.22310
 27.000     97.150    0.20310
 27.000     99.600    0.16050
 27.000     101.80    0.89760E-01
 27.000     104.60    0.42900E-01
 27.000     107.00    0.84360E-01
 27.000     108.70    0.21000
 27.000     111.50    0.31610
 27.000     114.50    0.32120
 27.000     117.00    0.25390
 27.000     119.50    0.95850E-01
 27.000     123.70    0.21380
 27.000     126.10    0.34270
 27.000     128.80    0.45500
 27.000     130.70    0.38280
 27.000     132.20    0.20100
 27.000     135.70    0.86080E-01
 27.000     136.60    0.68010E-01
 27.000     140.10    0.36000
 27.000     141.70    0.44870
 27.000     144.40    0.46330
 27.000     146.30    0.29380
 27.000     148.10    0.19220
 27.000     150.60    0.12390
 27.000     153.10    0.84970E-01
 27.000     155.70    0.29890
 27.000     156.90    0.56940
 27.000     158.70    0.89840
 27.000     162.70    0.94230
 27.000     164.50    0.60700
 27.000     167.40    0.21190
 27.000     171.30    0.58890
 27.000     173.90     1.9450
 27.000     176.60     3.7650
 27.000     178.10     5.4060
 27.000     180.90     7.1770
ENDDATA            302
ENDSUBENT          313
ENDENTRY             3
