ENTRY            F0590   20031006   20050616                  Y000
SUBENT        F0590001   20031006   20050616                  Y000
BIB                 10         19
TITLE      Levels of 28Si from the 24Mg(a,a)24Mg and 24Mg(a,g)28Si
           reactions
AUTHOR     (J.CSEH, E.KOLTAY, Z.MATE, E.SOMORJAI, L.ZOLNAI)
INSTITUTE  (3HUNDEB)
REFERENCE  (J,NP/A,385,43,1982)
FACILITY   (VDG) 5 MeV Van de Graaff accelerator.
DETECTOR   (SIBAR) Six surface-barrier detectors were mounted at
           67.5, 80.5, 116.8, 134.7, 145.0, 162.5 degrees.
           (NAICR) 8cm*8cm NaI crystal was used to measure the
           gamma-ray exitation function simultaneously.
SAMPLE     Targets of 4-9 keV thickness at Ea=3.5 MeV were
           prepared by vacuum evaporation of MgO, enriched in 24Mg
           on thin self-supporting carbon foils.
ANALYSIS   (RFN) Multi-level R-matrix analysis was performed for
           nineteen resonances.
ERR-ANALYS (EN-ERR) The uncertainty of the absolute energy scale
           For energy calibration the Ea=3198.3 keV resonance
           was used (from P.M.Endt+,J,NP/A,310,1,1978)
HISTORY    (20030821C)
ENDBIB              19
COMMON               1          3
EN-ERR
KEV
 5.
ENDCOMMON            3
ENDSUBENT           26
SUBENT        F0590002   20031006   20050616                  Y000
BIB                  3          4
REACTION   (12-MG-24(A,EL)12-MG-24,,DA)
ERR-ANALYS (EN-ERR-DIG) Digitizing error
           (ERR-DIG)Digitizing error
STATUS     (CURVE)Fig.2
ENDBIB               4
COMMON               2          3
EN-ERR-DIG ERR-DIG
MEV        B/SR
 0.0005     0.002
ENDCOMMON            3
DATA                 3       3566
ANG        EN         DATA
ADEG       MEV        B/SR
 67.500     3.1859    0.66160
 67.500     3.1880    0.67244
 67.500     3.1907    0.65105
 67.500     3.1920    0.71203
 67.500     3.1941    0.70136
 67.500     3.1961    0.71220
 67.500     3.1968    0.72656
 67.500     3.1969    0.68356
 67.500     3.1976    0.64417
 67.500     3.1990    0.61556
 67.500     3.2004    0.63353
 67.500     3.2017    0.65868
 67.500     3.2025    0.62287
 67.500     3.2038    0.68385
 67.500     3.2058    0.66243
 67.500     3.2072    0.68041
 67.500     3.2093    0.64466
 67.500     3.2107    0.65547
 67.500     3.2120    0.68061
 67.500     3.2148    0.66281
 67.500     3.2168    0.71306
 67.500     3.2175    0.68084
 67.500     3.2203    0.65587
 67.500     3.2251    0.67757
 67.500     3.2299    0.69211
 67.500     3.2347    0.66005
 67.500     3.2388    0.67814
 67.500     3.2444    0.63179
 67.500     3.2492    0.66066
 67.500     3.2540    0.63219
 67.500     3.2588    0.69331
 67.500     3.2636    0.66843
 67.500     3.2685    0.61129
 67.500     3.2733    0.64733
 67.500     3.2780    0.67620
 67.500     3.2836    0.65851
 67.500     3.2850    0.63706
 67.500     3.2884    0.66946
 67.500     3.2918    0.64094
 67.500     3.2940    0.60877
 67.500     3.2953    0.62316
 67.500     3.2981    0.60894
 67.500     3.2995    0.56958
 67.500     3.3009    0.54455
 67.500     3.3023    0.56253
 67.500     3.3036    0.60200
 67.500     3.3042    0.63070
 67.500     3.3057    0.57342
 67.500     3.3077    0.58784
 67.500     3.3084    0.61296
 67.500     3.3090    0.68466
 67.500     3.3111    0.65607
 67.500     3.3124    0.67405
 67.500     3.3138    0.64185
 67.500     3.3159    0.66703
 67.500     3.3159    0.63477
 67.500     3.3167    0.60255
 67.500     3.3186    0.65997
 67.500     3.3201    0.62061
 67.500     3.3207    0.63856
 67.500     3.3221    0.65295
 67.500     3.3234    0.67451
 67.500     3.3263    0.57070
 67.500     3.3297    0.61743
 67.500     3.3360    0.57110
 67.500     3.3401    0.57127
 67.500     3.3462    0.61095
 67.500     3.3516    0.66852
 67.500     3.3545    0.58263
 67.500     3.3613    0.61875
 67.500     3.3661    0.65120
 67.500     3.3751    0.59424
 67.500     3.3764    0.65522
 67.500     3.3778    0.62661
 67.500     3.3792    0.64817
 67.500     3.3799    0.59444
 67.500     3.3820    0.61244
 67.500     3.3840    0.61253
 67.500     3.3853    0.65559
 67.500     3.3853    0.68426
 67.500     3.3868    0.58039
 67.500     3.3881    0.62345
 67.500     3.3901    0.66296
 67.500     3.3902    0.61279
 67.500     3.3929    0.68099
 67.500     3.3936    0.66669
 67.500     3.3937    0.58426
 67.500     3.3950    0.63449
 67.500     3.3958    0.55210
 67.500     3.3965    0.53421
 67.500     3.3971    0.57724
 67.500     3.3986    0.52354
 67.500     3.3990    0.70275
 67.500     3.3999    0.57377
 67.500     3.3999    0.54510
 67.500     3.4018    0.65270
 67.500     3.4025    0.68498
 67.500     3.4033    0.62408
 67.500     3.4033    0.60258
 67.500     3.4061    0.59553
 67.500     3.4074    0.60992
 67.500     3.4074    0.62784
 67.500     3.4087    0.64582
 67.500     3.4094    0.68526
 67.500     3.4116    0.59576
 67.500     3.4130    0.58148
 67.500     3.4138    0.48475
 67.500     3.4179    0.51360
 67.500     3.4204    0.63197
 67.500     3.4232    0.61058
 67.500     3.4254    0.56767
 67.500     3.4300    0.65746
 67.500     3.4322    0.57154
 67.500     3.4363    0.62188
 67.500     3.4423    0.70456
 67.500     3.4451    0.69751
 67.500     3.4453    0.56491
 67.500     3.4488    0.51130
 67.500     3.4529    0.55448
 67.500     3.4562    0.61196
 67.500     3.4570    0.57257
 67.500     3.4570    0.55465
 67.500     3.4591    0.54399
 67.500     3.4604    0.55480
 67.500     3.4611    0.57991
 67.500     3.4624    0.59789
 67.500     3.4632    0.57641
 67.500     3.4659    0.57653
 67.500     3.4666    0.60164
 67.500     3.4679    0.62678
 67.500     3.4700    0.60895
 67.500     3.4707    0.57314
 67.500     3.4734    0.63776
 67.500     3.4741    0.61629
 67.500     3.4747    0.67366
 67.500     3.4762    0.62713
 67.500     3.4762    0.60563
 67.500     3.4782    0.61288
 67.500     3.4788    0.67025
 67.500     3.4796    0.64519
 67.500     3.4808    0.71692
 67.500     3.4809    0.69542
 67.500     3.4829    0.72776
 67.500     3.4829    0.68475
 67.500     3.4844    0.64897
 67.500     3.4872    0.60967
 67.500     3.4886    0.58823
 67.500     3.4900    0.56678
 67.500     3.4900    0.54528
 67.500     3.4920    0.59554
 67.500     3.4928    0.55256
 67.500     3.4934    0.61709
 67.500     3.4956    0.52401
 67.500     3.4961    0.61721
 67.500     3.4982    0.57429
 67.500     3.5010    0.57441
 67.500     3.5017    0.54577
 67.500     3.5037    0.58886
 67.500     3.5058    0.59611
 67.500     3.5065    0.55672
 67.500     3.5085    0.61414
 67.500     3.5106    0.58556
 67.500     3.5113    0.56409
 67.500     3.5114    0.48883
 67.500     3.5168    0.61090
 67.500     3.5195    0.62894
 67.500     3.5258    0.52885
 67.500     3.5367    0.57948
 67.500     3.5388    0.55807
 67.500     3.5422    0.60838
 67.500     3.5429    0.58691
 67.500     3.5457    0.59778
 67.500     3.5477    0.62653
 67.500     3.5484    0.57280
 67.500     3.5517    0.66254
 67.500     3.5525    0.64107
 67.500     3.5545    0.68415
 67.500     3.5565    0.70216
 67.500     3.5580    0.63771
 67.500     3.5602    0.54104
 67.500     3.5616    0.49451
 67.500     3.5636    0.55910
 67.500     3.5650    0.54124
 67.500     3.5692    0.49124
 67.500     3.5705    0.52714
 67.500     3.5740    0.49144
 67.500     3.5746    0.57748
 67.500     3.5767    0.51306
 67.500     3.5795    0.51318
 67.500     3.5829    0.50974
 67.500     3.5870    0.54216
 67.500     3.5890    0.58167
 67.500     3.5918    0.57820
 67.500     3.5925    0.56389
 67.500     3.5952    0.54250
 67.500     3.5973    0.53542
 67.500     3.5973    0.56409
 67.500     3.6007    0.59649
 67.500     3.6021    0.54996
 67.500     3.6049    0.55366
 67.500     3.6069    0.58958
 67.500     3.6090    0.53950
 67.500     3.6103    0.60406
 67.500     3.6118    0.52169
 67.500     3.6145    0.52181
 67.500     3.6165    0.56490
 67.500     3.6179    0.53628
 67.500     3.6187    0.51481
 67.500     3.6228    0.51498
 67.500     3.6241    0.59388
 67.500     3.6261    0.57247
 67.500     3.6282    0.56180
 67.500     3.6296    0.53319
 67.500     3.6325    0.47597
 67.500     3.6338    0.51903
 67.500     3.6358    0.54420
 67.500     3.6385    0.56223
 67.500     3.6400    0.48345
 67.500     3.6420    0.54446
 67.500     3.6441    0.53021
 67.500     3.6461    0.59480
 67.500     3.6490    0.48382
 67.500     3.6495    0.56627
 67.500     3.6524    0.50188
 67.500     3.6543    0.57364
 67.500     3.6572    0.53075
 67.500     3.6592    0.54517
 67.500     3.6606    0.52373
 67.500     3.6627    0.49156
 67.500     3.6640    0.54538
 67.500     3.6668    0.50249
 67.500     3.6681    0.59572
 67.500     3.6702    0.53847
 67.500     3.6723    0.49197
 67.500     3.6743    0.55656
 67.500     3.6772    0.48500
 67.500     3.6798    0.59262
 67.500     3.6805    0.54248
 67.500     3.6846    0.55340
 67.500     3.6880    0.56430
 67.500     3.6894    0.55002
 67.500     3.6929    0.51433
 67.500     3.6950    0.53592
 67.500     3.6964    0.50731
 67.500     3.6978    0.49303
 67.500     3.6998    0.50387
 67.500     3.7040    0.50404
 67.500     3.7060    0.51846
 67.500     3.7080    0.53288
 67.500     3.7108    0.55091
 67.500     3.7142    0.54747
 67.500     3.7156    0.53678
 67.500     3.7191    0.49750
 67.500     3.7218    0.50837
 67.500     3.7233    0.46542
 67.500     3.7273    0.51576
 67.500     3.7287    0.53016
 67.500     3.7309    0.45499
 67.500     3.7335    0.50527
 67.500     3.7355    0.53403
 67.500     3.7376    0.51620
 67.500     3.7396    0.55570
 67.500     3.7404    0.52706
 67.500     3.7431    0.51284
 67.500     3.7466    0.51298
 67.500     3.7495    0.41993
 67.500     3.7527    0.55625
 67.500     3.7564    0.41663
 67.500     3.7590    0.47767
 67.500     3.7591    0.43825
 67.500     3.7602    0.56731
 67.500     3.7624    0.51006
 67.500     3.7686    0.53182
 67.500     3.7698    0.59280
 67.500     3.7712    0.57852
 67.500     3.7727    0.53199
 67.500     3.7748    0.47833
 67.500     3.7775    0.49994
 67.500     3.7775    0.53219
 67.500     3.7788    0.60392
 67.500     3.7830    0.52167
 67.500     3.7845    0.47156
 67.500     3.7865    0.48240
 67.500     3.7879    0.46454
 67.500     3.7906    0.50049
 67.500     3.7920    0.48621
 67.500     3.7940    0.50421
 67.500     3.7961    0.51147
 67.500     3.7967    0.53300
 67.500     3.7988    0.52233
 67.500     3.7996    0.49011
 67.500     3.8023    0.47947
 67.500     3.8030    0.49384
 67.500     3.8057    0.54054
 67.500     3.8078    0.47254
 67.500     3.8086    0.45106
 67.500     3.8112    0.53719
 67.500     3.8118    0.56947
 67.500     3.8141    0.45129
 67.500     3.8152    0.58394
 67.500     3.8174    0.51236
 67.500     3.8195    0.48736
 67.500     3.8215    0.52686
 67.500     3.8230    0.44092
 67.500     3.8243    0.48039
 67.500     3.8271    0.47692
 67.500     3.8291    0.53076
 67.500     3.8313    0.43051
 67.500     3.8334    0.38043
 67.500     3.8354    0.45577
 67.500     3.8374    0.48452
 67.500     3.8395    0.45594
 67.500     3.8415    0.47394
 67.500     3.8437    0.43819
 67.500     3.8456    0.53504
 67.500     3.8477    0.48854
 67.500     3.8504    0.52090
 67.500     3.8526    0.44932
 67.500     3.8553    0.48885
 67.500     3.8588    0.39941
 67.500     3.8607    0.55359
 67.500     3.8622    0.42463
 67.500     3.8628    0.49633
 67.500     3.8656    0.47136
 67.500     3.8684    0.47148
 67.500     3.8697    0.49304
 67.500     3.8739    0.46454
 67.500     3.8759    0.46463
 67.500     3.8794    0.46477
 67.500     3.8807    0.52217
 67.500     3.8834    0.52228
 67.500     3.8848    0.50442
 67.500     3.8870    0.45075
 67.500     3.8883    0.48665
 67.500     3.8917    0.47604
 67.500     3.8958    0.51921
 67.500     3.9000    0.49789
 67.500     3.9021    0.46930
 67.500     3.9048    0.49092
 67.500     3.9082    0.50540
 67.500     3.9103    0.49473
 67.500     3.9123    0.50557
 67.500     3.9151    0.50568
 67.500     3.9172    0.46277
 67.500     3.9192    0.47360
 67.500     4.2076    0.38151
 67.500     4.2088    0.38833
 67.500     4.2102    0.39864
 67.500     4.2134    0.37137
 67.500     4.2155    0.38494
 67.500     4.2188    0.34061
 67.500     4.2221    0.43260
 67.500     4.2241    0.39519
 67.500     4.2250    0.41899
 67.500     4.2296    0.39855
 67.500     4.2323    0.39858
 67.500     4.2352    0.38147
 67.500     4.2380    0.39503
 67.500     4.2401    0.38147
 67.500     4.2429    0.41210
 67.500     4.2447    0.37467
 67.500     4.2455    0.36442
 67.500     4.2478    0.40862
 67.500     4.2498    0.38481
 67.500     4.2523    0.43255
 67.500     4.2532    0.34734
 67.500     4.2569    0.35418
 67.500     4.2577    0.38137
 67.500     4.2594    0.37117
 67.500     4.2613    0.38136
 67.500     4.2647    0.34739
 67.500     4.2668    0.37114
 67.500     4.2671    0.33366
 67.500     4.2701    0.32346
 67.500     4.2728    0.33364
 67.500     4.2744    0.38131
 67.500     4.2757    0.38812
 67.500     4.2769    0.39495
 67.500     4.2782    0.37453
 67.500     4.2795    0.34047
 67.500     4.2826    0.40514
 67.500     4.2838    0.39498
 67.500     4.2843    0.37789
 67.500     4.2871    0.37104
 67.500     4.2892    0.35062
 67.500     4.2914    0.40512
 67.500     4.2934    0.38124
 67.500     4.2955    0.38126
 67.500     4.2971    0.33697
 67.500     4.3003    0.40164
 67.500     4.3011    0.39143
 67.500     4.3039    0.38125
 67.500     4.3085    0.36758
 67.500     4.3118    0.37779
 67.500     4.3133    0.29948
 67.500     4.3149    0.28239
 67.500     4.3151    0.29600
 67.500     4.3172    0.33000
 67.500     4.3182    0.35734
 67.500     4.3204    0.34021
 67.500     4.3225    0.38454
 67.500     4.3247    0.31982
 67.500     4.3263    0.37096
 67.500     4.3289    0.35729
 67.500     4.3298    0.38114
 67.500     4.3324    0.35726
 67.500     4.3356    0.37435
 67.500     4.3388    0.37088
 67.500     4.3415    0.34707
 67.500     4.3422    0.38107
 67.500     4.3451    0.36743
 67.500     4.3475    0.35722
 67.500     4.3484    0.38441
 67.500     4.3502    0.36065
 67.500     4.3521    0.35389
 67.500     4.3540    0.36746
 67.500     4.3567    0.36748
 67.500     4.3569    0.34357
 67.500     4.3585    0.39461
 67.500     4.3624    0.35371
 67.500     4.3648    0.32994
 67.500     4.3689    0.35033
 67.500     4.3702    0.32987
 67.500     4.3724    0.34014
 67.500     4.3756    0.35031
 67.500     4.3788    0.35039
 67.500     4.3829    0.36738
 67.500     4.3857    0.36737
 67.500     4.3898    0.36726
 67.500     4.3921    0.33327
 67.500     4.3983    0.35027
 67.500     4.4045    0.37069
 67.500     4.4076    0.34677
 67.500     4.4113    0.31950
 67.500     4.4155    0.33995
 67.500     4.4191    0.34333
 67.500     4.4232    0.38762
 67.500     4.4271    0.36717
 67.500     4.4311    0.33648
 67.500     4.4355    0.35359
 67.500     4.4388    0.33988
 67.500     4.4435    0.33645
 67.500     4.4479    0.33306
 67.500     4.4513    0.32958
 67.500     4.4558    0.34667
 67.500     4.4598    0.33633
 67.500     4.4622    0.32273
 67.500     4.4654    0.34311
 67.500     4.4717    0.31240
 67.500     4.4746    0.28522
 67.500     4.4807    0.32261
 67.500     4.4849    0.34315
 67.500     4.4880    0.32263
 67.500     4.4930    0.32262
 67.500     4.4961    0.32267
 67.500     4.5013    0.32266
 67.500     4.5042    0.27835
 67.500     4.5056    0.32948
 67.500     4.5094    0.31918
 67.500     4.5128    0.30219
 67.500     4.5205    0.32252
 67.500     4.5245    0.29524
 67.500     4.5289    0.27823
 67.500     4.5333    0.26456
 67.500     4.5357    0.28841
 67.500     4.5393    0.31904
 67.500     4.5432    0.33947
 67.500     4.5472    0.34624
 67.500     4.5495    0.39056
 67.500     4.5517    0.36674
 67.500     4.5546    0.38039
 67.500     4.5559    0.37012
 67.500     4.5589    0.34281
 67.500     4.5630    0.32911
 67.500     4.5642    0.34626
 67.500     4.5674    0.34282
 67.500     4.5719    0.29502
 67.500     4.5753    0.27123
 67.500     4.5785    0.32579
 67.500     4.5837    0.33254
 67.500     4.5872    0.38366
 67.500     4.5924    0.32905
 67.500     4.5965    0.39044
 67.500     4.6001    0.39726
 67.500     4.6046    0.34607
 67.500     4.6096    0.35289
 67.500     4.6123    0.36996
 67.500     4.6161    0.32211
 67.500     4.6162    0.37678
 67.500     4.6188    0.30173
 67.500     4.6224    0.36649
 67.500     4.6246    0.30172
 67.500     4.6279    0.26424
 67.500     4.6327    0.24031
 67.500     4.6349    0.26423
 67.500     4.6364    0.28800
 67.500     4.6404    0.26752
 67.500     4.6431    0.36293
 67.500     4.6465    0.29480
 67.500     4.6493    0.30849
 67.500     4.6532    0.26754
 67.500     4.6557    0.23348
 67.500     4.6598    0.26419
 67.500     4.6627    0.31526
 67.500     4.6642    0.27092
 67.500     4.6693    0.39693
 67.500     4.6732    0.33905
 67.500     4.6735    0.36961
 67.500     4.6809    0.31857
 67.500     4.6826    0.27429
 67.500     4.6878    0.28103
 67.500     4.6907    0.30142
 67.500     4.6958    0.30142
 67.500     4.6977    0.25714
 67.500     4.7017    0.25715
 67.500     4.7049    0.21965
 67.500     4.7076    0.26053
 67.500     4.7124    0.26732
 67.500     4.7142    0.26732
 67.500     4.7199    0.27077
 67.500     4.7211    0.31509
 67.500     4.7238    0.26380
 67.500     4.7270    0.24686
 67.500     4.7315    0.28779
 67.500     4.7357    0.28085
 67.500     4.7358    0.29103
 67.500     4.7372    0.26720
 67.500     4.7413    0.22973
 67.500     4.7459    0.27744
 67.500     4.7485    0.27068
 67.500     4.7534    0.33537
 67.500     4.7558    0.28422
 67.500     4.7607    0.25699
 67.500     4.7609    0.38643
 67.500     4.7634    0.28417
 67.500     4.7661    0.23645
 67.500     4.7703    0.20576
 67.500     4.7732    0.25008
 67.500     4.7771    0.26364
 67.500     4.7800    0.22629
 67.500     4.7851    0.37957
 67.500     4.7871    0.19892
 67.500     4.7913    0.25004
 67.500     4.8008    0.34195
 67.500     4.8035    0.36246
 67.500     4.8073    0.28748
 67.500     4.8114    0.36574
 67.500     4.8154    0.34872
 67.500     4.8188    0.32483
 67.500     4.8247    0.33846
 67.500     4.8328    0.33849
 67.500     4.8375    0.32488
 67.500     4.8409    0.29077
 67.500     4.8432    0.31459
 67.500     4.8471    0.36224
 67.500     4.8501    0.39295
 67.500     4.8542    0.34517
 67.500     4.8574    0.29062
 67.500     4.8614    0.33831
 67.500     4.8643    0.29744
 67.500     4.8686    0.31445
 67.500     4.8729    0.32809
 67.500     4.8757    0.29407
 67.500     4.8795    0.24626
 67.500     4.8823    0.29734
 67.500     4.8872    0.33483
 67.500     4.8931    0.29735
 67.500     4.8984    0.37918
 67.500     4.9017    0.34501
 67.500     4.9043    0.33131
 67.500     4.9084    0.35180
 67.500     4.9114    0.29042
 67.500     4.9126    0.31434
 67.500     4.9183    0.29722
 67.500     4.9201    0.32797
 67.500     4.9239    0.35511
 67.500     4.9287    0.31420
 67.500     4.9318    0.34491
 67.500     4.9397    0.34142
 67.500     4.9430    0.32449
 80.500     3.1834    0.38028
 80.500     3.1855    0.39173
 80.500     3.1862    0.38460
 80.500     3.1888    0.42177
 80.500     3.1910    0.40465
 80.500     3.1923    0.41038
 80.500     3.1937    0.40468
 80.500     3.1945    0.37184
 80.500     3.1954    0.30899
 80.500     3.1974    0.32473
 80.500     3.1993    0.39047
 80.500     3.2000    0.37048
 80.500     3.2013    0.39478
 80.500     3.2026    0.42336
 80.500     3.2047    0.41053
 80.500     3.2048    0.38910
 80.500     3.2068    0.41198
 80.500     3.2068    0.40056
 80.500     3.2088    0.40915
 80.500     3.2103    0.38631
 80.500     3.2123    0.40491
 80.500     3.2138    0.37064
 80.500     3.2150    0.41065
 80.500     3.2171    0.41496
 80.500     3.2192    0.40499
 80.500     3.2240    0.40076
 80.500     3.2289    0.38082
 80.500     3.2344    0.38660
 80.500     3.2392    0.40094
 80.500     3.2434    0.38242
 80.500     3.2488    0.40820
 80.500     3.2530    0.39539
 80.500     3.2586    0.36261
 80.500     3.2633    0.38266
 80.500     3.2675    0.39128
 80.500     3.2723    0.39705
 80.500     3.2778    0.37141
 80.500     3.2819    0.38431
 80.500     3.2847    0.37863
 80.500     3.2861    0.37294
 80.500     3.2875    0.36581
 80.500     3.2910    0.36585
 80.500     3.2922    0.39586
 80.500     3.2945    0.34589
 80.500     3.2965    0.36592
 80.500     3.2992    0.36452
 80.500     3.2992    0.37595
 80.500     3.3005    0.38596
 80.500     3.3020    0.37312
 80.500     3.3026    0.38170
 80.500     3.3034    0.35886
 80.500     3.3054    0.38745
 80.500     3.3060    0.40603
 80.500     3.3068    0.37747
 80.500     3.3075    0.36176
 80.500     3.3088    0.37321
 80.500     3.3102    0.36322
 80.500     3.3116    0.36896
 80.500     3.3116    0.37467
 80.500     3.3123    0.35468
 80.500     3.3150    0.37900
 80.500     3.3151    0.35043
 80.500     3.3171    0.38902
 80.500     3.3177    0.42331
 80.500     3.3191    0.39761
 80.500     3.3197    0.41476
 80.500     3.3205    0.38906
 80.500     3.3212    0.37050
 80.500     3.3240    0.36768
 80.500     3.3260    0.40055
 80.500     3.3288    0.38773
 80.500     3.3349    0.39780
 80.500     3.3399    0.34929
 80.500     3.3460    0.38222
 80.500     3.3510    0.34228
 80.500     3.3550    0.36090
 80.500     3.3612    0.36812
 80.500     3.3667    0.36247
 80.500     3.3744    0.33971
 80.500     3.3757    0.36687
 80.500     3.3764    0.34545
 80.500     3.3771    0.36117
 80.500     3.3785    0.35690
 80.500     3.3798    0.36549
 80.500     3.3804    0.40121
 80.500     3.3805    0.35978
 80.500     3.3806    0.34550
 80.500     3.3839    0.36696
 80.500     3.3854    0.33127
 80.500     3.3868    0.33557
 80.500     3.3881    0.34844
 80.500     3.3888    0.34274
 80.500     3.3894    0.39131
 80.500     3.3930    0.33136
 80.500     3.3944    0.31995
 80.500     3.3972    0.32427
 80.500     3.3977    0.36570
 80.500     3.3998    0.35573
 80.500     3.4004    0.40002
 80.500     3.4019    0.35289
 80.500     3.4025    0.37861
 80.500     3.4032    0.36291
 80.500     3.4032    0.37005
 80.500     3.4040    0.35149
 80.500     3.4059    0.40437
 80.500     3.4067    0.36724
 80.500     3.4075    0.33011
 80.500     3.4081    0.34725
 80.500     3.4101    0.39156
 80.500     3.4102    0.35585
 80.500     3.4114    0.40586
 80.500     3.4129    0.35303
 80.500     3.4130    0.34017
 80.500     3.4169    0.39022
 80.500     3.4233    0.34029
 80.500     3.4260    0.37461
 80.500     3.4295    0.33323
 80.500     3.4329    0.33898
 80.500     3.4356    0.37615
 80.500     3.4432    0.35339
 80.500     3.4453    0.33484
 80.500     3.4481    0.34202
 80.500     3.4522    0.33921
 80.500     3.4556    0.35068
 80.500     3.4584    0.34929
 80.500     3.4584    0.35928
 80.500     3.4605    0.34503
 80.500     3.4612    0.33218
 80.500     3.4632    0.34649
 80.500     3.4646    0.34079
 80.500     3.4659    0.37366
 80.500     3.4674    0.34939
 80.500     3.4693    0.40084
 80.500     3.4707    0.37515
 80.500     3.4735    0.37946
 80.500     3.4741    0.39947
 80.500     3.4762    0.39093
 80.500     3.4762    0.38521
 80.500     3.4776    0.39523
 80.500     3.4789    0.40096
 80.500     3.4797    0.37525
 80.500     3.4803    0.41669
 80.500     3.4824    0.39528
 80.500     3.4848    0.26961
 80.500     3.4848    0.25246
 80.500     3.4856    0.22819
 80.500     3.4863    0.24105
 80.500     3.4869    0.26249
 80.500     3.4883    0.24965
 80.500     3.4896    0.26109
 80.500     3.4896    0.27823
 80.500     3.4909    0.29682
 80.500     3.4924    0.27684
 80.500     3.4930    0.30113
 80.500     3.4945    0.25972
 80.500     3.4964    0.29831
 80.500     3.4992    0.30263
 80.500     3.4999    0.29693
 80.500     3.5012    0.31266
 80.500     3.5040    0.31269
 80.500     3.5074    0.31130
 80.500     3.5094    0.32418
 80.500     3.5115    0.33135
 80.500     3.5136    0.32852
 80.500     3.5164    0.30570
 80.500     3.5204    0.34717
 80.500     3.5225    0.33291
 80.500     3.5253    0.31152
 80.500     3.5253    0.30438
 80.500     3.5363    0.33022
 80.500     3.5390    0.33311
 80.500     3.5412    0.29599
 80.500     3.5424    0.35743
 80.500     3.5438    0.34317
 80.500     3.5458    0.37462
 80.500     3.5479    0.37036
 80.500     3.5500    0.36610
 80.500     3.5520    0.37898
 80.500     3.5534    0.36614
 80.500     3.5570    0.31904
 80.500     3.5592    0.26193
 80.500     3.5600    0.24622
 80.500     3.5620    0.23625
 80.500     3.5640    0.28055
 80.500     3.5661    0.26629
 80.500     3.5695    0.29062
 80.500     3.5729    0.29637
 80.500     3.5756    0.30212
 80.500     3.5777    0.29786
 80.500     3.5790    0.31930
 80.500     3.5811    0.31361
 80.500     3.5818    0.32076
 80.500     3.5840    0.28508
 80.500     3.5867    0.27654
 80.500     3.5901    0.30229
 80.500     3.5934    0.34519
 80.500     3.5943    0.27806
 80.500     3.5956    0.29522
 80.500     3.5970    0.30523
 80.500     3.5984    0.28668
 80.500     3.5997    0.30955
 80.500     3.6018    0.30529
 80.500     3.6039    0.30960
 80.500     3.6053    0.30105
 80.500     3.6073    0.30964
 80.500     3.6087    0.29109
 80.500     3.6101    0.30396
 80.500     3.6121    0.31541
 80.500     3.6143    0.27544
 80.500     3.6171    0.27262
 80.500     3.6190    0.30835
 80.500     3.6210    0.33123
 80.500     3.6225    0.29125
 80.500     3.6245    0.30985
 80.500     3.6273    0.31274
 80.500     3.6287    0.30418
 80.500     3.6315    0.28708
 80.500     3.6328    0.31709
 80.500     3.6349    0.30426
 80.500     3.6376    0.33572
 80.500     3.6390    0.32002
 80.500     3.6411    0.30862
 80.500     3.6438    0.32294
 80.500     3.6446    0.29152
 80.500     3.6466    0.30297
 80.500     3.6480    0.30870
 80.500     3.6514    0.30589
 80.500     3.6536    0.27591
 80.500     3.6549    0.30164
 80.500     3.6569    0.30738
 80.500     3.6597    0.28599
 80.500     3.6610    0.31314
 80.500     3.6639    0.28889
 80.500     3.6679    0.31894
 80.500     3.6700    0.29611
 80.500     3.6735    0.29615
 80.500     3.6762    0.29190
 80.500     3.6790    0.29479
 80.500     3.6796    0.33765
 80.500     3.6796    0.33194
 80.500     3.6817    0.32053
 80.500     3.6844    0.31628
 80.500     3.6858    0.33201
 80.500     3.6872    0.31346
 80.500     3.6893    0.31777
 80.500     3.6900    0.30063
 80.500     3.6914    0.30636
 80.500     3.6941    0.29640
 80.500     3.6962    0.29499
 80.500     3.6975    0.31644
 80.500     3.6983    0.29930
 80.500     3.7003    0.30504
 80.500     3.7038    0.29794
 80.500     3.7072    0.29513
 80.500     3.7121    0.27376
 80.500     3.7148    0.29093
 80.500     3.7169    0.29096
 80.500     3.7169    0.27953
 80.500     3.7190    0.29098
 80.500     3.7210    0.29958
 80.500     3.7237    0.30532
 80.500     3.7265    0.31250
 80.500     3.7286    0.29538
 80.500     3.7299    0.30968
 80.500     3.7321    0.27828
 80.500     3.7354    0.31118
 80.500     3.7369    0.28691
 80.500     3.7417    0.29697
 80.500     3.7443    0.33557
 80.500     3.7500    0.27850
 80.500     3.7534    0.30996
 80.500     3.7560    0.33857
 80.500     3.7596    0.27718
 80.500     3.7604    0.26576
 80.500     3.7610    0.29863
 80.500     3.7637    0.30009
 80.500     3.7658    0.30297
 80.500     3.7671    0.31013
 80.500     3.7685    0.30443
 80.500     3.7706    0.31303
 80.500     3.7726    0.32734
 80.500     3.7733    0.31163
 80.500     3.7766    0.36024
 80.500     3.7768    0.31596
 80.500     3.7789    0.30455
 80.500     3.7839    0.23462
 80.500     3.7859    0.24036
 80.500     3.7873    0.25037
 80.500     3.7886    0.26610
 80.500     3.7914    0.25185
 80.500     3.7927    0.28044
 80.500     3.7947    0.30903
 80.500     3.7961    0.29762
 80.500     3.7989    0.28051
 80.500     3.8003    0.25910
 80.500     3.8024    0.25055
 80.500     3.8052    0.26344
 80.500     3.8059    0.25060
 80.500     3.8072    0.27490
 80.500     3.8093    0.25492
 80.500     3.8107    0.26494
 80.500     3.8127    0.27782
 80.500     3.8147    0.28356
 80.500     3.8175    0.27216
 80.500     3.8182    0.29217
 80.500     3.8202    0.29648
 80.500     3.8216    0.27793
 80.500     3.8251    0.28797
 80.500     3.8251    0.27940
 80.500     3.8286    0.26658
 80.500     3.8306    0.28089
 80.500     3.8333    0.28664
 80.500     3.8354    0.26952
 80.500     3.8389    0.27385
 80.500     3.8410    0.26101
 80.500     3.8430    0.27961
 80.500     3.8443    0.29820
 80.500     3.8472    0.26680
 80.500     3.8485    0.27253
 80.500     3.8514    0.23257
 80.500     3.8527    0.26116
 80.500     3.8554    0.28690
 80.500     3.8595    0.27981
 80.500     3.8616    0.27412
 80.500     3.8636    0.29414
 80.500     3.8643    0.28129
 80.500     3.8679    0.25562
 80.500     3.8699    0.26136
 80.500     3.8713    0.25424
 80.500     3.8733    0.26712
 80.500     3.8755    0.25143
 80.500     3.8789    0.24718
 80.500     3.8823    0.26865
 80.500     3.8844    0.26011
 80.500     3.8865    0.24585
 80.500     3.8885    0.26444
 80.500     3.8906    0.27161
 80.500     3.8926    0.26449
 80.500     3.8968    0.26168
 80.500     3.8995    0.26314
 80.500     3.9010    0.23459
 80.500     3.9024    0.24032
 80.500     3.9057    0.28322
 80.500     3.9071    0.25466
 80.500     3.9092    0.26040
 80.500     3.9113    0.25186
 80.500     3.9146    0.28475
 80.500     3.9153    0.27333
 80.500     3.9175    0.25050
 80.500     3.9208    0.28340
 80.500     4.2036    0.24385
 80.500     4.2057    0.24386
 80.500     4.2077    0.24246
 80.500     4.2097    0.21589
 80.500     4.2111    0.23128
 80.500     4.2131    0.23128
 80.500     4.2138    0.20890
 80.500     4.2165    0.22569
 80.500     4.2185    0.23548
 80.500     4.2192    0.22290
 80.500     4.2219    0.22290
 80.500     4.2239    0.22990
 80.500     4.2246    0.22291
 80.500     4.2266    0.22291
 80.500     4.2280    0.23270
 80.500     4.2307    0.22851
 80.500     4.2340    0.20474
 80.500     4.2381    0.19775
 80.500     4.2394    0.22852
 80.500     4.2408    0.23132
 80.500     4.2415    0.23412
 80.500     4.2435    0.21874
 80.500     4.2455    0.19776
 80.500     4.2476    0.22434
 80.500     4.2496    0.19357
 80.500     4.2516    0.19637
 80.500     4.2530    0.20476
 80.500     4.2563    0.20057
 80.500     4.2577    0.20477
 80.500     4.2597    0.18659
 80.500     4.2618    0.18799
 80.500     4.2631    0.19779
 80.500     4.2665    0.21877
 80.500     4.2678    0.21318
 80.500     4.2698    0.21877
 80.500     4.2712    0.24115
 80.500     4.2739    0.25514
 80.500     4.2753    0.21738
 80.500     4.2766    0.23697
 80.500     4.2793    0.21179
 80.500     4.2813    0.22858
 80.500     4.2827    0.24257
 80.500     4.2847    0.23138
 80.500     4.2874    0.20761
 80.500     4.2888    0.22719
 80.500     4.2908    0.20622
 80.500     4.2928    0.21042
 80.500     4.2975    0.23140
 80.500     4.2996    0.22441
 80.500     4.3016    0.21322
 80.500     4.3030    0.17826
 80.500     4.3043    0.15169
 80.500     4.3057    0.17127
 80.500     4.3077    0.21743
 80.500     4.3084    0.19226
 80.500     4.3104    0.22163
 80.500     4.3117    0.23981
 80.500     4.3131    0.20065
 80.500     4.3165    0.24122
 80.500     4.3178    0.22444
 80.500     4.3198    0.20486
 80.500     4.3219    0.23144
 80.500     4.3239    0.22584
 80.500     4.3259    0.19508
 80.500     4.3273    0.21886
 80.500     4.3300    0.23564
 80.500     4.3320    0.21327
 80.500     4.3367    0.22446
 80.500     4.3388    0.22586
 80.500     4.3408    0.22447
 80.500     4.3421    0.25244
 80.500     4.3462    0.22308
 80.500     4.3489    0.22588
 80.500     4.3496    0.22168
 80.500     4.3502    0.24406
 80.500     4.3516    0.22029
 80.500     4.3536    0.21470
 80.500     4.3556    0.22309
 80.500     4.3570    0.22869
 80.500     4.3597    0.21610
 80.500     4.3624    0.21751
 80.500     4.3631    0.20772
 80.500     4.3658    0.19094
 80.500     4.3671    0.21751
 80.500     4.3698    0.22171
 80.500     4.3719    0.22311
 80.500     4.3739    0.24130
 80.500     4.3766    0.24410
 80.500     4.3779    0.22452
 80.500     4.3806    0.21893
 80.500     4.3833    0.21894
 80.500     4.3847    0.22034
 80.500     4.3915    0.21615
 80.500     4.3969    0.20077
 80.500     4.4002    0.21896
 80.500     4.4043    0.22875
 80.500     4.4083    0.22177
 80.500     4.4138    0.20639
 80.500     4.4165    0.19521
 80.500     4.4205    0.20780
 80.500     4.4246    0.20641
 80.500     4.4279    0.20082
 80.500     4.4327    0.21621
 80.500     4.4360    0.21621
 80.500     4.4401    0.20923
 80.500     4.4442    0.18965
 80.500     4.4475    0.20784
 80.500     4.4516    0.21903
 80.500     4.4550    0.19806
 80.500     4.4583    0.22184
 80.500     4.4637    0.18968
 80.500     4.4678    0.22045
 80.500     4.4725    0.21067
 80.500     4.4773    0.20648
 80.500     4.4820    0.19810
 80.500     4.4840    0.21348
 80.500     4.4887    0.21349
 80.500     4.4935    0.21629
 80.500     4.4982    0.20092
 80.500     4.5023    0.20512
 80.500     4.5063    0.21212
 80.500     4.5097    0.19674
 80.500     4.5131    0.19814
 80.500     4.5178    0.19675
 80.500     4.5212    0.20794
 80.500     4.5252    0.16879
 80.500     4.5286    0.19816
 80.500     4.5327    0.18698
 80.500     4.5360    0.19258
 80.500     4.5401    0.17860
 80.500     4.5414    0.21077
 80.500     4.5435    0.19679
 80.500     4.5462    0.20238
 80.500     4.5489    0.20099
 80.500     4.5522    0.21358
 80.500     4.5523    0.18141
 80.500     4.5550    0.18981
 80.500     4.5577    0.19401
 80.500     4.5597    0.20240
 80.500     4.5631    0.18423
 80.500     4.5678    0.18843
 80.500     4.5712    0.17864
 80.500     4.5752    0.17725
 80.500     4.5800    0.18005
 80.500     4.5847    0.16048
 80.500     4.5881    0.17167
 80.500     4.5921    0.18147
 80.500     4.5962    0.17868
 80.500     4.6009    0.20526
 80.500     4.6050    0.16610
 80.500     4.6083    0.15772
 80.500     4.6104    0.13674
 80.500     4.6138    0.11857
 80.500     4.6171    0.13535
 80.500     4.6198    0.15074
 80.500     4.6239    0.16054
 80.500     4.6259    0.17453
 80.500     4.6286    0.18292
 80.500     4.6326    0.18013
 80.500     4.6353    0.19692
 80.500     4.6381    0.17454
 80.500     4.6408    0.17734
 80.500     4.6414    0.18713
 80.500     4.6455    0.18434
 80.500     4.6516    0.15358
 80.500     4.6536    0.17037
 80.500     4.6576    0.17037
 80.500     4.6603    0.18576
 80.500     4.6644    0.20115
 80.500     4.6691    0.20675
 80.500     4.6718    0.19976
 80.500     4.6752    0.18159
 80.500     4.6766    0.18579
 80.500     4.6786    0.17600
 80.500     4.6826    0.19139
 80.500     4.6853    0.17041
 80.500     4.6894    0.18161
 80.500     4.6928    0.18161
 80.500     4.6968    0.18302
 80.500     4.7009    0.19561
 80.500     4.7043    0.18303
 80.500     4.7076    0.18863
 80.500     4.7097    0.16066
 80.500     4.7110    0.16765
 80.500     4.7157    0.17465
 80.500     4.7232    0.16767
 80.500     4.7293    0.15369
 80.500     4.7326    0.17048
 80.500     4.7367    0.17608
 80.500     4.7434    0.16910
 80.500     4.7468    0.15512
 80.500     4.7509    0.15932
 80.500     4.7543    0.14114
 80.500     4.7576    0.11737
 80.500     4.7617    0.17472
 80.500     4.7644    0.17192
 80.500     4.7651    0.16353
 80.500     4.7691    0.18592
 80.500     4.7725    0.20270
 80.500     4.7765    0.21110
 80.500     4.7792    0.18873
 80.500     4.7826    0.18733
 80.500     4.7860    0.17475
 80.500     4.7907    0.15378
 80.500     4.7941    0.15239
 80.500     4.7975    0.15938
 80.500     4.8015    0.19575
 80.500     4.8056    0.19995
 80.500     4.8090    0.19716
 80.500     4.8130    0.19437
 80.500     4.8157    0.17759
 80.500     4.8232    0.17760
 80.500     4.8265    0.16922
 80.500     4.8299    0.17901
 80.500     4.8340    0.17762
 80.500     4.8367    0.18322
 80.500     4.8400    0.18322
 80.500     4.8448    0.21260
 80.500     4.8482    0.17484
 80.500     4.8563    0.19024
 80.500     4.8583    0.16926
 80.500     4.8617    0.18045
 80.500     4.8657    0.20004
 80.500     4.8684    0.18746
 80.500     4.8732    0.17488
 80.500     4.8765    0.16649
 80.500     4.8799    0.17908
 80.500     4.8840    0.17489
 80.500     4.8873    0.16231
 80.500     4.8914    0.18050
 80.500     4.8948    0.17631
 80.500     4.8975    0.19589
 80.500     4.9009    0.16513
 80.500     4.9036    0.18751
 80.500     4.9069    0.17492
 80.500     4.9177    0.17634
 80.500     4.9211    0.17774
 80.500     4.9265    0.18194
 80.500     4.9286    0.15817
 80.500     4.9319    0.17216
 80.500     4.9353    0.14559
 80.500     4.9400    0.16378
 80.500     4.9427    0.15120
 116.80     3.1830    0.16654
 116.80     3.1851    0.15450
 116.80     3.1857    0.17436
 116.80     3.1878    0.15806
 116.80     3.1906    0.15240
 116.80     3.1906    0.16516
 116.80     3.1913    0.15595
 116.80     3.1927    0.15950
 116.80     3.1941    0.15525
 116.80     3.1954    0.15810
 116.80     3.1954    0.16519
 116.80     3.1968    0.16732
 116.80     3.1989    0.14819
 116.80     3.1989    0.15244
 116.80     3.2009    0.15954
 116.80     3.2009    0.15387
 116.80     3.2030    0.16097
 116.80     3.2037    0.15459
 116.80     3.2044    0.14609
 116.80     3.2057    0.16524
 116.80     3.2058    0.15035
 116.80     3.2085    0.15746
 116.80     3.2099    0.16101
 116.80     3.2120    0.15251
 116.80     3.2126    0.16031
 116.80     3.2147    0.15749
 116.80     3.2161    0.15962
 116.80     3.2196    0.15042
 116.80     3.2237    0.15682
 116.80     3.2285    0.15117
 116.80     3.2340    0.15191
 116.80     3.2389    0.14485
 116.80     3.2436    0.15622
 116.80     3.2491    0.15837
 116.80     3.2533    0.15485
 116.80     3.2581    0.15558
 116.80     3.2630    0.14568
 116.80     3.2725    0.15636
 116.80     3.2774    0.15426
 116.80     3.2829    0.14649
 116.80     3.2835    0.16138
 116.80     3.2863    0.15147
 116.80     3.2877    0.14722
 116.80     3.2898    0.13872
 116.80     3.2905    0.14511
 116.80     3.2925    0.15363
 116.80     3.2939    0.14442
 116.80     3.2961    0.12954
 116.80     3.2983    0.89833E-01
 116.80     3.2991    0.63598E-01
 116.80     3.2992    0.55797E-01
 116.80     3.3012    0.57935E-01
 116.80     3.3031    0.96949E-01
 116.80     3.3037    0.11468
 116.80     3.3064    0.13668
 116.80     3.3078    0.13456
 116.80     3.3091    0.14591
 116.80     3.3098    0.13812
 116.80     3.3118    0.15160
 116.80     3.3133    0.13459
 116.80     3.3146    0.15161
 116.80     3.3153    0.14949
 116.80     3.3174    0.14099
 116.80     3.3180    0.16085
 116.80     3.3187    0.14951
 116.80     3.3194    0.15731
 116.80     3.3214    0.15165
 116.80     3.3222    0.13960
 116.80     3.3235    0.15521
 116.80     3.3255    0.16302
 116.80     3.3297    0.14531
 116.80     3.3407    0.14749
 116.80     3.3463    0.14610
 116.80     3.3518    0.14400
 116.80     3.3552    0.13835
 116.80     3.3614    0.14051
 116.80     3.3704    0.14694
 116.80     3.3710    0.14978
 116.80     3.3738    0.14341
 116.80     3.3773    0.13562
 116.80     3.3779    0.15052
 116.80     3.3787    0.13918
 116.80     3.3800    0.15408
 116.80     3.3807    0.14344
 116.80     3.3821    0.13423
 116.80     3.3835    0.14346
 116.80     3.3841    0.15126
 116.80     3.3849    0.13424
 116.80     3.3862    0.14914
 116.80     3.3876    0.13426
 116.80     3.3882    0.15554
 116.80     3.3890    0.13143
 116.80     3.3896    0.15129
 116.80     3.3917    0.15059
 116.80     3.3917    0.13712
 116.80     3.3931    0.14705
 116.80     3.3945    0.13784
 116.80     3.3952    0.14210
 116.80     3.3965    0.14707
 116.80     3.3986    0.13857
 116.80     3.3992    0.16198
 116.80     3.4000    0.14496
 116.80     3.4007    0.13007
 116.80     3.4027    0.15561
 116.80     3.4033    0.15774
 116.80     3.4048    0.15137
 116.80     3.4055    0.13648
 116.80     3.4068    0.14925
 116.80     3.4083    0.13436
 116.80     3.4096    0.13721
 116.80     3.4110    0.13367
 116.80     3.4131    0.12942
 116.80     3.4171    0.15923
 116.80     3.4193    0.13371
 116.80     3.4262    0.14013
 116.80     3.4289    0.13660
 116.80     3.4365    0.13947
 116.80     3.4413    0.14092
 116.80     3.4447    0.14448
 116.80     3.4455    0.12108
 116.80     3.4482    0.13670
 116.80     3.4524    0.12821
 116.80     3.4557    0.14950
 116.80     3.4566    0.11546
 116.80     3.4579    0.12043
 116.80     3.4586    0.11760
 116.80     3.4627    0.12117
 116.80     3.4634    0.11621
 116.80     3.4648    0.11338
 116.80     3.4656    0.10558
 116.80     3.4676    0.11410
 116.80     3.4682    0.12616
 116.80     3.4696    0.12191
 116.80     3.4710    0.11837
 116.80     3.4724    0.11625
 116.80     3.4752    0.11201
 116.80     3.4760    0.80103E-01
 116.80     3.4782    0.59548E-01
 116.80     3.4796    0.40408E-01
 116.80     3.4796    0.51045E-01
 116.80     3.4810    0.48216E-01
 116.80     3.4816    0.60275E-01
 116.80     3.4816    0.64530E-01
 116.80     3.4829    0.78011E-01
 116.80     3.4848    0.10852
 116.80     3.4861    0.12696
 116.80     3.4888    0.13690
 116.80     3.4895    0.13123
 116.80     3.4909    0.14330
 116.80     3.4929    0.15253
 116.80     3.4936    0.15040
 116.80     3.4950    0.14757
 116.80     3.4964    0.13694
 116.80     3.4998    0.13767
 116.80     3.5006    0.12987
 116.80     3.5026    0.13626
 116.80     3.5047    0.13131
 116.80     3.5067    0.13629
 116.80     3.5088    0.14126
 116.80     3.5102    0.13914
 116.80     3.5122    0.14128
 116.80     3.5123    0.12284
 116.80     3.5150    0.13278
 116.80     3.5185    0.12783
 116.80     3.5205    0.13636
 116.80     3.5226    0.13282
 116.80     3.5253    0.13354
 116.80     3.5266    0.14632
 116.80     3.5377    0.13786
 116.80     3.5377    0.12864
 116.80     3.5399    0.12014
 116.80     3.5419    0.13292
 116.80     3.5426    0.12512
 116.80     3.5446    0.12939
 116.80     3.5467    0.13082
 116.80     3.5487    0.13154
 116.80     3.5495    0.11948
 116.80     3.5530    0.10319
 116.80     3.5552    0.87599E-01
 116.80     3.5559    0.75547E-01
 116.80     3.5572    0.84773E-01
 116.80     3.5593    0.88330E-01
 116.80     3.5599    0.96134E-01
 116.80     3.5612    0.11812
 116.80     3.5625    0.13799
 116.80     3.5645    0.14509
 116.80     3.5673    0.13801
 116.80     3.5721    0.14300
 116.80     3.5749    0.14302
 116.80     3.5769    0.14090
 116.80     3.5784    0.13098
 116.80     3.5796    0.14800
 116.80     3.5818    0.13738
 116.80     3.5818    0.13454
 116.80     3.5852    0.14094
 116.80     3.5880    0.12890
 116.80     3.5914    0.13104
 116.80     3.5942    0.13319
 116.80     3.5963    0.12965
 116.80     3.5976    0.13249
 116.80     3.5984    0.12399
 116.80     3.5997    0.13463
 116.80     3.6024    0.13252
 116.80     3.6038    0.13891
 116.80     3.6059    0.12615
 116.80     3.6079    0.14318
 116.80     3.6093    0.14177
 116.80     3.6100    0.13185
 116.80     3.6135    0.12903
 116.80     3.6162    0.13046
 116.80     3.6183    0.13685
 116.80     3.6196    0.13544
 116.80     3.6217    0.12907
 116.80     3.6231    0.12411
 116.80     3.6266    0.12555
 116.80     3.6273    0.11704
 116.80     3.6294    0.11989
 116.80     3.6314    0.12628
 116.80     3.6348    0.14119
 116.80     3.6362    0.11851
 116.80     3.6382    0.13483
 116.80     3.6403    0.12917
 116.80     3.6411    0.11782
 116.80     3.6438    0.12067
 116.80     3.6466    0.11998
 116.80     3.6479    0.13346
 116.80     3.6500    0.12212
 116.80     3.6520    0.13348
 116.80     3.6541    0.12356
 116.80     3.6555    0.12570
 116.80     3.6582    0.13068
 116.80     3.6596    0.12430
 116.80     3.6617    0.12644
 116.80     3.6631    0.11439
 116.80     3.6665    0.12434
 116.80     3.6686    0.11867
 116.80     3.6700    0.12152
 116.80     3.6720    0.12791
 116.80     3.6782    0.13149
 116.80     3.6789    0.12298
 116.80     3.6810    0.12725
 116.80     3.6824    0.11662
 116.80     3.6865    0.12444
 116.80     3.6885    0.13083
 116.80     3.6892    0.12162
 116.80     3.6906    0.12801
 116.80     3.6906    0.12375
 116.80     3.6927    0.11454
 116.80     3.6948    0.11242
 116.80     3.6975    0.11811
 116.80     3.6989    0.11457
 116.80     3.6989    0.12237
 116.80     3.7017    0.11459
 116.80     3.7044    0.11460
 116.80     3.7064    0.13234
 116.80     3.7092    0.12385
 116.80     3.7107    0.10470
 116.80     3.7133    0.12599
 116.80     3.7147    0.11607
 116.80     3.7168    0.11892
 116.80     3.7189    0.10758
 116.80     3.7210    0.11327
 116.80     3.7230    0.11966
 116.80     3.7243    0.12676
 116.80     3.7299    0.12253
 116.80     3.7313    0.11970
 116.80     3.7333    0.11688
 116.80     3.7361    0.11689
 116.80     3.7374    0.12541
 116.80     3.7429    0.12827
 116.80     3.7430    0.12118
 116.80     3.7485    0.11057
 116.80     3.7513    0.10775
 116.80     3.7547    0.10918
 116.80     3.7581    0.11771
 116.80     3.7609    0.10567
 116.80     3.7636    0.11278
 116.80     3.7637    0.10781
 116.80     3.7671    0.10854
 116.80     3.7685    0.98618E-01
 116.80     3.7705    0.10997
 116.80     3.7727    0.98639E-01
 116.80     3.7740    0.11070
 116.80     3.7761    0.98657E-01
 116.80     3.7769    0.83059E-01
 116.80     3.7782    0.85902E-01
 116.80     3.7804    0.73148E-01
 116.80     3.7811    0.66060E-01
 116.80     3.7838    0.67492E-01
 116.80     3.7857    0.98706E-01
 116.80     3.7864    0.10226
 116.80     3.7877    0.11361
 116.80     3.7891    0.10936
 116.80     3.7905    0.10724
 116.80     3.7926    0.10654
 116.80     3.7933    0.10087
 116.80     3.7968    0.98762E-01
 116.80     3.7968    0.10160
 116.80     3.7981    0.11082
 116.80     3.8015    0.11368
 116.80     3.8035    0.12504
 116.80     3.8035    0.13071
 116.80     3.8070    0.12718
 116.80     3.8077    0.11655
 116.80     3.8104    0.11727
 116.80     3.8111    0.11444
 116.80     3.8132    0.12650
 116.80     3.8152    0.12651
 116.80     3.8173    0.12440
 116.80     3.8179    0.13858
 116.80     3.8221    0.12584
 116.80     3.8228    0.11662
 116.80     3.8248    0.13224
 116.80     3.8276    0.12232
 116.80     3.8304    0.11737
 116.80     3.8317    0.14007
 116.80     3.8338    0.12945
 116.80     3.8351    0.13867
 116.80     3.8373    0.12237
 116.80     3.8393    0.12025
 116.80     3.8421    0.12807
 116.80     3.8442    0.12170
 116.80     3.8455    0.13660
 116.80     3.8483    0.12526
 116.80     3.8497    0.11960
 116.80     3.8531    0.12033
 116.80     3.8544    0.13735
 116.80     3.8558    0.12459
 116.80     3.8586    0.11823
 116.80     3.8634    0.13031
 116.80     3.8648    0.12606
 116.80     3.8648    0.11684
 116.80     3.8676    0.10763
 116.80     3.8703    0.12041
 116.80     3.8724    0.10979
 116.80     3.8752    0.11973
 116.80     3.8759    0.10626
 116.80     3.8794    0.10415
 116.80     3.8814    0.10770
 116.80     3.8827    0.11480
 116.80     3.8861    0.12546
 116.80     3.8869    0.10206
 116.80     3.8890    0.97106E-01
 116.80     3.8917    0.10918
 116.80     3.8938    0.10777
 116.80     3.8952    0.97847E-01
 116.80     3.8966    0.10707
 116.80     3.9001    0.95744E-01
 116.80     3.9021    0.10143
 116.80     3.9041    0.11491
 116.80     3.9069    0.10642
 116.80     3.9082    0.10997
 116.80     3.9104    0.10218
 116.80     3.9123    0.11637
 116.80     3.9152    0.10079
 116.80     3.9172    0.11852
 116.80     3.9186    0.10719
 116.80     4.2013    0.97034E-01
 116.80     4.2019    0.92897E-01
 116.80     4.2060    0.10945
 116.80     4.2073    0.10532
 116.80     4.2094    0.90836E-01
 116.80     4.2121    0.79805E-01
 116.80     4.2148    0.97738E-01
 116.80     4.2155    0.89463E-01
 116.80     4.2182    0.10188
 116.80     4.2202    0.10326
 116.80     4.2222    0.11568
 116.80     4.2242    0.95680E-01
 116.80     4.2263    0.10672
 116.80     4.2276    0.10120
 116.80     4.2303    0.10465
 116.80     4.2317    0.82585E-01
 116.80     4.2344    0.11155
 116.80     4.2364    0.97072E-01
 116.80     4.2378    0.92936E-01
 116.80     4.2398    0.97076E-01
 116.80     4.2418    0.96388E-01
 116.80     4.2459    0.99841E-01
 116.80     4.2472    0.10191
 116.80     4.2493    0.97086E-01
 116.80     4.2513    0.99847E-01
 116.80     4.2540    0.96402E-01
 116.80     4.2560    0.83301E-01
 116.80     4.2567    0.10399
 116.80     4.2594    0.10744
 116.80     4.2614    0.10400
 116.80     4.2641    0.10193
 116.80     4.2655    0.10814
 116.80     4.2675    0.88831E-01
 116.80     4.2689    0.92280E-01
 116.80     4.2716    0.95731E-01
 116.80     4.2729    0.10194
 116.80     4.2756    0.97805E-01
 116.80     4.2776    0.96428E-01
 116.80     4.2790    0.92291E-01
 116.80     4.2810    0.85397E-01
 116.80     4.2851    0.10471
 116.80     4.2871    0.10058
 116.80     4.2891    0.96440E-01
 116.80     4.2905    0.10541
 116.80     4.2939    0.77136E-01
 116.80     4.2945    0.95756E-01
 116.80     4.2973    0.77139E-01
 116.80     4.2986    0.84727E-01
 116.80     4.3006    0.86108E-01
 116.80     4.3026    0.10197
 116.80     4.3047    0.95767E-01
 116.80     4.3074    0.95770E-01
 116.80     4.3081    0.88185E-01
 116.80     4.3087    0.94393E-01
 116.80     4.3094    0.84739E-01
 116.80     4.3121    0.94396E-01
 116.80     4.3135    0.97156E-01
 116.80     4.3155    0.84056E-01
 116.80     4.3175    0.85437E-01
 116.80     4.3196    0.90267E-01
 116.80     4.3209    0.96475E-01
 116.80     4.3236    0.90961E-01
 116.80     4.3270    0.79930E-01
 116.80     4.3290    0.90967E-01
 116.80     4.3311    0.85452E-01
 116.80     4.3337    0.90972E-01
 116.80     4.3351    0.97180E-01
 116.80     4.3378    0.84770E-01
 116.80     4.3392    0.96495E-01
 116.80     4.3419    0.87532E-01
 116.80     4.3439    0.85466E-01
 116.80     4.3452    0.92364E-01
 116.80     4.3466    0.86848E-01
 116.80     4.3493    0.90299E-01
 116.80     4.3513    0.93060E-01
 116.80     4.3527    0.99268E-01
 116.80     4.3547    0.85478E-01
 116.80     4.3567    0.91687E-01
 116.80     4.3581    0.96515E-01
 116.80     4.3608    0.89622E-01
 116.80     4.3628    0.97900E-01
 116.80     4.3648    0.83420E-01
 116.80     4.3675    0.88940E-01
 116.80     4.3689    0.92389E-01
 116.80     4.3723    0.89635E-01
 116.80     4.3729    0.95842E-01
 116.80     4.3743    0.81361E-01
 116.80     4.3757    0.82742E-01
 116.80     4.3777    0.84123E-01
 116.80     4.3797    0.95160E-01
 116.80     4.3811    0.86196E-01
 116.80     4.3838    0.85509E-01
 116.80     4.3912    0.80000E-01
 116.80     4.3959    0.86902E-01
 116.80     4.3993    0.84147E-01
 116.80     4.4034    0.85531E-01
 116.80     4.4081    0.92432E-01
 116.80     4.4122    0.81403E-01
 116.80     4.4149    0.85543E-01
 116.80     4.4196    0.86928E-01
 116.80     4.4237    0.76588E-01
 116.80     4.4270    0.88315E-01
 116.80     4.4304    0.82112E-01
 116.80     4.4351    0.84186E-01
 116.80     4.4405    0.87640E-01
 116.80     4.4433    0.84885E-01
 116.80     4.4473    0.78682E-01
 116.80     4.4500    0.79375E-01
 116.80     4.4534    0.72482E-01
 116.80     4.4575    0.66970E-01
 116.80     4.4636    0.62839E-01
 116.80     4.4676    0.60774E-01
 116.80     4.4723    0.71813E-01
 116.80     4.4757    0.71817E-01
 116.80     4.4811    0.78719E-01
 116.80     4.4831    0.80791E-01
 116.80     4.4879    0.73210E-01
 116.80     4.4926    0.71836E-01
 116.80     4.4973    0.78737E-01
 116.80     4.5007    0.67017E-01
 116.80     4.5048    0.67021E-01
 116.80     4.5061    0.68402E-01
 116.80     4.5088    0.58061E-01
 116.80     4.5136    0.62893E-01
 116.80     4.5169    0.64966E-01
 116.80     4.5197    0.56693E-01
 116.80     4.5237    0.57387E-01
 116.80     4.5278    0.56702E-01
 116.80     4.5318    0.56017E-01
 116.80     4.5359    0.71883E-01
 116.80     4.5399    0.65681E-01
 116.80     4.5406    0.83612E-01
 116.80     4.5433    0.69822E-01
 116.80     4.5446    0.85685E-01
 116.80     4.5467    0.77412E-01
 116.80     4.5500    0.86381E-01
 116.80     4.5548    0.71214E-01
 116.80     4.5568    0.71216E-01
 116.80     4.5582    0.82941E-01
 116.80     4.5622    0.71912E-01
 116.80     4.5663    0.56744E-01
 116.80     4.5703    0.67783E-01
 116.80     4.5737    0.76062E-01
 116.80     4.5778    0.86411E-01
 116.80     4.5832    0.87796E-01
 116.80     4.5879    0.85043E-01
 116.80     4.5919    0.97461E-01
 116.80     4.5960    0.96775E-01
 116.80     4.6001    0.93332E-01
 116.80     4.6041    0.95405E-01
 116.80     4.6075    0.96098E-01
 116.80     4.6102    0.84378E-01
 116.80     4.6129    0.94725E-01
 116.80     4.6170    0.95419E-01
 116.80     4.6196    0.10301
 116.80     4.6257    0.96808E-01
 116.80     4.6284    0.98190E-01
 116.80     4.6325    0.96126E-01
 116.80     4.6352    0.91301E-01
 116.80     4.6379    0.96132E-01
 116.80     4.6413    0.94066E-01
 116.80     4.6453    0.98898E-01
 116.80     4.6467    0.94762E-01
 116.80     4.6507    0.96835E-01
 116.80     4.6534    0.97528E-01
 116.80     4.6562    0.81669E-01
 116.80     4.6589    0.81672E-01
 116.80     4.6636    0.77540E-01
 116.80     4.6643    0.84437E-01
 116.80     4.6677    0.79613E-01
 116.80     4.6717    0.92031E-01
 116.80     4.6751    0.89966E-01
 116.80     4.6785    0.85142E-01
 116.80     4.6818    0.88594E-01
 116.80     4.6852    0.85839E-01
 116.80     4.6886    0.78946E-01
 116.80     4.6927    0.85847E-01
 116.80     4.6960    0.92747E-01
 116.80     4.7001    0.82407E-01
 116.80     4.7028    0.87237E-01
 116.80     4.7069    0.87242E-01
 116.80     4.7102    0.94831E-01
 116.80     4.7123    0.77593E-01
 116.80     4.7157    0.81045E-01
 116.80     4.7190    0.90703E-01
 116.80     4.7217    0.72086E-01
 116.80     4.7258    0.84504E-01
 116.80     4.7285    0.74852E-01
 116.80     4.7326    0.76925E-01
 116.80     4.7366    0.81067E-01
 116.80     4.7393    0.88656E-01
 116.80     4.7427    0.80385E-01
 116.80     4.7467    0.80389E-01
 116.80     4.7508    0.70049E-01
 116.80     4.7535    0.72810E-01
 116.80     4.7562    0.76261E-01
 116.80     4.7603    0.76956E-01
 116.80     4.7650    0.67995E-01
 116.80     4.7670    0.69377E-01
 116.80     4.7711    0.65933E-01
 116.80     4.7738    0.57661E-01
 116.80     4.7779    0.48700E-01
 116.80     4.7806    0.36979E-01
 116.80     4.7846    0.58362E-01
 116.80     4.7893    0.93539E-01
 116.80     4.7934    0.92853E-01
 116.80     4.7961    0.86650E-01
 116.80     4.8008    0.87344E-01
 116.80     4.8049    0.94245E-01
 116.80     4.8076    0.83214E-01
 116.80     4.8116    0.89425E-01
 116.80     4.8157    0.85981E-01
 116.80     4.8224    0.84609E-01
 116.80     4.8258    0.92199E-01
 116.80     4.8292    0.83927E-01
 116.80     4.8333    0.80483E-01
 116.80     4.8366    0.83246E-01
 116.80     4.8393    0.81869E-01
 116.80     4.8434    0.86701E-01
 116.80     4.8461    0.77049E-01
 116.80     4.8488    0.75673E-01
 116.80     4.8542    0.74989E-01
 116.80     4.8569    0.75682E-01
 116.80     4.8616    0.91549E-01
 116.80     4.8644    0.79828E-01
 116.80     4.8691    0.70868E-01
 116.80     4.8718    0.74319E-01
 116.80     4.8813    0.71571E-01
 116.80     4.8860    0.62611E-01
 116.80     4.8894    0.65373E-01
 116.80     4.8934    0.67446E-01
 116.80     4.8968    0.61933E-01
 116.80     4.8995    0.71591E-01
 116.80     4.9022    0.66076E-01
 116.80     4.9063    0.64702E-01
 116.80     4.9090    0.60567E-01
 116.80     4.9130    0.61261E-01
 116.80     4.9164    0.52989E-01
 116.80     4.9205    0.46097E-01
 116.80     4.9239    0.50928E-01
 116.80     4.9266    0.48173E-01
 116.80     4.9306    0.44039E-01
 116.80     4.9340    0.55767E-01
 116.80     4.9380    0.71633E-01
 134.70     3.1820    0.11798
 134.70     3.1848    0.11873
 134.70     3.1854    0.12449
 134.70     3.1882    0.11732
 134.70     3.1902    0.12526
 134.70     3.1910    0.11663
 134.70     3.1929    0.12601
 134.70     3.1950    0.12387
 134.70     3.1951    0.11236
 134.70     3.1954    0.88621E-01
 134.70     3.1959    0.10661
 134.70     3.1966    0.10302
 134.70     3.1980    0.99440E-01
 134.70     3.1986    0.11240
 134.70     3.1993    0.10377
 134.70     3.2013    0.11027
 134.70     3.2020    0.11747
 134.70     3.2026    0.12179
 134.70     3.2041    0.11173
 134.70     3.2054    0.12110
 134.70     3.2061    0.11751
 134.70     3.2081    0.12760
 134.70     3.2101    0.12474
 134.70     3.2117    0.11109
 134.70     3.2129    0.12405
 134.70     3.2150    0.11616
 134.70     3.2157    0.12336
 134.70     3.2185    0.11476
 134.70     3.2246    0.11986
 134.70     3.2302    0.11848
 134.70     3.2336    0.11420
 134.70     3.2370    0.12071
 134.70     3.2391    0.12145
 134.70     3.2419    0.11068
 134.70     3.2440    0.11142
 134.70     3.2487    0.11939
 134.70     3.2529    0.11583
 134.70     3.2584    0.11085
 134.70     3.2632    0.11522
 134.70     3.2680    0.11095
 134.70     3.2729    0.11100
 134.70     3.2778    0.10242
 134.70     3.2826    0.10031
 134.70     3.2853    0.10394
 134.70     3.2860    0.98908E-01
 134.70     3.2875    0.93886E-01
 134.70     3.2896    0.88153E-01
 134.70     3.2902    0.91756E-01
 134.70     3.2923    0.88900E-01
 134.70     3.2945    0.78131E-01
 134.70     3.2961    0.58003E-01
 134.70     3.2977    0.29243E-01
 134.70     3.2983    0.37882E-01
 134.70     3.2991    0.25660E-01
 134.70     3.2997    0.41493E-01
 134.70     3.3004    0.32149E-01
 134.70     3.3008    0.65966E-01
 134.70     3.3017    0.11921
 134.70     3.3020    0.86841E-01
 134.70     3.3048    0.15018
 134.70     3.3049    0.13867
 134.70     3.3062    0.14804
 134.70     3.3075    0.15309
 134.70     3.3084    0.13943
 134.70     3.3104    0.14304
 134.70     3.3118    0.14018
 134.70     3.3126    0.13227
 134.70     3.3147    0.12222
 134.70     3.3160    0.12871
 134.70     3.3160    0.13303
 134.70     3.3166    0.14239
 134.70     3.3187    0.13234
 134.70     3.3194    0.13666
 134.70     3.3216    0.12373
 134.70     3.3229    0.13238
 134.70     3.3263    0.12882
 134.70     3.3284    0.12740
 134.70     3.3347    0.12027
 134.70     3.3394    0.12680
 134.70     3.3464    0.11392
 134.70     3.3505    0.11756
 134.70     3.3540    0.11759
 134.70     3.3608    0.11982
 134.70     3.3663    0.12276
 134.70     3.3698    0.11847
 134.70     3.3711    0.12065
 134.70     3.3739    0.11708
 134.70     3.3752    0.12285
 134.70     3.3767    0.11351
 134.70     3.3774    0.11064
 134.70     3.3782    0.10273
 134.70     3.3794    0.11426
 134.70     3.3807    0.13082
 134.70     3.3828    0.11717
 134.70     3.3829    0.10926
 134.70     3.3849    0.12223
 134.70     3.3850    0.11000
 134.70     3.3862    0.12584
 134.70     3.3863    0.11649
 134.70     3.3890    0.12371
 134.70     3.3891    0.11436
 134.70     3.3917    0.12374
 134.70     3.3918    0.11223
 134.70     3.3933    0.98574E-01
 134.70     3.3949    0.83481E-01
 134.70     3.3954    0.94279E-01
 134.70     3.3969    0.89977E-01
 134.70     3.3980    0.11157
 134.70     3.3982    0.94307E-01
 134.70     3.4007    0.12023
 134.70     3.4008    0.10872
 134.70     3.4008    0.11232
 134.70     3.4023    0.94350E-01
 134.70     3.4036    0.10803
 134.70     3.4057    0.97982E-01
 134.70     3.4063    0.10734
 134.70     3.4083    0.11743
 134.70     3.4090    0.11384
 134.70     3.4103    0.12824
 134.70     3.4125    0.11388
 134.70     3.4126    0.10237
 134.70     3.4180    0.10674
 134.70     3.4208    0.99576E-01
 134.70     3.4229    0.10248
 134.70     3.4255    0.11617
 134.70     3.4296    0.11765
 134.70     3.4346    0.10403
 134.70     3.4373    0.10334
 134.70     3.4421    0.10123
 134.70     3.4449    0.10126
 134.70     3.4457    0.88322E-01
 134.70     3.4490    0.10131
 134.70     3.4517    0.10781
 134.70     3.4565    0.10858
 134.70     3.4567    0.88435E-01
 134.70     3.4581    0.86291E-01
 134.70     3.4588    0.90614E-01
 134.70     3.4602    0.79119E-01
 134.70     3.4608    0.95671E-01
 134.70     3.4644    0.79161E-01
 134.70     3.4664    0.84218E-01
 134.70     3.4678    0.81355E-01
 134.70     3.4684    0.87836E-01
 134.70     3.4705    0.81383E-01
 134.70     3.4706    0.77786E-01
 134.70     3.4727    0.66298E-01
 134.70     3.4748    0.70635E-01
 134.70     3.4755    0.67045E-01
 134.70     3.4756    0.51219E-01
 134.70     3.4786    0.30386E-01
 134.70     3.4805    0.40478E-01
 134.70     3.4811    0.51276E-01
 134.70     3.4817    0.66390E-01
 134.70     3.4822    0.88697E-01
 134.70     3.4823    0.75029E-01
 134.70     3.4829    0.81510E-01
 134.70     3.4841    0.10311
 134.70     3.4846    0.12254
 134.70     3.4850    0.14772
 134.70     3.4865    0.13694
 134.70     3.4892    0.13913
 134.70     3.4892    0.14417
 134.70     3.4912    0.15282
 134.70     3.4920    0.13988
 134.70     3.4933    0.14205
 134.70     3.4941    0.13486
 134.70     3.4969    0.12698
 134.70     3.4991    0.11981
 134.70     3.4997    0.12269
 134.70     3.5017    0.12847
 134.70     3.5046    0.11627
 134.70     3.5080    0.11918
 134.70     3.5107    0.12280
 134.70     3.5122    0.10627
 134.70     3.5122    0.11059
 134.70     3.5156    0.11494
 134.70     3.5204    0.11283
 134.70     3.5224    0.12292
 134.70     3.5266    0.11290
 134.70     3.5274    0.10139
 134.70     3.5382    0.12237
 134.70     3.5384    0.10223
 134.70     3.5398    0.97924E-01
 134.70     3.5425    0.11018
 134.70     3.5427    0.90759E-01
 134.70     3.5445    0.11092
 134.70     3.5473    0.10592
 134.70     3.5487    0.10161
 134.70     3.5509    0.94441E-01
 134.70     3.5523    0.85822E-01
 134.70     3.5532    0.62810E-01
 134.70     3.5567    0.62126E-01
 134.70     3.5578    0.91634E-01
 134.70     3.5595    0.13194
 134.70     3.5602    0.12619
 134.70     3.5629    0.13269
 134.70     3.5630    0.11903
 134.70     3.5650    0.12480
 134.70     3.5666    0.10324
 134.70     3.5705    0.12630
 134.70     3.5727    0.11625
 134.70     3.5754    0.11915
 134.70     3.5762    0.10621
 134.70     3.5782    0.11846
 134.70     3.5822    0.12282
 134.70     3.5823    0.11491
 134.70     3.5851    0.11566
 134.70     3.5879    0.11065
 134.70     3.5912    0.11860
 134.70     3.5933    0.12293
 134.70     3.5933    0.11286
 134.70     3.5969    0.10499
 134.70     3.5989    0.10932
 134.70     3.6009    0.11726
 134.70     3.6016    0.10791
 134.70     3.6050    0.12090
 134.70     3.6091    0.11950
 134.70     3.6113    0.10657
 134.70     3.6126    0.11090
 134.70     3.6153    0.11381
 134.70     3.6181    0.11240
 134.70     3.6196    0.10018
 134.70     3.6224    0.97335E-01
 134.70     3.6235    0.12037
 134.70     3.6271    0.10242
 134.70     3.6298    0.11468
 134.70     3.6320    0.10175
 134.70     3.6340    0.10465
 134.70     3.6367    0.10612
 134.70     3.6394    0.11981
 134.70     3.6417    0.93217E-01
 134.70     3.6436    0.10259
 134.70     3.6458    0.96857E-01
 134.70     3.6493    0.91137E-01
 134.70     3.6505    0.11057
 134.70     3.6525    0.10916
 134.70     3.6546    0.10558
 134.70     3.6566    0.11064
 134.70     3.6594    0.11354
 134.70     3.6608    0.10852
 134.70     3.6629    0.10135
 134.70     3.6650    0.10065
 134.70     3.6663    0.10786
 134.70     3.6683    0.11364
 134.70     3.6713    0.89206E-01
 134.70     3.6718    0.10432
 134.70     3.6751    0.11730
 134.70     3.6773    0.10438
 134.70     3.6793    0.11519
 134.70     3.6820    0.11522
 134.70     3.6828    0.10443
 134.70     3.6841    0.11380
 134.70     3.6863    0.10375
 134.70     3.6864    0.93678E-01
 134.70     3.6896    0.11529
 134.70     3.6897    0.10954
 134.70     3.6919    0.94454E-01
 134.70     3.6939    0.10095
 134.70     3.6952    0.10312
 134.70     3.6973    0.10530
 134.70     3.7000    0.10389
 134.70     3.7021    0.10103
 134.70     3.7042    0.97459E-01
 134.70     3.7069    0.10108
 134.70     3.7089    0.10902
 134.70     3.7110    0.10400
 134.70     3.7131    0.10331
 134.70     3.7160    0.92544E-01
 134.70     3.7180    0.92565E-01
 134.70     3.7187    0.98327E-01
 134.70     3.7214    0.94039E-01
 134.70     3.7235    0.96938E-01
 134.70     3.7248    0.99110E-01
 134.70     3.7283    0.99865E-01
 134.70     3.7297    0.92685E-01
 134.70     3.7324    0.97749E-01
 134.70     3.7344    0.11000
 134.70     3.7372    0.97079E-01
 134.70     3.7386    0.10213
 134.70     3.7413    0.98560E-01
 134.70     3.7434    0.10146
 134.70     3.7435    0.92827E-01
 134.70     3.7461    0.10149
 134.70     3.7504    0.90740E-01
 134.70     3.7524    0.92200E-01
 134.70     3.7557    0.10303
 134.70     3.7620    0.91579E-01
 134.70     3.7634    0.98787E-01
 134.70     3.7648    0.93046E-01
 134.70     3.7683    0.88766E-01
 134.70     3.7689    0.99563E-01
 134.70     3.7717    0.93837E-01
 134.70     3.7738    0.84506E-01
 134.70     3.7751    0.93153E-01
 134.70     3.7787    0.73046E-01
 134.70     3.7815    0.68758E-01
 134.70     3.7816    0.63003E-01
 134.70     3.7836    0.65902E-01
 134.70     3.7840    0.92525E-01
 134.70     3.7858    0.12708
 134.70     3.7885    0.12638
 134.70     3.7907    0.11634
 134.70     3.7920    0.12138
 134.70     3.7933    0.13291
 134.70     3.7941    0.11853
 134.70     3.7956    0.10919
 134.70     3.7983    0.11138
 134.70     3.7983    0.10850
 134.70     3.8004    0.11212
 134.70     3.8018    0.10566
 134.70     3.8025    0.10998
 134.70     3.8045    0.10712
 134.70     3.8067    0.96356E-01
 134.70     3.8081    0.94931E-01
 134.70     3.8096    0.85594E-01
 134.70     3.8101    0.97830E-01
 134.70     3.8143    0.88521E-01
 134.70     3.8157    0.95729E-01
 134.70     3.8212    0.92908E-01
 134.70     3.8218    0.97950E-01
 134.70     3.8246    0.99417E-01
 134.70     3.8266    0.10232
 134.70     3.8295    0.90835E-01
 134.70     3.8301    0.95158E-01
 134.70     3.8321    0.10453
 134.70     3.8356    0.10097
 134.70     3.8370    0.95229E-01
 134.70     3.8390    0.98127E-01
 134.70     3.8396    0.10605
 134.70     3.8431    0.10680
 134.70     3.8453    0.93156E-01
 134.70     3.8472    0.10684
 134.70     3.8487    0.97507E-01
 134.70     3.8507    0.10041
 134.70     3.8528    0.98269E-01
 134.70     3.8555    0.98297E-01
 134.70     3.8568    0.10766
 134.70     3.8610    0.98354E-01
 134.70     3.8644    0.10343
 134.70     3.8665    0.99130E-01
 134.70     3.8700    0.92691E-01
 134.70     3.8720    0.97748E-01
 134.70     3.8740    0.11000
 134.70     3.8762    0.91316E-01
 134.70     3.8790    0.87748E-01
 134.70     3.8810    0.92805E-01
 134.70     3.8817    0.97847E-01
 134.70     3.8837    0.99307E-01
 134.70     3.8864    0.10221
 134.70     3.8886    0.91444E-01
 134.70     3.8921    0.82127E-01
 134.70     3.8961    0.10303
 134.70     3.8996    0.87960E-01
 134.70     3.9016    0.10021
 134.70     3.9044    0.95203E-01
 134.70     3.9065    0.92347E-01
 134.70     3.9078    0.98836E-01
 134.70     3.9099    0.97418E-01
 134.70     3.9133    0.95295E-01
 134.70     3.9140    0.10034
 134.70     3.9167    0.10109
 134.70     3.9196    0.87446E-01
 134.70     3.9202    0.98244E-01
 134.70     3.9222    0.96826E-01
 134.70     4.2012    0.84931E-01
 134.70     4.2033    0.82151E-01
 134.70     4.2060    0.81454E-01
 134.70     4.2073    0.85619E-01
 134.70     4.2100    0.79366E-01
 134.70     4.2120    0.81447E-01
 134.70     4.2147    0.77972E-01
 134.70     4.2168    0.80053E-01
 134.70     4.2188    0.84218E-01
 134.70     4.2195    0.80745E-01
 134.70     4.2242    0.70324E-01
 134.70     4.2262    0.75877E-01
 134.70     4.2283    0.77263E-01
 134.70     4.2289    0.74485E-01
 134.70     4.2316    0.76565E-01
 134.70     4.2350    0.80034E-01
 134.70     4.2364    0.83504E-01
 134.70     4.2377    0.80725E-01
 134.70     4.2404    0.80028E-01
 134.70     4.2431    0.77942E-01
 134.70     4.2458    0.84188E-01
 134.70     4.2479    0.76548E-01
 134.70     4.2492    0.80018E-01
 134.70     4.2506    0.85572E-01
 134.70     4.2526    0.84876E-01
 134.70     4.2553    0.76540E-01
 134.70     4.2580    0.75842E-01
 134.70     4.2587    0.61954E-01
 134.70     4.2607    0.70284E-01
 134.70     4.2634    0.69587E-01
 134.70     4.2648    0.66113E-01
 134.70     4.2661    0.63334E-01
 134.70     4.2668    0.67500E-01
 134.70     4.2668    0.95971E-01
 134.70     4.2688    0.93885E-01
 134.70     4.2695    0.79302E-01
 134.70     4.2708    0.73051E-01
 134.70     4.2729    0.66799E-01
 134.70     4.2742    0.72353E-01
 134.70     4.2756    0.70963E-01
 134.70     4.2776    0.70266E-01
 134.70     4.2790    0.75820E-01
 134.70     4.2803    0.70263E-01
 134.70     4.2837    0.78592E-01
 134.70     4.2850    0.77202E-01
 134.70     4.2871    0.86922E-01
 134.70     4.2884    0.75115E-01
 134.70     4.2904    0.70947E-01
 134.70     4.2925    0.77888E-01
 134.70     4.2952    0.89690E-01
 134.70     4.2972    0.79967E-01
 134.70     4.2986    0.75799E-01
 134.70     4.3013    0.70935E-01
 134.70     4.3033    0.82043E-01
 134.70     4.3046    0.63293E-01
 134.70     4.3053    0.48015E-01
 134.70     4.3080    0.70928E-01
 134.70     4.3114    0.70229E-01
 134.70     4.3134    0.73699E-01
 134.70     4.3175    0.71612E-01
 134.70     4.3182    0.63278E-01
 134.70     4.3209    0.68830E-01
 134.70     4.3222    0.71607E-01
 134.70     4.3236    0.75772E-01
 134.70     4.3249    0.62576E-01
 134.70     4.3270    0.72990E-01
 134.70     4.3290    0.68822E-01
 134.70     4.3310    0.66042E-01
 134.70     4.3337    0.89649E-01
 134.70     4.3357    0.72981E-01
 134.70     4.3371    0.65341E-01
 134.70     4.3398    0.68116E-01
 134.70     4.3418    0.68113E-01
 134.70     4.3438    0.68806E-01
 134.70     4.3459    0.70887E-01
 134.70     4.3472    0.76440E-01
 134.70     4.3493    0.75049E-01
 134.70     4.3506    0.73659E-01
 134.70     4.3506    0.62549E-01
 134.70     4.3526    0.78518E-01
 134.70     4.3553    0.78515E-01
 134.70     4.3574    0.77124E-01
 134.70     4.3580    0.68096E-01
 134.70     4.3614    0.61843E-01
 134.70     4.3628    0.65313E-01
 134.70     4.3648    0.63228E-01
 134.70     4.3675    0.64614E-01
 134.70     4.3689    0.68084E-01
 134.70     4.3709    0.66693E-01
 134.70     4.3722    0.72941E-01
 134.70     4.3756    0.70855E-01
 134.70     4.3777    0.80574E-01
 134.70     4.3790    0.61824E-01
 134.70     4.3810    0.74321E-01
 134.70     4.3837    0.64596E-01
 134.70     4.3912    0.77782E-01
 134.70     4.3959    0.77777E-01
 134.70     4.4000    0.69439E-01
 134.70     4.4027    0.73603E-01
 134.70     4.4074    0.69431E-01
 134.70     4.4121    0.65954E-01
 134.70     4.4162    0.74283E-01
 134.70     4.4196    0.65252E-01
 134.70     4.4229    0.71498E-01
 134.70     4.4277    0.71493E-01
 134.70     4.4304    0.62462E-01
 134.70     4.4351    0.70096E-01
 134.70     4.4398    0.63841E-01
 134.70     4.4432    0.70782E-01
 134.70     4.4459    0.65918E-01
 134.70     4.4507    0.70079E-01
 134.70     4.4533    0.62438E-01
 134.70     4.4574    0.65905E-01
 134.70     4.4723    0.65195E-01
 134.70     4.4743    0.63804E-01
 134.70     4.4756    0.56164E-01
 134.70     4.4804    0.69353E-01
 134.70     4.4838    0.75599E-01
 134.70     4.4885    0.79760E-01
 134.70     4.4912    0.75591E-01
 134.70     4.4966    0.74196E-01
 134.70     4.4966    0.67946E-01
 134.70     4.5007    0.70719E-01
 134.70     4.5047    0.67243E-01
 134.70     4.5088    0.71405E-01
 134.70     4.5128    0.64457E-01
 134.70     4.5155    0.72092E-01
 134.70     4.5196    0.67921E-01
 134.70     4.5237    0.71389E-01
 134.70     4.5270    0.61664E-01
 134.70     4.5311    0.63743E-01
 134.70     4.5351    0.67905E-01
 134.70     4.5392    0.70678E-01
 134.70     4.5392    0.61651E-01
 134.70     4.5426    0.63730E-01
 134.70     4.5439    0.50535E-01
 134.70     4.5473    0.60947E-01
 134.70     4.5493    0.41502E-01
 134.70     4.5500    0.45667E-01
 134.70     4.5520    0.47054E-01
 134.70     4.5534    0.33859E-01
 134.70     4.5547    0.41496E-01
 134.70     4.5574    0.35243E-01
 134.70     4.5622    0.33155E-01
 134.70     4.5703    0.44257E-01
 134.70     4.5744    0.65779E-01
 134.70     4.5784    0.73413E-01
 134.70     4.5818    0.76187E-01
 134.70     4.5825    0.74103E-01
 134.70     4.5872    0.78959E-01
 134.70     4.5913    0.78955E-01
 134.70     4.5953    0.72006E-01
 134.70     4.5994    0.80335E-01
 134.70     4.6034    0.74081E-01
 134.70     4.6102    0.78934E-01
 134.70     4.6129    0.60877E-01
 134.70     4.6149    0.55319E-01
 134.70     4.6183    0.44205E-01
 134.70     4.6216    0.45590E-01
 134.70     4.6250    0.49753E-01
 134.70     4.6277    0.53222E-01
 134.70     4.6318    0.58773E-01
 134.70     4.6338    0.64326E-01
 134.70     4.6352    0.62936E-01
 134.70     4.6379    0.67099E-01
 134.70     4.6406    0.72652E-01
 134.70     4.6433    0.68482E-01
 134.70     4.6467    0.68479E-01
 134.70     4.6487    0.61532E-01
 134.70     4.6514    0.57363E-01
 134.70     4.6548    0.51804E-01
 134.70     4.6582    0.43467E-01
 134.70     4.6636    0.58739E-01
 134.70     4.6676    0.68456E-01
 134.70     4.6710    0.63591E-01
 134.70     4.6744    0.72615E-01
 134.70     4.6778    0.80250E-01
 134.70     4.6818    0.71913E-01
 134.70     4.6839    0.62189E-01
 134.70     4.6872    0.68435E-01
 134.70     4.6913    0.76069E-01
 134.70     4.6954    0.74676E-01
 134.70     4.6994    0.82310E-01
 134.70     4.7021    0.80918E-01
 134.70     4.7048    0.76054E-01
 134.70     4.7089    0.71189E-01
 134.70     4.7116    0.77436E-01
 134.70     4.7150    0.90626E-01
 134.70     4.7177    0.85068E-01
 134.70     4.7210    0.52427E-01
 134.70     4.7244    0.60756E-01
 134.70     4.7285    0.73251E-01
 134.70     4.7319    0.64914E-01
 134.70     4.7359    0.72549E-01
 134.70     4.7393    0.62823E-01
 134.70     4.7427    0.73930E-01
 134.70     4.7461    0.72538E-01
 134.70     4.7494    0.69062E-01
 134.70     4.7528    0.51698E-01
 134.70     4.7555    0.47529E-01
 134.70     4.7595    0.38497E-01
 134.70     4.7636    0.42659E-01
 134.70     4.7656    0.47518E-01
 134.70     4.7711    0.59317E-01
 134.70     4.7738    0.64869E-01
 134.70     4.7771    0.67643E-01
 134.70     4.7812    0.65556E-01
 134.70     4.7853    0.74579E-01
 134.70     4.7900    0.82906E-01
 134.70     4.7927    0.55127E-01
 134.70     4.7961    0.58595E-01
 134.70     4.7994    0.55814E-01
 134.70     4.8035    0.66226E-01
 134.70     4.8103    0.71774E-01
 134.70     4.8143    0.73853E-01
 134.70     4.8224    0.69678E-01
 134.70     4.8251    0.59953E-01
 134.70     4.8285    0.60644E-01
 134.70     4.8319    0.60640E-01
 134.70     4.8360    0.68274E-01
 134.70     4.8393    0.61326E-01
 134.70     4.8427    0.61323E-01
 134.70     4.8468    0.64096E-01
 134.70     4.8535    0.69644E-01
 134.70     4.8569    0.59919E-01
 134.70     4.8610    0.64775E-01
 134.70     4.8637    0.59911E-01
 134.70     4.8677    0.66157E-01
 134.70     4.8711    0.59209E-01
 134.70     4.8819    0.52947E-01
 134.70     4.8853    0.59888E-01
 134.70     4.8893    0.53634E-01
 134.70     4.8934    0.61962E-01
 134.70     4.8954    0.52933E-01
 134.70     4.8981    0.56402E-01
 134.70     4.9008    0.50844E-01
 134.70     4.9049    0.46673E-01
 134.70     4.9083    0.48058E-01
 134.70     4.9123    0.50137E-01
 134.70     4.9157    0.56383E-01
 134.70     4.9191    0.42491E-01
 134.70     4.9231    0.48042E-01
 134.70     4.9265    0.40400E-01
 134.70     4.9299    0.44563E-01
 134.70     4.9333    0.47337E-01
 134.70     4.9366    0.37611E-01
 134.70     4.9407    0.48023E-01
 145.00     3.1827    0.10880
 145.00     3.1853    0.11598
 145.00     3.1868    0.10599
 145.00     3.1895    0.11602
 145.00     3.1916    0.11247
 145.00     3.1923    0.10605
 145.00     3.1936    0.11463
 145.00     3.1943    0.10893
 145.00     3.1958    0.95370E-01
 145.00     3.1966    0.88235E-01
 145.00     3.1974    0.74672E-01
 145.00     3.1993    0.90406E-01
 145.00     3.1993    0.95406E-01
 145.00     3.2012    0.11043
 145.00     3.2039    0.11688
 145.00     3.2054    0.10404
 145.00     3.2065    0.12763
 145.00     3.2095    0.10694
 145.00     3.2122    0.10697
 145.00     3.2157    0.10843
 145.00     3.2164    0.10273
 145.00     3.2191    0.10561
 145.00     3.2239    0.11495
 145.00     3.2301    0.11144
 145.00     3.2349    0.11078
 145.00     3.2390    0.10796
 145.00     3.2432    0.10301
 145.00     3.2453    0.10446
 145.00     3.2487    0.10592
 145.00     3.2550    0.89557E-01
 145.00     3.2569    0.10601
 145.00     3.2590    0.10817
 145.00     3.2632    0.96071E-01
 145.00     3.2646    0.98228E-01
 145.00     3.2687    0.96128E-01
 145.00     3.2735    0.98321E-01
 145.00     3.2784    0.94086E-01
 145.00     3.2826    0.86272E-01
 145.00     3.2846    0.92008E-01
 145.00     3.2875    0.77037E-01
 145.00     3.2902    0.79923E-01
 145.00     3.2916    0.74938E-01
 145.00     3.2931    0.69238E-01
 145.00     3.2960    0.52125E-01
 145.00     3.2982    0.33576E-01
 145.00     3.2997    0.22877E-01
 145.00     3.3002    0.40026E-01
 145.00     3.3003    0.30027E-01
 145.00     3.3015    0.12290
 145.00     3.3019    0.14648
 145.00     3.3038    0.16650
 145.00     3.3066    0.16510
 145.00     3.3066    0.16224
 145.00     3.3087    0.15440
 145.00     3.3088    0.14940
 145.00     3.3095    0.14298
 145.00     3.3109    0.14800
 145.00     3.3123    0.14301
 145.00     3.3138    0.13374
 145.00     3.3166    0.12806
 145.00     3.3172    0.13449
 145.00     3.3206    0.13453
 145.00     3.3220    0.13240
 145.00     3.3248    0.13171
 145.00     3.3269    0.12602
 145.00     3.3297    0.11676
 145.00     3.3352    0.11896
 145.00     3.3407    0.11759
 145.00     3.3477    0.10909
 145.00     3.3518    0.10771
 145.00     3.3559    0.11704
 145.00     3.3621    0.11139
 145.00     3.3669    0.11144
 145.00     3.3718    0.10649
 145.00     3.3751    0.11652
 145.00     3.3765    0.11225
 145.00     3.3766    0.10439
 145.00     3.3794    0.10299
 145.00     3.3801    0.98002E-01
 145.00     3.3807    0.10801
 145.00     3.3813    0.11373
 145.00     3.3834    0.11232
 145.00     3.3835    0.10447
 145.00     3.3855    0.10592
 145.00     3.3863    0.97352E-01
 145.00     3.3870    0.10022
 145.00     3.3874    0.12308
 145.00     3.3896    0.10810
 145.00     3.3917    0.10384
 145.00     3.3924    0.10670
 145.00     3.3954    0.81018E-01
 145.00     3.3962    0.71740E-01
 145.00     3.3982    0.78904E-01
 145.00     3.3988    0.88910E-01
 145.00     3.3994    0.94631E-01
 145.00     3.4022    0.92517E-01
 145.00     3.4034    0.10324
 145.00     3.4040    0.11611
 145.00     3.4047    0.11326
 145.00     3.4061    0.10970
 145.00     3.4076    0.98288E-01
 145.00     3.4090    0.93303E-01
 145.00     3.4090    0.10116
 145.00     3.4110    0.10618
 145.00     3.4117    0.10047
 145.00     3.4124    0.97624E-01
 145.00     3.4146    0.89075E-01
 145.00     3.4180    0.94824E-01
 145.00     3.4214    0.97717E-01
 145.00     3.4248    0.10275
 145.00     3.4269    0.96346E-01
 145.00     3.4304    0.92810E-01
 145.00     3.4345    0.94996E-01
 145.00     3.4378    0.10075
 145.00     3.4427    0.94368E-01
 145.00     3.4461    0.96546E-01
 145.00     3.4469    0.87982E-01
 145.00     3.4531    0.90189E-01
 145.00     3.4565    0.88083E-01
 145.00     3.4580    0.74526E-01
 145.00     3.4600    0.81690E-01
 145.00     3.4608    0.75269E-01
 145.00     3.4629    0.73862E-01
 145.00     3.4649    0.76026E-01
 145.00     3.4683    0.77491E-01
 145.00     3.4712    0.69663E-01
 145.00     3.4746    0.63985E-01
 145.00     3.4761    0.56857E-01
 145.00     3.4769    0.49721E-01
 145.00     3.4784    0.35451E-01
 145.00     3.4798    0.24038E-01
 145.00     3.4805    0.29759E-01
 145.00     3.4816    0.51914E-01
 145.00     3.4821    0.71920E-01
 145.00     3.4826    0.94068E-01
 145.00     3.4827    0.88354E-01
 145.00     3.4832    0.10693
 145.00     3.4838    0.11265
 145.00     3.4856    0.14481
 145.00     3.4869    0.14769
 145.00     3.4883    0.14341
 145.00     3.4896    0.15200
 145.00     3.4911    0.14344
 145.00     3.4911    0.13916
 145.00     3.4932    0.13347
 145.00     3.4939    0.14062
 145.00     3.4953    0.13563
 145.00     3.4961    0.11921
 145.00     3.4974    0.12779
 145.00     3.4996    0.11567
 145.00     3.5023    0.11570
 145.00     3.5044    0.11144
 145.00     3.5044    0.11430
 145.00     3.5066    0.10289
 145.00     3.5072    0.11504
 145.00     3.5085    0.11720
 145.00     3.5106    0.11222
 145.00     3.5120    0.11795
 145.00     3.5127    0.10653
 145.00     3.5135    0.10082
 145.00     3.5169    0.10657
 145.00     3.5189    0.10873
 145.00     3.5224    0.10305
 145.00     3.5252    0.10237
 145.00     3.5279    0.10240
 145.00     3.5389    0.10251
 145.00     3.5410    0.99676E-01
 145.00     3.5439    0.87563E-01
 145.00     3.5445    0.97569E-01
 145.00     3.5465    0.96162E-01
 145.00     3.5497    0.56908E-01
 145.00     3.5508    0.86920E-01
 145.00     3.5529    0.78371E-01
 145.00     3.5535    0.83378E-01
 145.00     3.5564    0.71978E-01
 145.00     3.5578    0.66279E-01
 145.00     3.5595    0.10773
 145.00     3.5608    0.11560
 145.00     3.5614    0.12203
 145.00     3.5648    0.12350
 145.00     3.5656    0.11779
 145.00     3.5683    0.11996
 145.00     3.5739    0.11359
 145.00     3.5760    0.10933
 145.00     3.5786    0.11864
 145.00     3.5794    0.10793
 145.00     3.5823    0.10082
 145.00     3.5836    0.10655
 145.00     3.5837    0.93692E-01
 145.00     3.5863    0.11158
 145.00     3.5898    0.10733
 145.00     3.5933    0.10022
 145.00     3.5967    0.10097
 145.00     3.5975    0.93835E-01
 145.00     3.5980    0.10456
 145.00     3.5995    0.99570E-01
 145.00     3.6028    0.10603
 145.00     3.6043    0.10176
 145.00     3.6070    0.10465
 145.00     3.6105    0.98256E-01
 145.00     3.6125    0.10113
 145.00     3.6138    0.10758
 145.00     3.6159    0.10117
 145.00     3.6181    0.96906E-01
 145.00     3.6208    0.93364E-01
 145.00     3.6221    0.10052
 145.00     3.6242    0.96256E-01
 145.00     3.6270    0.96999E-01
 145.00     3.6283    0.10701
 145.00     3.6298    0.85600E-01
 145.00     3.6338    0.99928E-01
 145.00     3.6366    0.95671E-01
 145.00     3.6387    0.93550E-01
 145.00     3.6400    0.10642
 145.00     3.6414    0.10001
 145.00     3.6441    0.10146
 145.00     3.6461    0.10791
 145.00     3.6489    0.10508
 145.00     3.6510    0.98678E-01
 145.00     3.6531    0.95843E-01
 145.00     3.6545    0.10157
 145.00     3.6579    0.10375
 145.00     3.6593    0.98764E-01
 145.00     3.6607    0.93065E-01
 145.00     3.6627    0.10094
 145.00     3.6641    0.95243E-01
 145.00     3.6668    0.10027
 145.00     3.6697    0.87444E-01
 145.00     3.6717    0.97464E-01
 145.00     3.6744    0.98922E-01
 145.00     3.6752    0.88929E-01
 145.00     3.6764    0.10394
 145.00     3.6793    0.91115E-01
 145.00     3.6814    0.89708E-01
 145.00     3.6826    0.10401
 145.00     3.6848    0.89744E-01
 145.00     3.6860    0.10619
 145.00     3.6875    0.96915E-01
 145.00     3.6888    0.10693
 145.00     3.6908    0.10838
 145.00     3.6924    0.92679E-01
 145.00     3.6944    0.91272E-01
 145.00     3.6951    0.97708E-01
 145.00     3.6978    0.94879E-01
 145.00     3.7006    0.96336E-01
 145.00     3.7006    0.93480E-01
 145.00     3.7027    0.92073E-01
 145.00     3.7047    0.10138
 145.00     3.7074    0.98551E-01
 145.00     3.7095    0.94287E-01
 145.00     3.7123    0.92887E-01
 145.00     3.7136    0.99329E-01
 145.00     3.7157    0.95780E-01
 145.00     3.7185    0.90809E-01
 145.00     3.7205    0.93687E-01
 145.00     3.7246    0.95873E-01
 145.00     3.7267    0.96608E-01
 145.00     3.7287    0.10163
 145.00     3.7301    0.95930E-01
 145.00     3.7330    0.88816E-01
 145.00     3.7350    0.95980E-01
 145.00     3.7370    0.95287E-01
 145.00     3.7405    0.93180E-01
 145.00     3.7406    0.85324E-01
 145.00     3.7438    0.10250
 145.00     3.7453    0.92516E-01
 145.00     3.7460    0.88238E-01
 145.00     3.7488    0.91123E-01
 145.00     3.7516    0.86867E-01
 145.00     3.7542    0.96895E-01
 145.00     3.7583    0.10122
 145.00     3.7645    0.94145E-01
 145.00     3.7660    0.91302E-01
 145.00     3.7680    0.94181E-01
 145.00     3.7708    0.90638E-01
 145.00     3.7735    0.89953E-01
 145.00     3.7770    0.87846E-01
 145.00     3.7820    0.70754E-01
 145.00     3.7841    0.59348E-01
 145.00     3.7854    0.70790E-01
 145.00     3.7877    0.11367
 145.00     3.7884    0.11939
 145.00     3.7917    0.13014
 145.00     3.7930    0.13373
 145.00     3.7951    0.13161
 145.00     3.7965    0.13662
 145.00     3.7973    0.12234
 145.00     3.7987    0.11664
 145.00     3.8009    0.10809
 145.00     3.8023    0.97395E-01
 145.00     3.8038    0.91696E-01
 145.00     3.8052    0.85996E-01
 145.00     3.8080    0.78883E-01
 145.00     3.8101    0.73190E-01
 145.00     3.8108    0.78911E-01
 145.00     3.8109    0.69626E-01
 145.00     3.8135    0.77511E-01
 145.00     3.8170    0.75404E-01
 145.00     3.8197    0.79004E-01
 145.00     3.8204    0.81868E-01
 145.00     3.8259    0.81926E-01
 145.00     3.8273    0.73369E-01
 145.00     3.8334    0.83433E-01
 145.00     3.8355    0.77740E-01
 145.00     3.8369    0.82040E-01
 145.00     3.8416    0.85661E-01
 145.00     3.8457    0.91418E-01
 145.00     3.8485    0.90732E-01
 145.00     3.8498    0.94318E-01
 145.00     3.8519    0.92911E-01
 145.00     3.8540    0.86504E-01
 145.00     3.8560    0.94382E-01
 145.00     3.8581    0.89404E-01
 145.00     3.8609    0.85147E-01
 145.00     3.8649    0.97332E-01
 145.00     3.8670    0.93068E-01
 145.00     3.8698    0.94525E-01
 145.00     3.8698    0.85240E-01
 145.00     3.8733    0.86705E-01
 145.00     3.8753    0.86012E-01
 145.00     3.8767    0.91026E-01
 145.00     3.8794    0.91769E-01
 145.00     3.8815    0.86791E-01
 145.00     3.8850    0.86826E-01
 145.00     3.8877    0.91140E-01
 145.00     3.8911    0.89033E-01
 145.00     3.8932    0.91198E-01
 145.00     3.8959    0.91940E-01
 145.00     3.9001    0.84841E-01
 145.00     3.9028    0.86298E-01
 145.00     3.9041    0.95597E-01
 145.00     3.9076    0.94919E-01
 145.00     3.9089    0.97790E-01
 145.00     3.9110    0.92098E-01
 145.00     3.9138    0.87841E-01
 145.00     3.9152    0.84998E-01
 145.00     3.9172    0.93591E-01
 145.00     3.9193    0.91469E-01
 145.00     3.9214    0.90777E-01
 145.00     4.2007    0.82726E-01
 145.00     4.2021    0.65242E-01
 145.00     4.2055    0.72231E-01
 145.00     4.2068    0.60341E-01
 145.00     4.2095    0.77121E-01
 145.00     4.2122    0.81313E-01
 145.00     4.2149    0.71520E-01
 145.00     4.2156    0.77813E-01
 145.00     4.2170    0.63825E-01
 145.00     4.2197    0.64521E-01
 145.00     4.2217    0.76407E-01
 145.00     4.2237    0.70810E-01
 145.00     4.2258    0.79199E-01
 145.00     4.2271    0.75001E-01
 145.00     4.2292    0.72202E-01
 145.00     4.2312    0.76395E-01
 145.00     4.2339    0.69398E-01
 145.00     4.2346    0.67999E-01
 145.00     4.2359    0.66599E-01
 145.00     4.2373    0.63800E-01
 145.00     4.2387    0.77085E-01
 145.00     4.2414    0.77781E-01
 145.00     4.2427    0.61695E-01
 145.00     4.2461    0.77775E-01
 145.00     4.2474    0.66584E-01
 145.00     4.2488    0.72177E-01
 145.00     4.2508    0.71475E-01
 145.00     4.2556    0.66574E-01
 145.00     4.2576    0.69369E-01
 145.00     4.2596    0.55381E-01
 145.00     4.2610    0.51183E-01
 145.00     4.2630    0.51880E-01
 145.00     4.2644    0.57473E-01
 145.00     4.2664    0.55372E-01
 145.00     4.2684    0.67957E-01
 145.00     4.2705    0.74948E-01
 145.00     4.2732    0.70748E-01
 145.00     4.2745    0.62355E-01
 145.00     4.2786    0.69343E-01
 145.00     4.2806    0.66543E-01
 145.00     4.2827    0.65842E-01
 145.00     4.2840    0.63742E-01
 145.00     4.2861    0.74928E-01
 145.00     4.2874    0.64437E-01
 145.00     4.2901    0.72126E-01
 145.00     4.2922    0.79117E-01
 145.00     4.2942    0.63729E-01
 145.00     4.2962    0.80510E-01
 145.00     4.2982    0.67221E-01
 145.00     4.3003    0.72114E-01
 145.00     4.3030    0.72110E-01
 145.00     4.3037    0.62319E-01
 145.00     4.3057    0.36442E-01
 145.00     4.3070    0.44832E-01
 145.00     4.3077    0.42034E-01
 145.00     4.3091    0.51823E-01
 145.00     4.3118    0.63008E-01
 145.00     4.3145    0.61606E-01
 145.00     4.3192    0.69293E-01
 145.00     4.3192    0.65796E-01
 145.00     4.3213    0.64395E-01
 145.00     4.3219    0.66492E-01
 145.00     4.3253    0.70684E-01
 145.00     4.3267    0.62990E-01
 145.00     4.3287    0.68582E-01
 145.00     4.3321    0.66480E-01
 145.00     4.3335    0.61583E-01
 145.00     4.3355    0.63678E-01
 145.00     4.3375    0.74165E-01
 145.00     4.3396    0.69967E-01
 145.00     4.3416    0.68566E-01
 145.00     4.3457    0.76952E-01
 145.00     4.3470    0.64363E-01
 145.00     4.3490    0.58067E-01
 145.00     4.3497    0.67157E-01
 145.00     4.3531    0.72048E-01
 145.00     4.3531    0.65754E-01
 145.00     4.3551    0.65053E-01
 145.00     4.3572    0.65050E-01
 145.00     4.3585    0.70643E-01
 145.00     4.3606    0.65745E-01
 145.00     4.3626    0.71337E-01
 145.00     4.3646    0.60845E-01
 145.00     4.3673    0.62240E-01
 145.00     4.3687    0.70630E-01
 145.00     4.3707    0.62935E-01
 145.00     4.3727    0.62933E-01
 145.00     4.3755    0.70622E-01
 145.00     4.3768    0.65026E-01
 145.00     4.3795    0.65722E-01
 145.00     4.3809    0.68517E-01
 145.00     4.3829    0.67815E-01
 145.00     4.3836    0.69913E-01
 145.00     4.3904    0.69205E-01
 145.00     4.3965    0.74792E-01
 145.00     4.3992    0.71292E-01
 145.00     4.4019    0.64995E-01
 145.00     4.4066    0.59394E-01
 145.00     4.4113    0.68480E-01
 145.00     4.4188    0.66372E-01
 145.00     4.4235    0.65667E-01
 145.00     4.4276    0.65662E-01
 145.00     4.4310    0.62861E-01
 145.00     4.4357    0.63554E-01
 145.00     4.4398    0.67046E-01
 145.00     4.4425    0.61448E-01
 145.00     4.4472    0.58645E-01
 145.00     4.4506    0.63536E-01
 145.00     4.4540    0.58636E-01
 145.00     4.4581    0.51638E-01
 145.00     4.4628    0.44640E-01
 145.00     4.4669    0.53026E-01
 145.00     4.4723    0.60712E-01
 145.00     4.4757    0.69798E-01
 145.00     4.4818    0.73987E-01
 145.00     4.4838    0.73285E-01
 145.00     4.4879    0.78874E-01
 145.00     4.4926    0.76771E-01
 145.00     4.4974    0.73268E-01
 145.00     4.5008    0.72565E-01
 145.00     4.5048    0.75357E-01
 145.00     4.5089    0.70457E-01
 145.00     4.5136    0.79542E-01
 145.00     4.5163    0.87231E-01
 145.00     4.5204    0.92121E-01
 145.00     4.5238    0.91417E-01
 145.00     4.5279    0.90713E-01
 145.00     4.5319    0.73225E-01
 145.00     4.5367    0.71821E-01
 145.00     4.5387    0.63427E-01
 145.00     4.5400    0.55733E-01
 145.00     4.5427    0.50135E-01
 145.00     4.5441    0.45938E-01
 145.00     4.5475    0.49430E-01
 145.00     4.5501    0.28448E-01
 145.00     4.5502    0.34042E-01
 145.00     4.5522    0.29144E-01
 145.00     4.5549    0.21449E-01
 145.00     4.5556    0.27042E-01
 145.00     4.5576    0.22145E-01
 145.00     4.5589    0.24940E-01
 145.00     4.5623    0.22838E-01
 145.00     4.5671    0.27727E-01
 145.00     4.5712    0.43806E-01
 145.00     4.5732    0.52195E-01
 145.00     4.5780    0.64777E-01
 145.00     4.5820    0.64072E-01
 145.00     4.5881    0.67561E-01
 145.00     4.5915    0.64061E-01
 145.00     4.5956    0.64755E-01
 145.00     4.5996    0.68246E-01
 145.00     4.6037    0.61948E-01
 145.00     4.6078    0.64740E-01
 145.00     4.6091    0.61941E-01
 145.00     4.6132    0.52146E-01
 145.00     4.6159    0.37457E-01
 145.00     4.6192    0.33956E-01
 145.00     4.6226    0.23463E-01
 145.00     4.6253    0.46536E-01
 145.00     4.6274    0.36044E-01
 145.00     4.6315    0.56319E-01
 145.00     4.6342    0.54218E-01
 145.00     4.6375    0.55612E-01
 145.00     4.6396    0.56309E-01
 145.00     4.6430    0.53507E-01
 145.00     4.6463    0.54203E-01
 145.00     4.6497    0.57695E-01
 145.00     4.6524    0.47202E-01
 145.00     4.6565    0.43701E-01
 145.00     4.6592    0.42998E-01
 145.00     4.6633    0.39496E-01
 145.00     4.6640    0.66069E-01
 145.00     4.6680    0.62567E-01
 145.00     4.6708    0.72354E-01
 145.00     4.6748    0.66755E-01
 145.00     4.6782    0.64653E-01
 145.00     4.6816    0.73040E-01
 145.00     4.6850    0.68141E-01
 145.00     4.6884    0.70934E-01
 145.00     4.6917    0.66035E-01
 145.00     4.6965    0.70224E-01
 145.00     4.6992    0.77913E-01
 145.00     4.7026    0.67420E-01
 145.00     4.7060    0.76506E-01
 145.00     4.7087    0.68111E-01
 145.00     4.7121    0.84191E-01
 145.00     4.7148    0.72999E-01
 145.00     4.7175    0.75094E-01
 145.00     4.7222    0.71591E-01
 145.00     4.7256    0.63895E-01
 145.00     4.7283    0.72982E-01
 145.00     4.7324    0.63187E-01
 145.00     4.7364    0.59686E-01
 145.00     4.7391    0.65277E-01
 145.00     4.7419    0.66672E-01
 145.00     4.7439    0.65271E-01
 145.00     4.7452    0.63171E-01
 145.00     4.7500    0.54774E-01
 145.00     4.7520    0.48477E-01
 145.00     4.7554    0.42180E-01
 145.00     4.7601    0.33782E-01
 145.00     4.7642    0.42169E-01
 145.00     4.7669    0.49158E-01
 145.00     4.7717    0.70131E-01
 145.00     4.7751    0.79218E-01
 145.00     4.7785    0.10229
 145.00     4.7819    0.11208
 145.00     4.7853    0.10997
 145.00     4.7886    0.68712E-01
 145.00     4.7926    0.46329E-01
 145.00     4.7994    0.44223E-01
 145.00     4.8035    0.40022E-01
 145.00     4.8075    0.43514E-01
 145.00     4.8143    0.43505E-01
 145.00     4.8218    0.52587E-01
 145.00     4.8252    0.53282E-01
 145.00     4.8285    0.51879E-01
 145.00     4.8360    0.56066E-01
 145.00     4.8380    0.54665E-01
 145.00     4.8434    0.48364E-01
 145.00     4.8461    0.48361E-01
 145.00     4.8502    0.44160E-01
 145.00     4.8543    0.51148E-01
 145.00     4.8604    0.55336E-01
 145.00     4.8637    0.46241E-01
 145.00     4.8678    0.49033E-01
 145.00     4.8705    0.49030E-01
 145.00     4.8746    0.49025E-01
 145.00     4.8780    0.44126E-01
 145.00     4.8820    0.44121E-01
 145.00     4.8854    0.35725E-01
 145.00     4.8895    0.44111E-01
 145.00     4.8929    0.49002E-01
 145.00     4.8956    0.37810E-01
 145.00     4.8990    0.42701E-01
 145.00     4.9017    0.34306E-01
 145.00     4.9057    0.37098E-01
 145.00     4.9091    0.37094E-01
 145.00     4.9132    0.35690E-01
 145.00     4.9159    0.36386E-01
 145.00     4.9200    0.37780E-01
 145.00     4.9233    0.40573E-01
 145.00     4.9260    0.29381E-01
 145.00     4.9301    0.37767E-01
 145.00     4.9342    0.43357E-01
 145.00     4.9376    0.41255E-01
 145.00     4.9416    0.45445E-01
 162.50     3.1845    0.10126
 162.50     3.1866    0.95583E-01
 162.50     3.1887    0.94883E-01
 162.50     3.1907    0.97029E-01
 162.50     3.1928    0.10486
 162.50     3.1935    0.10060
 162.50     3.1942    0.94914E-01
 162.50     3.1969    0.94929E-01
 162.50     3.1976    0.91377E-01
 162.50     3.1977    0.83554E-01
 162.50     3.1984    0.78579E-01
 162.50     3.1992    0.66492E-01
 162.50     3.2011    0.86418E-01
 162.50     3.2018    0.92111E-01
 162.50     3.2031    0.10919
 162.50     3.2038    0.10137
 162.50     3.2058    0.10778
 162.50     3.2058    0.10280
 162.50     3.2072    0.97120E-01
 162.50     3.2079    0.10424
 162.50     3.2093    0.97132E-01
 162.50     3.2106    0.10710
 162.50     3.2114    0.97143E-01
 162.50     3.2134    0.99288E-01
 162.50     3.2162    0.10001
 162.50     3.2175    0.10500
 162.50     3.2216    0.10360
 162.50     3.2272    0.10079
 162.50     3.2320    0.95124E-01
 162.50     3.2368    0.97284E-01
 162.50     3.2409    0.10229
 162.50     3.2457    0.96623E-01
 162.50     3.2512    0.10021
 162.50     3.2568    0.90283E-01
 162.50     3.2609    0.85327E-01
 162.50     3.2657    0.94600E-01
 162.50     3.2719    0.86099E-01
 162.50     3.2802    0.83300E-01
 162.50     3.2858    0.69818E-01
 162.50     3.2871    0.76226E-01
 162.50     3.2892    0.66992E-01
 162.50     3.2912    0.71271E-01
 162.50     3.2920    0.57761E-01
 162.50     3.2947    0.60621E-01
 162.50     3.2975    0.49968E-01
 162.50     3.2976    0.41434E-01
 162.50     3.2997    0.28643E-01
 162.50     3.2997    0.22954E-01
 162.50     3.3018    0.20831E-01
 162.50     3.3024    0.44305E-01
 162.50     3.3033    0.13108
 162.50     3.3035    0.89831E-01
 162.50     3.3050    0.19297
 162.50     3.3071    0.20151
 162.50     3.3078    0.19370
 162.50     3.3085    0.18943
 162.50     3.3100    0.16668
 162.50     3.3107    0.15957
 162.50     3.3121    0.15602
 162.50     3.3122    0.14464
 162.50     3.3142    0.14679
 162.50     3.3149    0.15462
 162.50     3.3150    0.12617
 162.50     3.3170    0.13969
 162.50     3.3185    0.12619
 162.50     3.3198    0.13615
 162.50     3.3199    0.11979
 162.50     3.3205    0.12904
 162.50     3.3226    0.11981
 162.50     3.3240    0.12479
 162.50     3.3254    0.11342
 162.50     3.3260    0.12196
 162.50     3.3295    0.11060
 162.50     3.3330    0.10706
 162.50     3.3378    0.10496
 162.50     3.3426    0.11067
 162.50     3.3495    0.10075
 162.50     3.3557    0.10506
 162.50     3.3585    0.98671E-01
 162.50     3.3632    0.10510
 162.50     3.3695    0.95176E-01
 162.50     3.3750    0.91650E-01
 162.50     3.3777    0.96644E-01
 162.50     3.3798    0.10021
 162.50     3.3798    0.93810E-01
 162.50     3.3812    0.89551E-01
 162.50     3.3825    0.10307
 162.50     3.3832    0.95252E-01
 162.50     3.3867    0.93137E-01
 162.50     3.3901    0.88889E-01
 162.50     3.3902    0.86044E-01
 162.50     3.3915    0.10028
 162.50     3.3921    0.10384
 162.50     3.3935    0.96020E-01
 162.50     3.3936    0.87486E-01
 162.50     3.3956    0.93898E-01
 162.50     3.3956    0.91053E-01
 162.50     3.3971    0.70436E-01
 162.50     3.3972    0.61901E-01
 162.50     3.3986    0.57641E-01
 162.50     3.4013    0.56234E-01
 162.50     3.4013    0.67614E-01
 162.50     3.4019    0.81842E-01
 162.50     3.4025    0.95359E-01
 162.50     3.4039    0.90388E-01
 162.50     3.4045    0.99638E-01
 162.50     3.4059    0.97512E-01
 162.50     3.4073    0.95385E-01
 162.50     3.4087    0.91837E-01
 162.50     3.4101    0.86866E-01
 162.50     3.4114    0.95408E-01
 162.50     3.4129    0.77636E-01
 162.50     3.4135    0.10040
 162.50     3.4148    0.10325
 162.50     3.4156    0.94009E-01
 162.50     3.4176    0.89042E-01
 162.50     3.4218    0.82664E-01
 162.50     3.4238    0.89076E-01
 162.50     3.4273    0.89095E-01
 162.50     3.4300    0.96223E-01
 162.50     3.4335    0.86996E-01
 162.50     3.4369    0.84170E-01
 162.50     3.4410    0.94150E-01
 162.50     3.4465    0.88491E-01
 162.50     3.4493    0.74282E-01
 162.50     3.4500    0.86376E-01
 162.50     3.4527    0.79279E-01
 162.50     3.4555    0.81428E-01
 162.50     3.4603    0.74343E-01
 162.50     3.4611    0.69368E-01
 162.50     3.4631    0.75069E-01
 162.50     3.4638    0.68672E-01
 162.50     3.4645    0.61564E-01
 162.50     3.4659    0.71528E-01
 162.50     3.4673    0.66558E-01
 162.50     3.4687    0.55186E-01
 162.50     3.4700    0.58038E-01
 162.50     3.4728    0.62321E-01
 162.50     3.4735    0.55924E-01
 162.50     3.4763    0.54516E-01
 162.50     3.4777    0.48123E-01
 162.50     3.4791    0.42441E-01
 162.50     3.4791    0.33195E-01
 162.50     3.4812    0.29651E-01
 162.50     3.4832    0.33929E-01
 162.50     3.4833    0.23261E-01
 162.50     3.4843    0.99369E-01
 162.50     3.4851    0.73058E-01
 162.50     3.4862    0.12498
 162.50     3.4863    0.11218
 162.50     3.4875    0.13993
 162.50     3.4881    0.14775
 162.50     3.4888    0.15345
 162.50     3.4908    0.15915
 162.50     3.4915    0.15417
 162.50     3.4943    0.14423
 162.50     3.4986    0.12648
 162.50     3.4986    0.12221
 162.50     3.5007    0.11795
 162.50     3.5013    0.12222
 162.50     3.5034    0.11726
 162.50     3.5062    0.11087
 162.50     3.5076    0.11372
 162.50     3.5096    0.11018
 162.50     3.5103    0.10876
 162.50     3.5124    0.10308
 162.50     3.5145    0.99537E-01
 162.50     3.5166    0.90302E-01
 162.50     3.5172    0.10240
 162.50     3.5193    0.99563E-01
 162.50     3.5262    0.91067E-01
 162.50     3.5283    0.10104
 162.50     3.5318    0.88964E-01
 162.50     3.5428    0.87602E-01
 162.50     3.5455    0.85484E-01
 162.50     3.5469    0.75535E-01
 162.50     3.5482    0.92612E-01
 162.50     3.5504    0.74131E-01
 162.50     3.5517    0.84096E-01
 162.50     3.5538    0.76995E-01
 162.50     3.5552    0.69180E-01
 162.50     3.5600    0.69206E-01
 162.50     3.5626    0.10123
 162.50     3.5646    0.11760
 162.50     3.5646    0.12115
 162.50     3.5673    0.12117
 162.50     3.5680    0.11833
 162.50     3.5701    0.12047
 162.50     3.5715    0.11337
 162.50     3.5750    0.11054
 162.50     3.5770    0.10486
 162.50     3.5811    0.10915
 162.50     3.5839    0.99211E-01
 162.50     3.5854    0.93529E-01
 162.50     3.5874    0.99941E-01
 162.50     3.5875    0.86428E-01
 162.50     3.5901    0.97112E-01
 162.50     3.5929    0.90726E-01
 162.50     3.5963    0.98568E-01
 162.50     3.5991    0.10143
 162.50     3.5991    0.98584E-01
 162.50     3.6018    0.10002
 162.50     3.6032    0.97895E-01
 162.50     3.6053    0.97195E-01
 162.50     3.6067    0.93647E-01
 162.50     3.6074    0.90095E-01
 162.50     3.6094    0.10006
 162.50     3.6115    0.85850E-01
 162.50     3.6156    0.10081
 162.50     3.6176    0.99398E-01
 162.50     3.6190    0.10225
 162.50     3.6218    0.88041E-01
 162.50     3.6231    0.10298
 162.50     3.6252    0.90194E-01
 162.50     3.6280    0.97321E-01
 162.50     3.6287    0.90924E-01
 162.50     3.6321    0.88098E-01
 162.50     3.6328    0.98771E-01
 162.50     3.6348    0.93803E-01
 162.50     3.6370    0.84569E-01
 162.50     3.6397    0.83162E-01
 162.50     3.6417    0.90997E-01
 162.50     3.6444    0.98835E-01
 162.50     3.6458    0.10240
 162.50     3.6472    0.91027E-01
 162.50     3.6500    0.83930E-01
 162.50     3.6521    0.86075E-01
 162.50     3.6541    0.92488E-01
 162.50     3.6554    0.10459
 162.50     3.6582    0.90377E-01
 162.50     3.6610    0.79724E-01
 162.50     3.6624    0.88266E-01
 162.50     3.6644    0.92545E-01
 162.50     3.6665    0.87578E-01
 162.50     3.6686    0.89723E-01
 162.50     3.6706    0.83334E-01
 162.50     3.6726    0.10682
 162.50     3.6741    0.87620E-01
 162.50     3.6768    0.88346E-01
 162.50     3.6782    0.94044E-01
 162.50     3.6802    0.94055E-01
 162.50     3.6837    0.85540E-01
 162.50     3.6864    0.89822E-01
 162.50     3.6878    0.92675E-01
 162.50     3.6878    0.82718E-01
 162.50     3.6892    0.90549E-01
 162.50     3.6912    0.93405E-01
 162.50     3.6926    0.89145E-01
 162.50     3.6968    0.82767E-01
 162.50     3.6995    0.83494E-01
 162.50     3.7023    0.84932E-01
 162.50     3.7036    0.97741E-01
 162.50     3.7050    0.83524E-01
 162.50     3.7070    0.89937E-01
 162.50     3.7091    0.97060E-01
 162.50     3.7118    0.98498E-01
 162.50     3.7139    0.10135
 162.50     3.7153    0.96383E-01
 162.50     3.7180    0.93554E-01
 162.50     3.7195    0.80048E-01
 162.50     3.7222    0.80064E-01
 162.50     3.7235    0.92162E-01
 162.50     3.7256    0.85772E-01
 162.50     3.7270    0.83646E-01
 162.50     3.7290    0.91481E-01
 162.50     3.7312    0.80113E-01
 162.50     3.7339    0.79417E-01
 162.50     3.7366    0.91523E-01
 162.50     3.7387    0.84423E-01
 162.50     3.7407    0.93680E-01
 162.50     3.7441    0.93699E-01
 162.50     3.7442    0.88009E-01
 162.50     3.7476    0.88739E-01
 162.50     3.7483    0.86610E-01
 162.50     3.7504    0.84487E-01
 162.50     3.7524    0.88055E-01
 162.50     3.7552    0.83092E-01
 162.50     3.7586    0.86667E-01
 162.50     3.7607    0.84545E-01
 162.50     3.7648    0.94525E-01
 162.50     3.7682    0.95255E-01
 162.50     3.7682    0.86009E-01
 162.50     3.7703    0.95977E-01
 162.50     3.7710    0.86735E-01
 162.50     3.7744    0.87466E-01
 162.50     3.7765    0.90322E-01
 162.50     3.7779    0.84640E-01
 162.50     3.7792    0.89626E-01
 162.50     3.7813    0.86081E-01
 162.50     3.7820    0.91064E-01
 162.50     3.7841    0.69739E-01
 162.50     3.7862    0.74729E-01
 162.50     3.7876    0.69758E-01
 162.50     3.7889    0.78300E-01
 162.50     3.7920    0.14019
 162.50     3.7941    0.13878
 162.50     3.7948    0.14519
 162.50     3.7976    0.13525
 162.50     3.7983    0.13098
 162.50     3.7990    0.12459
 162.50     3.8010    0.13242
 162.50     3.8038    0.13030
 162.50     3.8046    0.10541
 162.50     3.8074    0.82670E-01
 162.50     3.8089    0.65609E-01
 162.50     3.8089    0.62053E-01
 162.50     3.8111    0.50685E-01
 162.50     3.8132    0.42873E-01
 162.50     3.8159    0.44310E-01
 162.50     3.8199    0.58558E-01
 162.50     3.8214    0.50742E-01
 162.50     3.8241    0.53602E-01
 162.50     3.8268    0.53617E-01
 162.50     3.8282    0.61448E-01
 162.50     3.8309    0.60752E-01
 162.50     3.8358    0.55089E-01
 162.50     3.8378    0.62924E-01
 162.50     3.8405    0.67918E-01
 162.50     3.8440    0.67937E-01
 162.50     3.8467    0.64396E-01
 162.50     3.8487    0.77921E-01
 162.50     3.8501    0.68683E-01
 162.50     3.8529    0.70120E-01
 162.50     3.8549    0.75110E-01
 162.50     3.8570    0.68721E-01
 162.50     3.8583    0.77263E-01
 162.50     3.8611    0.75856E-01
 162.50     3.8624    0.86532E-01
 162.50     3.8652    0.78012E-01
 162.50     3.8694    0.70923E-01
 162.50     3.8734    0.89438E-01
 162.50     3.8735    0.77347E-01
 162.50     3.8782    0.88753E-01
 162.50     3.8789    0.81645E-01
 162.50     3.8824    0.80241E-01
 162.50     3.8831    0.83801E-01
 162.50     3.8851    0.80257E-01
 162.50     3.8886    0.83832E-01
 162.50     3.8899    0.88107E-01
 162.50     3.8927    0.80299E-01
 162.50     3.8954    0.86004E-01
 162.50     3.8962    0.75339E-01
 162.50     3.8988    0.89579E-01
 162.50     3.8995    0.91716E-01
 162.50     3.9016    0.92439E-01
 162.50     3.9043    0.90320E-01
 162.50     3.9078    0.80383E-01
 162.50     3.9085    0.91766E-01
 162.50     3.9119    0.82539E-01
 162.50     3.9160    0.89674E-01
 162.50     3.9174    0.87548E-01
 162.50     3.9201    0.92542E-01
 162.50     3.9222    0.84019E-01
 162.50     3.9242    0.98255E-01
 162.50     3.9270    0.93291E-01
 162.50     3.9277    0.84049E-01
 162.50     3.9305    0.84064E-01
 167.50     4.2031    0.67662E-01
 167.50     4.2038    0.64861E-01
 167.50     4.2044    0.70464E-01
 167.50     4.2071    0.72566E-01
 167.50     4.2085    0.64865E-01
 167.50     4.2105    0.73969E-01
 167.50     4.2132    0.65568E-01
 167.50     4.2160    0.64169E-01
 167.50     4.2180    0.64871E-01
 167.50     4.2194    0.58569E-01
 167.50     4.2207    0.59971E-01
 167.50     4.2241    0.69076E-01
 167.50     4.2255    0.63475E-01
 167.50     4.2275    0.68378E-01
 167.50     4.2309    0.73982E-01
 167.50     4.2336    0.61379E-01
 167.50     4.2356    0.63481E-01
 167.50     4.2377    0.69785E-01
 167.50     4.2404    0.75389E-01
 167.50     4.2431    0.57884E-01
 167.50     4.2451    0.63487E-01
 167.50     4.2472    0.67690E-01
 167.50     4.2499    0.66992E-01
 167.50     4.2567    0.57193E-01
 167.50     4.2587    0.55093E-01
 167.50     4.2607    0.42490E-01
 167.50     4.2628    0.29187E-01
 167.50     4.2641    0.37591E-01
 167.50     4.2668    0.43194E-01
 167.50     4.2689    0.69105E-01
 167.50     4.2696    0.51599E-01
 167.50     4.2723    0.54402E-01
 167.50     4.2743    0.62806E-01
 167.50     4.2770    0.60707E-01
 167.50     4.2777    0.64909E-01
 167.50     4.2811    0.67012E-01
 167.50     4.2824    0.58610E-01
 167.50     4.2852    0.67715E-01
 167.50     4.2865    0.72617E-01
 167.50     4.2892    0.70518E-01
 167.50     4.2906    0.55114E-01
 167.50     4.2926    0.69820E-01
 167.50     4.2940    0.73322E-01
 167.50     4.2967    0.69823E-01
 167.50     4.2987    0.65623E-01
 167.50     4.3001    0.58621E-01
 167.50     4.3028    0.60723E-01
 167.50     4.3035    0.53021E-01
 167.50     4.3055    0.51622E-01
 167.50     4.3069    0.29215E-01
 167.50     4.3096    0.53025E-01
 167.50     4.3096    0.39721E-01
 167.50     4.3123    0.52327E-01
 167.50     4.3130    0.48126E-01
 167.50     4.3157    0.63533E-01
 167.50     4.3177    0.57932E-01
 167.50     4.3231    0.62137E-01
 167.50     4.3252    0.54436E-01
 167.50     4.3272    0.55837E-01
 167.50     4.3279    0.61440E-01
 167.50     4.3313    0.61442E-01
 167.50     4.3326    0.66344E-01
 167.50     4.3354    0.59344E-01
 167.50     4.3374    0.57244E-01
 167.50     4.3387    0.71250E-01
 167.50     4.3408    0.65649E-01
 167.50     4.3428    0.61449E-01
 167.50     4.3448    0.60750E-01
 167.50     4.3469    0.57250E-01
 167.50     4.3496    0.59353E-01
 167.50     4.3516    0.61455E-01
 167.50     4.3516    0.55153E-01
 167.50     4.3543    0.64258E-01
 167.50     4.3564    0.67060E-01
 167.50     4.3604    0.64262E-01
 167.50     4.3618    0.59361E-01
 167.50     4.3638    0.61463E-01
 167.50     4.3666    0.64966E-01
 167.50     4.3686    0.48861E-01
 167.50     4.3706    0.57966E-01
 167.50     4.3727    0.62869E-01
 167.50     4.3747    0.53767E-01
 167.50     4.3767    0.57270E-01
 167.50     4.3788    0.62173E-01
 167.50     4.3822    0.67076E-01
 167.50     4.3835    0.60775E-01
 167.50     4.3869    0.64979E-01
 167.50     4.3923    0.68483E-01
 167.50     4.4012    0.64288E-01
 167.50     4.4045    0.62889E-01
 167.50     4.4093    0.70595E-01
 167.50     4.4134    0.66396E-01
 167.50     4.4174    0.63598E-01
 167.50     4.4208    0.62900E-01
 167.50     4.4256    0.62903E-01
 167.50     4.4290    0.64305E-01
 167.50     4.4378    0.63611E-01
 167.50     4.4446    0.62215E-01
 167.50     4.4493    0.60817E-01
 167.50     4.4527    0.58018E-01
 167.50     4.4561    0.58721E-01
 167.50     4.4588    0.48219E-01
 167.50     4.4649    0.47523E-01
 167.50     4.4697    0.60830E-01
 167.50     4.4744    0.60833E-01
 167.50     4.4778    0.72740E-01
 167.50     4.4819    0.89548E-01
 167.50     4.4852    0.11266
 167.50     4.4893    0.90953E-01
 167.50     4.4941    0.90956E-01
 167.50     4.4981    0.72753E-01
 167.50     4.4988    0.79055E-01
 167.50     4.5029    0.81859E-01
 167.50     4.5070    0.84662E-01
 167.50     4.5110    0.91667E-01
 167.50     4.5158    0.10498
 167.50     4.5192    0.11128
 167.50     4.5225    0.12599
 167.50     4.5259    0.12879
 167.50     4.5293    0.11759
 167.50     4.5334    0.89581E-01
 167.50     4.5382    0.83282E-01
 167.50     4.5409    0.74180E-01
 167.50     4.5429    0.41270E-01
 167.50     4.5456    0.48275E-01
 167.50     4.5463    0.23767E-01
 167.50     4.5484    0.34272E-01
 167.50     4.5518    0.20269E-01
 167.50     4.5525    0.90655E-02
 167.50     4.5565    0.69673E-02
 167.50     4.5586    0.83691E-02
 167.50     4.5592    0.18873E-01
 167.50     4.5640    0.10473E-01
 167.50     4.5687    0.20980E-01
 167.50     4.5721    0.42690E-01
 167.50     4.5768    0.64400E-01
 167.50     4.5796    0.56699E-01
 167.50     4.5850    0.60904E-01
 167.50     4.5890    0.67909E-01
 167.50     4.5931    0.56708E-01
 167.50     4.5972    0.62312E-01
 167.50     4.6013    0.54612E-01
 167.50     4.6094    0.58819E-01
 167.50     4.6114    0.46216E-01
 167.50     4.6142    0.37815E-01
 167.50     4.6176    0.28714E-01
 167.50     4.6203    0.22413E-01
 167.50     4.6237    0.28718E-01
 167.50     4.6264    0.32921E-01
 167.50     4.6325    0.49030E-01
 167.50     4.6359    0.53934E-01
 167.50     4.6420    0.63041E-01
 167.50     4.6447    0.56041E-01
 167.50     4.6494    0.93157E-01
 167.50     4.6521    0.10926
 167.50     4.6555    0.12677
 167.50     4.6589    0.88961E-01
 167.50     4.6610    0.65154E-01
 167.50     4.6644    0.51852E-01
 167.50     4.6664    0.51853E-01
 167.50     4.6671    0.57455E-01
 167.50     4.6698    0.61659E-01
 167.50     4.6725    0.56058E-01
 167.50     4.6759    0.66564E-01
 167.50     4.6793    0.60264E-01
 167.50     4.6827    0.60266E-01
 167.50     4.6867    0.60269E-01
 167.50     4.6901    0.59571E-01
 167.50     4.6935    0.70077E-01
 167.50     4.6976    0.67278E-01
 167.50     4.7010    0.60978E-01
 167.50     4.7044    0.87590E-01
 167.50     4.7078    0.74988E-01
 167.50     4.7112    0.63786E-01
 167.50     4.7139    0.68689E-01
 167.50     4.7166    0.65190E-01
 167.50     4.7200    0.73595E-01
 167.50     4.7227    0.66594E-01
 167.50     4.7268    0.54693E-01
 167.50     4.7295    0.66599E-01
 167.50     4.7335    0.57498E-01
 167.50     4.7376    0.62402E-01
 167.50     4.7410    0.66606E-01
 167.50     4.7451    0.59606E-01
 167.50     4.7471    0.49804E-01
 167.50     4.7498    0.51907E-01
 167.50     4.7512    0.39303E-01
 167.50     4.7539    0.40705E-01
 167.50     4.7593    0.35107E-01
 167.50     4.7607    0.31607E-01
 167.50     4.7654    0.37912E-01
 167.50     4.7688    0.72926E-01
 167.50     4.7735    0.85533E-01
 167.50     4.7769    0.10794
 167.50     4.7810    0.15206
 167.50     4.7836    0.20808
 167.50     4.7884    0.21579
 167.50     4.7918    0.11636
 167.50     4.7952    0.98152E-01
 167.50     4.7980    0.89050E-01
 167.50     4.8007    0.48438E-01
 167.50     4.8041    0.26733E-01
 167.50     4.8082    0.29536E-01
 167.50     4.8129    0.28139E-01
 167.50     4.8224    0.34447E-01
 167.50     4.8265    0.34450E-01
 167.50     4.8306    0.39354E-01
 167.50     4.8333    0.37255E-01
 167.50     4.8373    0.35857E-01
 167.50     4.8441    0.38662E-01
 167.50     4.8482    0.44267E-01
 167.50     4.8516    0.49171E-01
 167.50     4.8550    0.41470E-01
 167.50     4.8584    0.35170E-01
 167.50     4.8624    0.39374E-01
 167.50     4.8658    0.44278E-01
 167.50     4.8692    0.44280E-01
 167.50     4.8733    0.38681E-01
 167.50     4.8767    0.45686E-01
 167.50     4.8801    0.40786E-01
 167.50     4.8841    0.36587E-01
 167.50     4.8875    0.33788E-01
 167.50     4.8909    0.49896E-01
 167.50     4.8943    0.39395E-01
 167.50     4.8977    0.35896E-01
 167.50     4.9004    0.43600E-01
 167.50     4.9031    0.35199E-01
 167.50     4.9072    0.35902E-01
 167.50     4.9106    0.35204E-01
 167.50     4.9133    0.32404E-01
 167.50     4.9174    0.33107E-01
 167.50     4.9215    0.38712E-01
 167.50     4.9248    0.36613E-01
 167.50     4.9282    0.35215E-01
 167.50     4.9330    0.42220E-01
 167.50     4.9357    0.46424E-01
 167.50     4.9384    0.39423E-01
 167.50     4.9432    0.45028E-01
ENDDATA           3568
ENDSUBENT         3581
SUBENT        F0590003   20031006   20050616                  Y000
BIB                  3          8
REACTION  1(12-MG-24(A,0),,EN)
          2(12-MG-24(A,0),,J)
          3(12-MG-24(A,EL),,WID)
          4(12-MG-24(A,0),,PTY)
ERR-ANALYS (EN-ERR1)The error of the difference in the energy of
           two neighbouring resonances never exceeds +- 1 keV.
           (DATA-ERR) The uncertainty in resonance width
STATUS     (TABLE)Table 1
ENDBIB               8
COMMON               2          3
EN-ERR1    DATA-ERR
KEV        PER-CENT
 1.         30.
ENDCOMMON            3
DATA                 4         20
DATA      1DATA      2DATA      3DATA      4
MEV        NO-DIM     KEV        NO-DIM
 3198.0     2.0000    0.60000     1.0000
 3304.0     1.0000     3.5000    -1.0000
 3400.0     2.0000     1.3000     1.0000
 3486.0     1.0000     1.7000    -1.0000
 3490.0     0.0000     5.2000     1.0000
 3565.0     0.0000     3.2000     1.0000
 3791.0     0.0000     3.0000     1.0000
 3808.0     3.0000     11.500    -1.0000
 4263.0     2.0000     4.5000     1.0000
 4309.0     2.0000     1.9000     1.0000
 4471.0     1.0000     11.400    -1.0000
 4493.0     3.0000    0.90000    -1.0000
 4541.0     3.0000     19.700    -1.0000
 4565.0     1.0000     5.4000    -1.0000
 4622.0     2.0000     6.2000     1.0000
 4656.0     4.0000     1.3000     1.0000
 4661.0     2.0000     4.5000     1.0000
 4669.0     1.0000     7.2000    -1.0000
 4759.0     2.0000     5.9000     1.0000
 4789.0     3.0000     3.7000    -1.0000
ENDDATA             22
ENDSUBENT           39
ENDENTRY             3
