ENTRY            C2909   20231107   20240807   20240807       C237
SUBENT        C2909001   20231107   20240807   20240807       C237
BIB                 10         17
TITLE      Reaction 116Sn(alpha,3He) at 65.7 MeV
AUTHOR     (C.R.Bingham,M.L.Halbert)
INSTITUTE  (1USATEN,1USAORL)
REFERENCE  (J,PR/C,1,244,1970)
           #doi:10.1103/PhysRevC.1.244
FACILITY   (ISOCY,1USAORL)
DETECTOR   (TELES,SI) A (deltaE,E) counter telescope consisting
           of two silicon detectors was used to separate 3He
           particles from alpha particles.
SAMPLE     Two isotopically enriched metal foils were used as
           targets. The thinner one, 1.20 mg/cms, was 95.7%
           116Sn and was used for angles below 50 degrees lab;
           the other was 5.0 mg/cm2 thick.
           (50-SN-116,ENR=0.957)
METHOD     (EXTB,EDE)
ADD-RES    (POT) Optical model analysis, DWBA analysis.
HISTORY    (20230312C)  OG
ENDBIB              17
COMMON               1          3
EN
MEV
  65.7
ENDCOMMON            3
ENDSUBENT           24
SUBENT        C2909002   20231107   20240807   20240807       C237
BIB                  3          3
REACTION   (50-SN-116(A,HE3)50-SN-117,PAR,DA)
ERR-ANALYS (DATA-ERR) No information on source of uncertainties
STATUS     (CURVE,,C.R.Bingham+,J,PR/C,1,244,1970) Fig.2 (p.246)
ENDBIB               3
NOCOMMON             0          0
DATA                 4        233
E-LVL      ANG-CM     DATA-CM    DATA-ERR
MEV        ADEG       MB/SR      MB/SR
         0.     15.179  8.016E-02
         0.     16.129  3.916E-02
         0.     17.568  3.950E-02
         0.     18.285  5.866E-02
         0.     19.187  4.186E-02
         0.     20.266  4.051E-02
         0.     22.382  3.466E-02
         0.     22.514  5.275E-02
         0.     24.586  3.116E-02
         0.     25.528  4.441E-02
         0.     26.473  4.227E-02
         0.     27.605  1.449E-02
         0.     28.595  1.450E-02
         0.     29.717  2.033E-02
         0.     30.614  2.921E-02
         0.     31.745  1.087E-02  6.373E-03
         0.     35.251  1.684E-02
         0.     42.280  2.733E-03
         0.     46.513  1.251E-03
         0.     52.676  1.116E-03
       0.16     15.122  5.314E-01
       0.16     16.204  4.327E-01
       0.16     17.108  2.752E-01
       0.16     18.098  2.822E-01
       0.16     19.267  2.870E-01
       0.16     20.075  3.441E-01
       0.16     21.291  2.919E-01
       0.16     22.148  2.397E-01
       0.16     23.724  1.904E-01
       0.16     24.490  1.697E-01
       0.16     24.712  2.227E-01
       0.16     25.436  1.501E-01
       0.16     25.798  1.252E-01
       0.16     26.429  1.144E-01
       0.16     26.878  1.232E-01
       0.16     28.496  1.328E-01
       0.16     28.863  7.159E-02
       0.16     29.352  1.145E-01
       0.16     30.036  4.824E-02
       0.16     30.391  8.039E-02
       0.16     31.023  6.127E-02
       0.16     31.520  5.372E-02
       0.16     32.011  7.168E-02
       0.16     32.693  3.771E-02
       0.16     33.048  5.647E-02
       0.16     34.042  4.030E-02
       0.16     35.029  5.119E-02
       0.16     36.154  4.716E-02
       0.16     37.102  3.566E-02
       0.16     38.184  2.696E-02
       0.16     40.075  2.214E-02
       0.16     41.203  1.633E-02
       0.16     42.285  1.386E-02
       0.16     43.184  1.444E-02
       0.16     44.224  8.743E-03
       0.16     45.166  1.083E-02
       0.16     46.471  9.900E-03
       0.16     47.417  9.349E-03
       0.16     48.321  5.706E-03
       0.16     49.401  5.615E-03
       0.16     51.471  5.304E-03
       0.16     52.506  5.009E-03
       0.16     62.728  1.667E-03
       0.16     64.768  4.183E-04
       0.32     13.078  1.088E+01
       0.32     14.210  6.143E+00
       0.32     15.154  6.621E+00
       0.32     16.238  4.915E+00
       0.32     17.272  5.211E+00
       0.32     18.264  4.453E+00
       0.32     19.255  4.101E+00
       0.32     20.248  3.253E+00
       0.32     21.419  2.995E+00
       0.32     22.411  2.581E+00
       0.32     23.809  2.152E+00
       0.32     24.530  1.981E+00
       0.32     24.935  1.917E+00
       0.32     25.566  1.736E+00
       0.32     25.972  1.612E+00
       0.32     26.514  1.412E+00
       0.32     26.920  1.332E+00
       0.32     27.552  1.111E+00
       0.32     28.002  1.148E+00
       0.32     28.723  1.066E+00
       0.32     28.991  1.197E+00
       0.32     29.624  9.495E-01
       0.32     30.074  9.981E-01
       0.32     30.663  6.990E-01
       0.32     31.112  7.227E-01
       0.32     31.698  7.229E-01
       0.32     32.148  6.879E-01
       0.32     32.689  6.493E-01
       0.32     33.230  5.928E-01
       0.32     33.769  6.336E-01
       0.32     34.222  5.237E-01
       0.32     34.630  3.952E-01
       0.32     35.259  4.402E-01
       0.32     35.798  4.705E-01
       0.32     36.206  3.794E-01
       0.32     36.883  3.188E-01
       0.32     37.244  2.984E-01
       0.32     37.827  3.553E-01
       0.32     38.190  2.817E-01
       0.32     38.866  2.572E-01
       0.32     39.315  2.889E-01
       0.32     39.809  3.140E-01
       0.32     40.398  2.199E-01
       0.32     41.301  1.687E-01
       0.32     41.931  1.759E-01
       0.32     42.291  1.789E-01
       0.32     43.418  1.431E-01
       0.32     44.409  1.419E-01
       0.32     44.952  1.036E-01
       0.32     45.536  1.223E-01
       0.32     46.484  9.543E-02
       0.32     46.984  6.101E-02
       0.32     47.476  8.088E-02
       0.32     48.467  7.087E-02
       0.32     49.281  5.089E-02
       0.32     49.459  6.261E-02
       0.32     50.314  6.263E-02
       0.32     52.525  3.876E-02
       0.32     53.202  3.367E-02
       0.32     53.606  3.569E-02
       0.32     54.507  3.232E-02
       0.32     55.863  2.102E-02
       0.32     56.851  2.502E-02
       0.32     57.707  2.285E-02
       0.32     58.660  1.139E-02
       0.32     59.785  1.198E-02
       0.32     60.599  8.602E-03
       0.32     61.864  5.734E-03
       0.32     62.716  7.540E-03
       0.32     63.708  6.234E-03
       0.32     64.790  5.240E-03
       0.32     65.826  4.906E-03
       0.32     67.809  3.958E-03
       0.32     70.782  3.142E-03
       0.32     71.683  3.041E-03
       0.32     72.812  2.095E-03
       0.32     73.936  2.334E-03
       0.32     74.834  2.970E-03
       0.32     75.872  2.186E-03
       0.32     82.986  1.767E-03
       0.32     83.977  1.696E-03
       0.32     84.970  1.291E-03
       0.72     14.219  6.067E-01
       0.72     15.118  6.866E-01
       0.72     16.340  3.864E-01
       0.72     17.194  4.231E-01
       0.72     19.267  3.448E-01
       0.72     20.261  2.325E-01
       0.72     21.393  1.330E-01
       0.72     22.381  1.555E-01
       0.72     23.681  2.426E-01
       0.72     24.363  1.365E-01
       0.72     25.580  1.168E-01
       0.72     26.616  1.112E-01
       0.72     27.023  9.438E-02
       0.72     27.655  8.142E-02
       0.72     28.008  1.521E-01
       0.72     28.647  6.578E-02
       0.72     29.048  9.524E-02
       0.72     29.633  1.017E-01
       0.72     30.087  7.205E-02  2.090E-02
       0.72     30.714  9.298E-02
       0.72     31.119  9.073E-02
       0.72     31.670  3.585E-02
       0.72     32.019  9.457E-02
       0.72     32.749  4.091E-02  9.330E-03
       0.72     33.293  2.873E-02
       0.72     34.235  3.832E-02
       0.72     35.136  3.590E-02
       0.72     36.260  3.899E-02
       0.72     37.295  3.998E-02
       0.72     38.334  2.855E-02
       0.72     40.361  2.465E-02
       0.72     41.444  1.927E-02  4.591E-03
       0.72     42.343  2.127E-02
       0.72     43.470  1.851E-02
       0.72     44.553  1.412E-02
       0.72     45.462  6.311E-03
       0.72     46.494  8.628E-03
       0.72     47.441  7.263E-03
       0.72     48.568  6.165E-03  1.161E-03
       0.72     49.468  6.218E-03
       0.72     52.626  3.306E-03
       0.72     67.730  3.413E-04  1.527E-04
       0.72     71.822  4.908E-04  2.023E-04
       1.58     14.384  5.781E-01
       1.58     15.398  6.044E-01
       1.58     16.371  2.262E-01
       1.58     16.569  3.839E-01
       1.58     17.467  3.425E-01
       1.58     18.346  4.933E-01
       1.58     19.412  3.493E-01
       1.58     20.477  2.305E-01
       1.58     21.539  2.541E-01
       1.58     22.458  2.326E-01
       1.58     23.910  1.535E-01
       1.58     24.489  1.722E-01
       1.58     25.666  1.306E-01
       1.58     25.990  1.004E-01
       1.58     26.759  1.199E-01
       1.58     27.101  1.068E-01
       1.58     27.634  8.119E-02
       1.58     28.067  1.078E-01
       1.58     28.795  6.743E-02
       1.58     29.904  8.875E-02
       1.58     30.098  7.703E-02
       1.58     30.822  9.529E-02
       1.58     31.209  8.800E-02
       1.58     31.741  7.116E-02
       1.58     31.984  6.629E-02
       1.58     32.226  5.754E-02
       1.58     32.370  6.231E-02
       1.58     33.192  5.755E-02
       1.58     33.871  4.259E-02
       1.58     34.303  5.706E-02
       1.58     35.386  4.986E-02
       1.58     36.429  5.559E-02
       1.58     38.318  2.763E-02
       1.58     39.330  2.961E-02
       1.58     40.422  3.047E-02
       1.58     41.457  3.301E-02
       1.58     42.425  2.358E-02
       1.58     43.392  2.140E-02
       1.58     44.551  2.359E-02
       1.58     45.471  1.685E-02
       1.58     46.590  1.686E-02
       1.58     47.501  1.438E-02
       1.58     48.469  1.205E-02
       1.58     49.438  8.380E-03
ENDDATA            235
ENDSUBENT          243
ENDENTRY             2
