ENTRY            C2943   20231113   20240807   20240807       C237
SUBENT        C2943001   20231113   20240807   20240807       C237
BIB                 10         15
TITLE      Study of the 84Sr(alpha,p) reaction
AUTHOR     (L.R.Medsker,D.Mukhopadhyay,H.T.Fortune)
INSTITUTE  (1USAFSU,1USAPEN)
REFERENCE  (J,NP/A,292,61,1977)
           #doi:10.1016/0375-9474(77)90357-8
FACILITY   (VDGT,1USAPEN)
DETECTOR   A multiangle spectrograph, and spectra were recorded on
           Ilford KS nuclear emulsion plates.
SAMPLE     The target was evaporated to a thickness of about of
           50 mu-g/cm2 on a carbon backing.
           (38-SR-84,ENR=0.9978)
METHOD     (EXTB)
ADD-RES    (POT)  The distorted wave Born approximation
           calculations.
HISTORY    (20230503C) OG
ENDBIB              15
NOCOMMON             0          0
ENDSUBENT           18
SUBENT        C2943002   20231113   20240807   20240807       C237
BIB                  3          3
REACTION   (38-SR-84(A,P)39-Y-87,PAR,DA)
ERR-ANALYS (DATA-ERR) No information on source of uncertainties
STATUS     (CURVE,,L.R.Medsker+,J,NP/A,292,61,1977) Fig.2 (p.64)
ENDBIB               3
COMMON               2          3
EN         E-EXC-ERR
MEV        KEV
18.        8.
ENDCOMMON            3
DATA                 4        188
E-EXC      ANG-CM     DATA-CM    DATA-ERR
KEV        ADEG       MU-B/SR    MU-B/SR
         0.      6.014  3.923E+01  7.078E+00
         0.     13.379  2.878E+01
         0.     21.052  1.544E+01  2.789E+00
         0.     28.727  7.610E+00
         0.     36.374  7.632E+00  1.375E+00
         0.     43.427  8.821E+00  1.639E+00
         0.     51.103  4.347E+00
         0.     58.785  1.858E+00
         0.     66.185  5.810E-01  1.910E-01
         0.     73.497  1.576E+00  3.558E-01
         0.     80.827  2.790E+00  5.674E-01
         0.     96.485  4.955E-01  1.820E-01
         0.    111.199  4.084E-01  1.704E-01
         0.    118.808  1.046E+00  3.232E-01
         0.    126.172  7.897E-01  2.592E-01
         0.    133.819  7.920E-01  3.036E-01
         0.    141.203  3.687E-01  1.499E-01
       388.      6.805  3.205E+01  5.535E+00
       388.     14.201  2.876E+01
       388.     21.893  3.036E+01  5.243E+00
       388.     29.882  2.955E+01
       388.     37.574  3.036E+01  5.243E+00
       388.     44.970  2.078E+01
       388.     52.959  1.766E+01  3.116E+00
       388.     60.059  1.422E+01  2.456E+00
       388.     67.751  1.422E+01  2.133E+00
       388.     75.444  5.661E+00
       388.     83.136  4.683E+00
       388.     97.929  4.436E+00  7.829E-01
       388.    105.621  3.874E+00  5.812E-01
       388.    112.722  3.771E+00
       388.    120.414  2.724E+00
       388.    127.515  1.968E+00
       388.    135.207  2.581E+00
       388.    142.604  3.572E+00
       801.      6.471  9.720E+00  1.715E+00
       801.     14.118  8.699E+00
       801.     21.765  8.944E+00  1.578E+00
       801.     29.412  8.944E+00  1.578E+00
       801.     37.059  6.778E+00  1.227E+00
       801.     44.706  4.114E+00
       801.     51.765  4.597E+00  8.111E-01
       801.     59.412  4.349E+00
       801.     66.765  2.714E+00  4.160E-01
       801.     74.706  1.320E+00  4.491E-01
       801.     82.059  8.705E-01  3.272E-01
       801.     97.353  1.395E+00  4.976E-01
       801.    104.706  1.181E+00  3.800E-01
       981.      6.205  2.185E+01  3.825E+00
       981.     13.259  1.410E+01  2.469E+00
       981.     20.904  7.710E+00  1.349E+00
       981.     28.839  4.839E+00  8.673E-01
       981.     36.472  4.714E+00
       981.     44.102  5.126E+00
       981.     51.440  5.423E+00  9.486E-01
       981.     59.097  1.620E+00  3.894E-01
       981.     67.039  7.312E-01  2.471E-01
       981.     74.084  7.321E-01  2.733E-01
       981.     82.297  9.921E-01  2.588E-01
       981.     96.962  1.821E+00  6.154E-01
       981.    103.754  2.590E-01  1.011E-01
      1157.      6.651  5.054E+00  8.948E-01
      1157.     14.002  1.971E+00  4.509E-01
      1157.     22.054  2.103E+00  5.368E-01
      1157.     29.406  4.026E+00
      1157.     37.108  2.817E+00
      1157.     44.459  2.640E+00  4.654E-01
      1157.     52.161  1.731E+00  4.417E-01
      1157.     60.213  6.748E-01  2.291E-01
      1157.     67.915  1.211E+00  4.170E-01
      1157.     75.267  9.645E-01  3.701E-01
      1157.     82.968  1.292E+00  3.833E-01
      1157.     97.672  8.200E-01  3.146E-01
      1157.    105.024  1.211E+00  3.357E-01
      1203.      8.988  6.702E+00  1.133E+00
      1203.     16.305  2.944E+00  4.979E-01
      1203.     23.929  1.729E+00
      1203.     31.855  1.223E+00  3.557E-01
      1203.     39.536  2.626E+00
      1203.     46.835  7.756E-01  2.257E-01
      1203.     54.756  4.804E-01  1.624E-01
      1203.     62.433  9.532E-01  2.776E-01
      1203.     70.075  8.552E-01  2.590E-01
      1203.     77.373  2.395E-01  9.833E-02
      1203.     84.458  4.391E-01  8.377E-02
      1203.    100.620  3.178E-01  1.073E-01
      1203.    107.373  2.434E-01  9.614E-02
      1321.      8.718  5.301E+00  9.255E-01
      1321.     23.944  1.805E+00  3.153E-01
      1321.     31.578  1.483E+00  2.252E-01
      1321.     38.521  2.420E-01  1.266E-01
      1321.     46.837  8.501E-01  2.547E-01
      1321.     54.384  1.774E-01  1.054E-01
      1321.     69.435  3.897E-01  1.383E-01
      1321.     99.569  3.163E-02  3.287E-02
      1321.    107.594  1.174E-01  6.720E-02
      1403.      7.540  5.532E+00  9.455E-01
      1403.     14.890  2.678E+00  4.579E-01
      1403.     22.279  3.136E+00  4.657E-01
      1403.     30.264  4.199E+00  8.990E-01
      1403.     38.239  4.417E+00  7.541E-01
      1403.     45.591  2.256E+00  4.644E-01
      1403.     53.266  2.132E+00  4.113E-01
      1403.     60.948  2.367E+00  4.047E-01
      1403.     68.906  1.712E+00  4.019E-01
      1403.     76.555  8.977E-01  2.467E-01
      1403.     84.236  9.701E-01  2.852E-01
      1403.     99.285  7.789E-01  1.986E-01
      1403.    106.959  7.168E-01  1.969E-01
      1504.      7.315  2.943E+00  5.082E-01
      1504.     14.640  1.530E+00  2.644E-01
      1504.     30.727  2.277E-01  8.751E-02
      1504.     37.856  5.545E-01  1.926E-01
      1504.     46.149  1.058E+00  3.290E-01
      1504.     61.616  9.936E-02  5.024E-02
      1504.     76.704  2.475E-01  1.141E-01
      1504.     99.634  1.028E-01  5.716E-02
      1618.      6.727  1.860E+01  3.213E+00
      1618.     14.941  1.139E+01  1.968E+00
      1618.     22.873  9.143E+00
      1618.     30.220  7.964E+00
      1618.     38.152  6.394E+00
      1618.     45.797  6.206E+00  7.861E-01
      1618.     53.431  4.471E+00  8.704E-01
      1618.     61.059  2.891E+00
      1618.     69.020  4.568E+00  7.895E-01
      1618.     76.616  1.383E+00
      1618.     84.266  1.496E+00  2.913E-01
      1618.     99.228  6.087E-01  1.808E-01
      1618.    107.208  1.525E+00  4.230E-01
      1757.      9.636  2.145E+00
      1757.     16.891  7.138E-01  3.056E-01
      1757.     24.481  4.712E-01  1.486E-01
      1757.     32.487  2.118E+00
      1757.     40.396  2.052E+00
      1757.     47.672  9.749E-01  3.075E-01
      1757.     55.276  7.797E-01  1.916E-01
      1757.     62.804  1.918E-01  9.752E-02
      1757.     78.304  1.261E-01  6.911E-02
      1757.     85.674  2.561E-01  1.081E-01
      1757.    100.843  9.209E-02  5.868E-02
      1757.    108.520  2.329E-01  9.065E-02
      1851.      8.976  5.560E+00
      1851.     16.863  3.859E+00
      1851.     24.439  2.030E+00  4.037E-01
      1851.     32.037  1.490E+00  3.914E-01
      1851.     39.679  2.187E+00  3.353E-01
      1851.     47.267  1.397E+00  3.088E-01
      1851.     55.507  2.490E+00
      1851.     63.077  1.172E+00  1.796E-01
      1851.     78.242  3.939E-01  1.549E-01
      1851.     85.841  2.972E-01  1.265E-01
      1851.    108.251  2.854E-02  3.181E-02
      2012.      8.929  4.294E+00
      2012.     16.194  1.023E+00  2.924E-01
      2012.     23.847  2.435E+00
      2012.     30.831  7.680E-01  2.489E-01
      2012.     38.425  4.368E-01  1.419E-01
      2012.     45.462  5.013E-01  1.814E-01
      2012.     53.381  6.257E-01  1.789E-01
      2012.     61.556  3.091E-01  1.238E-01
      2012.     77.115  6.747E-01  2.442E-01
      2012.    106.359  1.834E-01  8.725E-02
      2103.      8.509  6.126E+00
      2103.     16.050  3.372E+00
      2103.     24.130  1.275E+00  3.498E-01
      2103.     31.208  1.841E+00  2.737E-01
      2103.     38.801  1.514E+00  4.642E-01
      2103.     46.380  1.119E+00  2.849E-01
      2103.     53.935  6.855E-01  2.347E-01
      2103.     62.314  2.734E+00  5.840E-01
      2103.     77.197  1.707E+00  3.512E-01
      2201.      8.231  1.198E+01
      2201.     15.781  7.917E+00  1.181E+00
      2201.     23.018  4.447E+00  6.682E-01
      2201.     30.637  5.050E+00  8.735E-01
      2201.     38.479  3.335E+00
      2201.     46.064  2.889E+00  3.659E-01
      2201.     53.947  2.640E+00  4.553E-01
      2201.     61.201  1.698E+00
      2282.      7.563  5.345E+00
      2282.     14.854  4.196E+00  8.809E-01
      2282.     22.467  4.835E+00  1.015E+00
      2282.     30.089  6.268E+00  1.171E+00
      2282.     37.934  3.254E+00
      2282.     45.819  2.874E+00  3.943E-01
      2282.     53.409  2.465E+00
      2282.     61.208  7.093E-01  2.114E-01
ENDDATA            190
ENDSUBENT          202
ENDENTRY             2
