ENTRY            M0398     940304              20050926       0000
SUBENT        M0398001     940304              20050926       0000
BIB                 13         18
TITLE      THE PHOTONEUTRON CROSS SECTIONS OF LA-139 AND PR-141.
AUTHOR     (T.K.DEAGUE,R.J.J.STEWART)
INSTITUTE  (3AULAML)
REFERENCE  (J,NP/A,191,305,72)
FACILITY   (BETAT,3AULAML)
INC-SOURCE (BRST)
DETECTOR   (BF3) 4PI HALPERN-TYPE NEUTRON DETECTOR.
METHOD     (EXTB)
SAMPLE     NATURAL (VIRTUALLY MONO-ISOTOPIC:  PR-141 ABUNDANCE IS
            NEAR 100 PERCENTS,  THAT OF LA-139 - 99.91  PERCENTS)
            TARGETS OF LA AND PR METALS WERE USED.
ANALYSIS   (PLA)  THE VARIABLE-BIN PENFOLD-LEISS UNFOLDING METHOD
            WAS USED   FOR  OBTAINING  CROSS  SECTION  DATA  FROM
            EXPERIMENTAL YIELD CURVE.
ERR-ANALYS MEAN ROOT-SQUARE ERRORS ARE GIVEN.
STATUS     (CURVE)   THE DATA HAVE BEEN DIGITIZED IN USA LLNL AND
            OBTAINED BY CDFE IN THE FORM OF DATA TABLES.
HISTORY    (930421C)
ENDBIB              18
NOCOMMON
ENDSUBENT           21
SUBENT        M0398002     940304              20050926       0000
BIB                  2          4
REACTION   (59-PR-141(G,X)0-NN-1,,SIG,,BRS,EXP)
COMMENT    THE (G,XN) = ((G,N) + (G,NP) + 2(G,2N) +... ) REACTION
            CROSS SECTION WAS OBTAINED.  THE THRESHOLD  OF (G,NP)
            REACTION IS 14.4 MEV, THAT FOR (G,2N) - 17.3 MEV.
ENDBIB               4
COMMON               1          3
ANAL-STEP
MEV
  0.1
ENDCOMMON            3
DATA                 3        119
EN         DATA       DATA-ERR
MEV        MB         MB
     9.305     5.839     1.000
     9.423     5.810     1.234
     9.542     7.832     1.470
     9.662    11.910     1.708
     9.841    20.070     2.064
    10.020    34.380     2.419
    10.080    36.420     2.538
    10.260    38.430     2.895
    10.320    34.310     3.014
    10.440    38.390     3.252
    10.500    38.370     3.371
    10.620    40.390     3.609
    10.730    40.370     3.828
    10.850    44.440     4.066
    10.860    44.440     4.086
    11.030    50.550     4.423
    11.090    56.690     4.542
    11.210    52.560     4.780
    11.270    54.590     4.899
    11.390    58.670     5.137
    11.450    58.650     5.256
    11.510    58.640     5.375
    11.570    56.570     5.494
    11.630    66.820     5.614
    11.810    66.770     5.971
    11.870    72.910     6.090
    12.050    79.020     6.447
    12.170    87.200     6.685
    12.220    83.080     6.784
    12.280    87.170     6.903
    12.350    95.360     7.042
    12.520    97.370     7.380
    12.640    97.340     7.618
    12.760   111.700     7.856
    12.890   128.100     8.114
    12.940   126.000     8.213
    13.060   128.000     8.451
    13.180   125.900     8.689
    13.240   138.200     8.808
    13.360   152.600     9.046
    13.430   171.000     9.185
    13.670   197.600     9.661
    13.850   211.900    10.019
    14.030   203.700    10.376
    14.040   257.000    10.396
    14.220   259.000    10.753
    14.330   263.100    10.971
    14.400   285.600    11.110
    14.520   279.500    11.348
    14.630   279.400    11.566
    14.760   299.900    11.824
    14.820   322.500    11.943
    14.880   332.700    12.062
    15.060   328.600    12.420
    15.120   334.700    12.539
    15.250   377.700    12.797
    15.370   402.300    13.035
    15.490   404.300    13.273
    15.540   361.300    13.372
    15.600   363.300    13.491
    15.710   346.900    13.709
    15.770   330.400    13.828
    15.890   314.000    14.067
    16.000   309.900    14.285
    16.120   324.200    14.523
    16.180   311.900    14.642
    16.300   320.000    14.880
    16.420   318.000    15.118
    16.430   281.000    15.138
    16.530   287.200    15.337
    16.590   272.800    15.456
    16.770   268.700    15.813
    16.880   229.700    16.031
    16.990   225.500    16.249
    17.050   207.000    16.368
    17.170   209.100    16.606
    17.220   174.200    16.706
    17.340   182.400    16.944
    17.460   176.200    17.182
    17.510   157.700    17.281
    17.570   139.200    17.400
    17.630   133.100    17.519
    17.740   128.900    17.738
    17.800   124.800    17.857
    17.920   124.800    18.095
    18.040   112.400    18.333
    18.160   112.400    18.571
    18.210   102.100    18.670
    18.330   116.500    18.908
    18.450   116.400    19.146
    18.460   116.400    19.166
    18.570   100.000    19.385
    18.690    99.980    19.623
    18.750    97.920    19.742
    18.860    91.730    19.960
    18.920    91.720    20.079
    19.100    95.780    20.436
    19.160    83.460    20.555
    19.390    77.250    21.012
    19.450    77.230    21.131
    19.570    81.310    21.369
    19.750    75.110    21.726
    19.810    73.040    21.845
    19.930    73.020    22.083
    20.040    72.990    22.301
    20.160    77.060    22.540
    20.170    70.910    22.559
    20.340    62.660    22.897
    20.400    70.850    23.016
    20.520    72.870    23.254
    20.570    58.500    23.353
    20.640    66.690    23.492
    20.750    68.710    23.710
    20.810    64.600    23.829
    20.990    66.600    24.186
    21.050    60.440    24.306
    21.170    62.460    24.544
    21.230    62.450    24.663
    21.400    60.350    25.000
ENDDATA            121
ENDSUBENT          134
SUBENT        M0398003     940304              20050926       0000
BIB                  2          4
REACTION   (59-PR-141(G,X)0-NN-1,,SIG,,BRS,EXP)
COMMENT    THE (G,XN) = ((G,N) + (G,NP) + 2(G,2N) + ...) REACTION
            CROSS SECTION WAS OBTAINED.  THE THRESHOLD  OF (G,NP)
            REACTION IS 14.4 MEV, THAT FOR (G,2N) - 17.3 MEV.
ENDBIB               4
COMMON               1          3
ANAL-STEP
MEV
  0.05
ENDCOMMON            3
DATA                 3        159
EN         DATA       DATA-ERR
MEV        MB         MB
     9.260    10.41      5.0
     9.273    13.31
     9.301    14.79
     9.342    17.72
     9.383    17.77
     9.424    17.82
     9.465    19.31
     9.493    19.34
     9.520    19.38
     9.547    22.30
     9.575    22.33
     9.643    23.85
     9.712    26.82
     9.793    35.58
     9.862    38.54
     9.943    44.42
    10.010    45.94
    10.080    48.91
    10.140    47.53
    10.200    50.49
    10.230    51.97
    10.290    47.70
    10.330    50.64
    10.370    47.80
    10.400    52.16
    10.450    49.34
    10.510    52.29
    10.570    52.37
    10.630    59.65
    10.670    55.37
    10.730    55.43
    10.750    56.91
    10.820    59.87
    10.880    57.05
    10.890    57.07
    11.000    58.64
    11.030    61.56
    11.080    63.06
    11.140    68.90
    11.190    73.30
    11.230    71.90
    11.290    69.08
    11.340    67.70
    11.360    69.16
    11.410    70.67
    11.450    67.83
    11.510    69.33
    11.550    78.05
    11.630    76.70
    11.640    72.38
    11.730    73.92
    11.750    84.06
    11.810    88.46
    11.890    88.55
    11.920    98.69
    11.970    97.31
    12.010    88.69
    12.050    87.30
    12.100    85.90
    12.140   100.40
    12.230    93.28
    12.230   100.50
    12.290    96.23
    12.330   104.90
    12.380   106.50
    12.440   103.60
    12.480   112.30
    12.600   111.00
    12.620   116.80
    12.660   118.30
    12.710   119.80
    12.740   128.50
    12.750   125.70
    12.820   122.80
    12.830   138.70
    12.920   130.20
    12.940   136.00
    13.010   137.50
    13.050   139.00
    13.090   149.20
    13.150   165.10
    13.220   156.50
    13.270   171.00
    13.340   161.00
    13.380   189.90
    13.410   165.40
    13.470   187.10
    13.520   169.90
    13.570   187.20
    13.610   197.40
    13.650   206.10
    13.710   196.10
    13.730   193.20
    13.830   215.00
    13.870   216.50
    13.920   218.00
    13.980   231.00
    14.000   271.50
    14.060   232.60
    14.110   245.60
    14.160   237.00
    14.210   263.10
    14.250   260.20
    14.300   269.00
    14.360   277.70
    14.400   285.00
    14.450   287.90
    14.490   276.40
    14.570   318.40
    14.630   291.00
    14.670   322.80
    14.720   311.30
    14.750   333.00
    14.810   311.40
    14.860   343.30
    14.900   314.40
    14.940   337.60
    14.980   334.70
    15.050   343.50
    15.100   352.20
    15.170   355.20
    15.200   371.10
    15.220   398.60
    15.290   377.00
    15.330   395.80
    15.370   407.40
    15.440   393.00
    15.490   352.70
    15.520   357.00
    15.570   404.70
    15.630   352.80
    15.650   361.50
    15.710   341.40
    15.750   342.80
    15.810   358.80
    15.880   306.90
    15.910   318.50
    15.980   283.90
    16.000   315.70
    16.060   325.90
    16.100   344.70
    16.140   321.60
    16.190   318.80
    16.260   353.50
    16.310   350.70
    16.340   336.30
    16.390   319.00
    16.440   284.40
    16.470   287.40
    16.510   287.40
    16.550   293.20
    16.610   277.40
    16.670   264.50
    16.740   228.50
    16.750   232.80
    16.810   225.70
    16.860   235.80
    16.920   234.50
    16.960   227.30     20.0
ENDDATA            161
ENDSUBENT          174
SUBENT        M0398004     940304              20050926       0000
BIB                  2          4
REACTION   (57-LA-139(G,X)0-NN-1,,SIG,,BRS,EXP)
COMMENT    THE (G,XN) = ((G,N) + (G,NP) + 2(G,2N) + ...) REACTION
            CROSS SECTION WAS OBTAINED.  THE THRESHOLD  OF (G,NP)
            REACTION IS 14.8 MEV, THAT FOR (G,2N) - 15.2 MEV.
ENDBIB               4
COMMON               1          3
ANAL-STEP
MEV
  0.1
ENDCOMMON            3
DATA                 3        162
EN         DATA       DATA-ERR
MEV        MB         MB
     8.044     8.11      5.0
     8.126     4.81
     8.127     -.05
     8.252     1.50
     8.336     1.47
     8.422     6.30
     8.506     7.89
     8.632     7.83
     8.718    12.68
     8.888    19.10
     9.058    27.15
     9.145    35.24
     9.229    35.20
     9.313    36.79
     9.355    35.15
     9.525    41.57
     9.565    35.05
     9.651    41.51
     9.735    43.10
     9.861    43.04
     9.946    46.25
    10.030    51.09
    10.120    54.31
    10.200    52.64
    10.280    54.23
    10.410    54.17
    10.540    63.87
    10.620    62.20
    10.700    54.03
    10.750    58.89
    10.920    62.07
    11.000    65.28
    11.050    70.14
    11.170    68.45
    11.340    83.01
    11.430    86.22
    11.510    74.80
    11.600    99.15
    11.770    94.19
    11.810   105.60
    11.940   108.70
    12.020   110.30
    12.070   121.70
    12.200   136.30
    12.320   126.50
    12.450   132.90
    12.540   145.90
    12.580   145.90
    12.620   139.30
    12.710   155.50
    12.840   175.00
    13.010   178.20
    13.060   192.80
    13.190   210.60
    13.270   218.70
    13.360   210.50
    13.440   215.40
    13.620   254.30
    13.780   229.80
    13.880   259.10
    14.010   273.60
    14.090   289.90
    14.210   255.70
    14.330   362.90
    14.490   335.20
    14.530   336.80
    14.580   361.20
    14.660   359.50
    14.800   403.40
    14.860   326.90
    14.920   385.40
    15.050   395.10
    15.160   354.40
    15.220   399.90
    15.370   420.90
    15.480   333.20
    15.550   377.00
    15.660   334.70
    15.670   367.20
    15.830   337.80
    15.870   316.70
    16.010   368.70
    16.130   354.00
    16.210   337.70
    16.290   313.20
    16.360   274.20
    16.440   279.00
    16.530   298.50
    16.630   331.00
    16.800   225.20
    16.880   207.30
    16.890   225.20
    17.020   252.70
    17.180   231.50
    17.260   218.50
    17.350   224.90
    17.460   187.50
    17.520   215.10
    17.680   211.80
    17.730   229.60
    17.800   195.50
    17.920   177.50
    18.050   180.70
    18.090   182.30
    18.170   161.20
    18.250   141.60
    18.420   156.20
    18.550   164.20
    18.630   160.90
    18.710   141.40
    18.930   164.10
    19.050   165.60
    19.130   154.20
    19.210   129.80
    19.250   129.80
    19.340   129.70
    19.420   139.40
    19.590   134.50
    19.680   147.40
    19.750   123.00
    19.840   152.20
    19.930   129.50
    20.050   119.60
    20.090   114.70
    20.170   118.00
    20.260   113.00
    20.380   116.20
    20.430   124.30
    20.600   129.10
    20.650   155.10
    20.840   104.60
    20.970   101.30
    20.970   114.30
    21.050   115.90
    21.180   114.20
    21.260   102.80
    21.390   101.10
    21.470   110.80
    21.640   112.40
    21.760    96.08
    21.850   105.80
    21.890    91.14
    21.930   102.50
    22.090    60.15
    22.170    68.24
    22.170    69.87
    22.300    61.68
    22.340    69.79
    22.430    97.39
    22.560    98.96
    22.770   100.50
    22.900    93.93
    22.940   103.70
    23.020    84.11
    23.060    97.10
    23.230    97.02
    23.320   103.50
    23.440    98.55
    23.520    80.63
    23.530    96.89
    23.740    98.42
    23.770    75.64     20.0
ENDDATA            164
ENDSUBENT          177
ENDENTRY             4
