ENTRY            21327     801103              20050926       0000
SUBENT        21327001     801103              20050926       0000
BIB                 12         17
INSTITUTE  (2ITYCIS)
REFERENCE  (J,NC,20,903,6106) SPECTRA GIVEN IN GRAPHS.
AUTHOR     (G.M.MARCAZZAN,E.MENICHELLA SAETTA,F.TONOLINI)
TITLE      - (N,ALPHA) AND (N,P) REACTIONS IN CS-I CRYSTAL WITH
            14 MEV NEUTRONS -.
FACILITY   (CCW  ) COCKCROFT-WALTON ACCELERATOR.
INC-SOURCE (D-T  ) DEUTERIUM BEAM ON TRITIUM TARGET.
SAMPLE     .SAME AS DETECTOR.
METHOD     (ASSOP) ASSOCIATED PARTICLE DETECTION.
DETECTOR   (CSICR) CS-I(TL) CRYSTAL, 4.3 CM THICK, 3.8 CM
            DIAMETER AS BOTH TARGET AND DETECTOR.
STATUS     (NDD  )
HISTORY    (800206T)
           (800213E)
ERR-ANALYS .UNCERTAINTY IN SECONDARY ENERGY ABOUT 10 PERCENT,
           .PROTON SPECTRA CONTAMINATED BY SMALL CONTRIBUTION
            OF DEUTERONS.
ENDBIB              17
COMMON               2          3
EN         EN-RSL
MEV        MEV
 1.4100E+01 1.5000E-01
ENDCOMMON            3
ENDSUBENT           24
SUBENT        21327002     801103              20050926       0000
BIB                  3          4
REACTION   ((55-CS-133(N,X)2-HE-4,,DE)+(53-I-127(N,X)2-HE-4,,DE))
            ALPHA EMISSION SPECTRUM.
MONITOR    (1-H-1(N,EL)1-H-1,,SIG) VALUE FROM BNL-325.
STATUS     (NDD  )
ENDBIB               4
COMMON               2          3
MONIT      E-ERR
B          PER-CENT
 6.8900E-01 1.0000E+01
ENDCOMMON            3
DATA                 3         33
E          DATA       DATA-ERR
MEV        MB/MEV     MB/MEV
 8.0000E+00 7.0000E-06 3.0000E-06
 8.3700E+00 2.0000E-06 1.0000E-06
 8.7400E+00 4.0000E-06 2.0000E-06
 9.1100E+00 1.8000E-05 4.0000E-06
 9.4800E+00 1.7000E-05 4.0000E-06
 9.8500E+00 1.6000E-05 4.0000E-06
 1.0220E+01 3.9000E-05 5.0000E-06
 1.0590E+01 2.8000E-05 4.0000E-06
 1.0960E+01 2.8000E-05 4.0000E-06
 1.1330E+01 4.7000E-05 5.0000E-06
 1.1700E+01 5.2000E-05 5.0000E-06
 1.2070E+01 7.9000E-05 8.0000E-06
 1.2440E+01 5.6000E-05 6.0000E-06
 1.2810E+01 9.2000E-05 9.0000E-06
 1.3180E+01 8.1000E-05 8.0000E-06
 1.3550E+01 8.5000E-05 8.0000E-06
 1.3920E+01 1.0700E-04 1.0000E-05
 1.4290E+01 1.1100E-04 1.1000E-05
 1.4460E+01 1.2800E-04 1.1000E-05
 1.5030E+01 1.3200E-04 1.1000E-05
 1.5400E+01 1.2800E-04 1.1000E-05
 1.5770E+01 1.4900E-04 1.2000E-05
 1.6140E+01 1.4600E-04 1.2000E-05
 1.6510E+01 1.3900E-04 1.2000E-05
 1.6880E+01 1.1300E-04 1.0000E-05
 1.7250E+01 8.8000E-05 9.0000E-06
 1.7620E+01 6.3000E-05 6.0000E-06
 1.7990E+01 3.6000E-05 5.0000E-06
 1.8360E+01 2.2000E-05 5.0000E-06
 1.8730E+01 8.0000E-06 4.0000E-06
 1.9100E+01 2.0000E-06 2.0000E-06
 1.9470E+01 3.0000E-06 2.0000E-06
 1.9840E+01 2.0000E-06 2.0000E-06
ENDDATA             35
ENDSUBENT           48
SUBENT        21327003     801103              20050926       0000
BIB                  4          6
REACTION   ((55-CS-133(N,X)2-HE-4,PAR,SIG)+
           (53-I-127(N,X)2-HE-4,PAR,SIG))
            PARTIAL ALPHA EMISSION CROSS SECTION.
ANALYSIS   (INTED) INTEGRATED ENERGY DISTRIBUTION.
MONITOR    (1-H-1(N,EL)1-H-1,,SIG) VALUE FROM BNL-325.
STATUS     (NDD  )
ENDBIB               6
NOCOMMON             0          0
DATA                 5          1
E-MIN      E-MAX      MONIT      DATA       DATA-ERR
MEV        MEV        B          MB         MB
 8.0000E+00 2.0000E+01 6.8900E-01 8.0000E-01 2.0000E-01
ENDDATA              3
ENDSUBENT           14
SUBENT        21327004     801103              20050926       0000
BIB                  3          5
REACTION   ((55-CS-133(N,X)1-H-1,,DE,,REL)+
           (53-I-127(N,X)1-H-1,,DE,,REL))
            EMITTED PROTON SPECTRUM.
STATUS     (NDD  )
ERR-ANALYS PROTON ENERGY CONTAMINATED WITH DEUTERONS.
ENDBIB               5
COMMON               1          3
E-ERR
PER-CENT
 1.0000E+01
ENDCOMMON            3
DATA                 3         48
E          DATA       DATA-ERR
MEV        ARB-UNITS  ARB-UNITS
 2.7600E+00 1.2000E+01 3.5000E+00
 3.0000E+00 1.7000E+01 4.1000E+00
 3.2400E+00 4.2000E+01 6.5000E+00
 3.4800E+00 1.0700E+02 1.0300E+01
 3.7200E+00 1.4600E+02 1.2000E+01
 3.9600E+00 1.5600E+02 1.2500E+01
 4.2000E+00 1.6600E+02 1.2900E+01
 4.4400E+00 1.7500E+02 1.3200E+01
 4.6800E+00 2.1600E+02 1.4700E+01
 4.9200E+00 1.9100E+02 1.3800E+01
 5.1600E+00 2.3400E+02 1.5300E+01
 5.4000E+00 2.5400E+02 1.5900E+01
 5.6400E+00 2.6600E+02 1.6300E+01
 5.8800E+00 2.8600E+02 1.6900E+01
 6.1200E+00 2.9000E+02 1.7000E+01
 6.3600E+00 3.0100E+02 1.7300E+01
 6.6000E+00 3.3100E+02 1.8200E+01
 6.8400E+00 3.1000E+02 1.7600E+01
 7.0800E+00 3.5900E+02 1.8900E+01
 7.3200E+00 3.5000E+02 1.8700E+01
 7.5600E+00 3.7300E+02 1.9300E+01
 7.8000E+00 3.2600E+02 1.8000E+01
 8.0400E+00 3.4900E+02 1.8700E+01
 8.2800E+00 3.8800E+02 1.9700E+01
 8.5200E+00 3.6600E+02 1.9100E+01
 8.7600E+00 3.5800E+02 1.8900E+01
 9.0000E+00 3.8400E+02 1.9500E+01
 9.2400E+00 3.9000E+02 1.9700E+01
 9.4800E+00 3.4200E+02 1.8400E+01
 9.7200E+00 3.3400E+02 1.8300E+01
 9.9600E+00 2.8600E+02 1.6900E+01
 1.0440E+01 2.3700E+02 1.5400E+01
 1.0680E+01 2.3900E+02 1.5500E+01
 1.0700E+01 2.5900E+02 1.6100E+01
 1.0920E+01 1.9600E+02 1.4000E+01
 1.1160E+01 1.9400E+02 1.3900E+01
 1.1400E+01 1.8700E+02 1.3700E+01
 1.1640E+01 1.5600E+02 1.2500E+01
 1.1880E+01 1.4400E+02 1.2000E+01
 1.2120E+01 1.3200E+02 1.1500E+01
 1.2360E+01 1.1100E+02 1.0500E+01
 1.2600E+01 8.7000E+01 9.3000E+00
 1.2840E+01 7.0000E+01 8.3600E+00
 1.3080E+01 5.3000E+01 7.3000E+00
 1.3320E+01 4.7000E+01 7.0000E+00
 1.3560E+01 4.9000E+01 7.0000E+00
 1.3800E+01 3.4000E+01 6.0000E+00
 1.4080E+01 2.3000E+01 5.0000E+00
ENDDATA             50
ENDSUBENT           64
ENDENTRY             4
