ENTRY            F0192   20200626   20200819   20200808       F079
SUBENT        F0192001   20200626   20200819   20200808       F079
BIB                  6         10
TITLE      Levels of 10B from the 9Be(p,alpha2+gamma)6Li and
           9Be(p,p)9Be reactions at E(p)=2.56 MeV
AUTHOR     (A.Kiss,E.Koltay,Gy.Szabo,L.Vegh)
INSTITUTE  (3HUNDEB)
REFERENCE  (J,NP/A,282,44,1977)
FACILITY   (VDG,3HUNDEB)
HISTORY    (19841026C)
           (19990409U) CNPD: corrected 4-dig. year and lower cases
           (20200626A) SD: Corrections in all Subents.
           The accuracy of data presentation  has been revised.
ENDBIB              10
NOCOMMON             0          0
ENDSUBENT           13
SUBENT        F0192002   20200626   20200819   20200808       F079
BIB                  7         12
REACTION   (4-BE-9(P,A)3-LI-6,PAR,DA,,REL/LEG)
            No explanation of relative units is given
SAMPLE     A 10 mu-g/cm**2 thick beryllium target was made by
           evaporating metallic Be onto a Ta backing
DETECTOR   (GELI) Coaxial 100 cm3 Ge(Li) detector
REL-REF    (M,,M.Tryti+,J,NP/A,201,135,1973) and
           (M,,M.Tryti+,J,NP/A,251,206,1975)
ERR-ANALYS (ERR-S) From graphic bars (statistical)
STATUS     (CURVE) fig 3 from Nucl.Phys.,A282(1977)44
HISTORY    (20200626A) SD: SF9=EXP deleted from REACTION code.
           EN-SEC deleted. STATUS updated. EN-ERR -> EN-ERR-DIG;
           DATA-ERR -> ERR-S. ERR-DIG added.
ENDBIB              12
COMMON               2          3
E-LVL      EN-ERR-DIG
MEV        MEV
  3.562     0.001
ENDCOMMON            3
DATA                 5        102
NUMBER-CM  EN         DATA-CM    ERR-S      ERR-DIG
NO-DIM     MEV        ARB-UNITS  ARB-UNITS  ARB-UNITS
         0.      2.497       3.81                  0.49
         0.      2.511       5.79                  0.49
         0.      2.521       8.97                  0.49
         0.      2.530      11.52                  0.49
         0.      2.539      20.86                  0.49
         0.      2.546      28.33                  0.49
         0.      2.553      41.36                  0.49
         0.      2.561      54.40                  0.49
         0.      2.569      58.79                  0.49
         0.      2.575      54.52                  0.49
         0.      2.582      44.71                  0.49
         0.      2.589      29.96                  0.49
         0.      2.598      20.79                  0.49
         0.      2.609      15.95                  0.49
         0.      2.619      12.95                  0.49
         0.      2.628      10.57                  0.49
         0.      2.640       8.83                  0.49
         1.      2.499       0.96       0.09       0.05
         1.      2.513       0.99       0.31       0.05
         1.      2.523       0.85       0.31       0.05
         1.      2.532       1.18       0.31       0.05
         1.      2.538       1.82       0.63       0.05
         1.      2.546       2.93       0.78       0.05
         1.      2.553       5.60       0.94       0.05
         1.      2.560       8.60       0.94       0.05
         1.      2.567      11.11       0.78       0.05
         1.      2.575      11.13       1.10       0.05
         1.      2.581      10.51       0.78       0.05
         1.      2.591       8.49       0.63       0.05
         1.      2.602       6.48       0.63       0.05
         1.      2.611       5.24       0.79       0.05
         1.      2.622       4.32       0.63       0.05
         1.      2.631       3.87       0.47       0.05
         1.      2.644       3.10       0.47       0.05
         2.      2.501      -0.82                  0.16
         2.      2.514      -1.69                  0.16
         2.      2.525      -3.19                  0.16
         2.      2.532      -4.08                  0.16
         2.      2.540      -7.78                  0.16
         2.      2.547     -11.18                  0.16
         2.      2.552     -15.83                  0.16
         2.      2.559     -19.85       0.94       0.16
         2.      2.567     -22.93       0.94       0.16
         2.      2.573     -19.78       0.62       0.16
         2.      2.580     -14.44       0.94       0.16
         2.      2.591      -9.38                  0.16
         2.      2.603      -5.88                  0.16
         2.      2.614      -3.95                  0.16
         2.      2.623      -3.28                  0.16
         2.      2.633      -2.28                  0.16
         2.      2.645      -1.28                  0.16
         3.      2.501       0.94       0.47       0.05
         3.      2.513       1.12       0.31       0.05
         3.      2.522       1.14       0.47       0.05
         3.      2.532       1.16       0.78       0.05
         3.      2.539       1.01       0.78       0.05
         3.      2.547       0.25       0.78       0.05
         3.      2.553      -0.52       0.94       0.05
         3.      2.561      -2.23       1.25       0.05
         3.      2.568      -4.87       1.25       0.05
         3.      2.574      -5.33       1.25       0.05
         3.      2.582      -5.31       0.94       0.05
         3.      2.591      -4.51       1.10       0.05
         3.      2.600      -4.03       0.94       0.05
         3.      2.614      -3.07       0.78       0.05
         3.      2.621      -3.05       0.78       0.05
         3.      2.634      -2.56       0.78       0.05
         3.      2.646      -2.38       0.62       0.05
         4.      2.501      -1.44                  0.27
         4.      2.516      -1.68                  0.27
         4.      2.525      -2.88                  0.27
         4.      2.535      -4.08       0.94       0.27
         4.      2.543      -6.84                  0.27
         4.      2.548      -8.69                  0.27
         4.      2.555     -12.40                  0.27
         4.      2.562     -14.86       0.94       0.27
         4.      2.568     -17.01       0.94       0.27
         4.      2.576     -15.10       1.25       0.27
         4.      2.583     -11.31                  0.27
         4.      2.592      -8.14                  0.27
         4.      2.604      -5.27                  0.27
         4.      2.614      -3.97                  0.27
         4.      2.626      -2.97                  0.27
         4.      2.637      -1.98                  0.27
         4.      2.648      -1.61                  0.27
         5.      2.501      -0.30       0.45       0.05
         5.      2.513      -0.27       0.45       0.05
         5.      2.524      -0.70       0.31       0.05
         5.      2.532      -0.07       0.45       0.05
         5.      2.540      -0.51       0.61       0.05
         5.      2.548      -0.79       0.61       0.05
         5.      2.553      -0.78       0.76       0.05
         5.      2.562      -1.22       0.91       0.05
         5.      2.569      -1.81       0.91       0.05
         5.      2.573      -1.50       0.76       0.05
         5.      2.582      -2.23       0.91       0.05
         5.      2.591      -1.30       0.76       0.05
         5.      2.602      -0.98       0.61       0.05
         5.      2.613      -0.65       0.45       0.05
         5.      2.622      -0.63       0.30       0.05
         5.      2.633      -0.60       0.61       0.05
         5.      2.646      -0.57       0.61       0.05
ENDDATA            104
ENDSUBENT          125
SUBENT        F0192003   20200626   20200819   20200808       F079
BIB                  5          8
REACTION   (4-BE-9(P,EL)4-BE-9,,DA)
SAMPLE     The target was prepared by evaporating natural Be (1keV
           thick at 2.5 MeV) onto a carbon backing of 29 mu-g/cm2
           thickness.
DETECTOR   (SIBAR) Four surface-barrier detectors.
STATUS     (CURVE) fig 4 from Nucl.Phys.,A282(1977)44
HISTORY    (20200626A) SD: SF9=EXP deleted from REACTION code.
           STATUS updated. EN-ERR->EN-ERR-DIG;DATA-ERR->ERR-DIG.
ENDBIB               8
COMMON               1          3
EN-ERR-DIG
MEV
 0.003
ENDCOMMON            3
DATA                 4        248
ANG        EN         DATA       ERR-DIG
ADEG       MEV        MB/SR      MB/SR
        83.      2.315      96.88       0.67
        83.      2.327      95.33       0.67
        83.      2.336      92.21       0.67
        83.      2.345      93.78       0.67
        83.      2.355      92.23       0.67
        83.      2.364      92.24       0.67
        83.      2.379      89.12       0.67
        83.      2.392      84.45       0.67
        83.      2.401      86.02       0.67
        83.      2.411      84.46       0.67
        83.      2.426      84.47       0.67
        83.      2.435      84.48       0.67
        83.      2.435      87.61       0.67
        83.      2.444      82.93       0.67
        83.      2.454      81.37       0.67
        83.      2.454      84.50       0.67
        83.      2.460      82.94       0.67
        83.      2.466      81.38       0.67
        83.      2.472      84.51       0.67
        83.      2.482      81.40       0.67
        83.      2.488      79.84       0.67
        83.      2.491      82.97       0.67
        83.      2.497      81.41       0.67
        83.      2.500      78.29       0.67
        83.      2.506      84.54       0.67
        83.      2.510      82.98       0.67
        83.      2.516      84.55       0.67
        83.      2.522      86.12       0.67
        83.      2.528      83.00       0.67
        83.      2.531      83.00       0.67
        83.      2.537      86.13       0.67
        83.      2.544      89.26       0.67
        83.      2.553      92.39       0.67
        83.      2.556      89.27       0.67
        83.      2.562      95.52       0.67
        83.      2.565      97.09       0.67
        83.      2.571      95.53       0.67
        83.      2.578     100.20       0.67
        83.      2.584      97.10       0.67
        83.      2.593     101.80       0.67
        83.      2.596      97.11       0.67
        83.      2.602      98.68       0.67
        83.      2.612     100.30       0.67
        83.      2.624      98.70       0.67
        83.      2.627      95.58       0.67
        83.      2.633     100.30       0.67
        83.      2.636      97.15       0.67
        83.      2.643     101.80       0.67
        83.      2.646      97.15       0.67
        83.      2.652     100.30       0.67
        83.      2.658     100.30       0.67
        83.      2.661      97.17       0.67
        83.      2.667     100.30       0.67
        83.      2.671      97.18       0.67
        83.      2.683      97.18       0.67
        83.      2.689     100.30       0.67
        83.      2.695     100.30       0.67
       120.      2.313      70.34       0.84
       120.      2.325      65.68       0.84
       120.      2.344      68.85       0.84
       120.      2.359      73.57       0.84
       120.      2.372      70.47       0.84
       120.      2.378      73.61       0.84
       120.      2.384      68.93       0.84
       120.      2.400      73.65       0.84
       120.      2.409      75.24       0.84
       120.      2.418      75.26       0.84
       120.      2.421      76.83       0.84
       120.      2.431      78.41       0.84
       120.      2.434      81.54       0.84
       120.      2.440      79.99       0.84
       120.      2.443      81.56       0.84
       120.      2.449      84.70       0.84
       120.      2.452      84.70       0.84
       120.      2.458      86.28       0.84
       120.      2.461      87.85       0.84
       120.      2.468      89.43       0.84
       120.      2.474      92.56       0.84
       120.      2.480      95.70       0.84
       120.      2.483      95.71       0.84
       120.      2.486      97.28       0.84
       120.      2.492     102.00       0.84
       120.      2.498     103.60       0.84
       120.      2.505     106.70       0.84
       120.      2.508     109.80       0.84
       120.      2.514     113.00       0.84
       120.      2.517     114.50       0.84
       120.      2.523     119.20       0.84
       120.      2.529     116.10       0.84
       120.      2.532     122.40       0.84
       120.      2.539     122.40       0.84
       120.      2.542     124.00       0.84
       120.      2.545     120.80       0.84
       120.      2.551     120.80       0.84
       120.      2.557     117.70       0.84
       120.      2.560     111.50       0.84
       120.      2.566     106.80       0.84
       120.      2.573     102.20       0.84
       120.      2.576      92.78       0.84
       120.      2.582      94.36       0.84
       120.      2.588      97.50       0.84
       120.      2.595      95.95       0.84
       120.      2.598      97.52       0.84
       120.      2.604      92.84       0.84
       120.      2.607      92.85       0.84
       120.      2.613      91.30       0.84
       120.      2.616      89.75       0.84
       120.      2.629      86.65       0.84
       120.      2.632      85.09       0.84
       120.      2.638      83.54       0.84
       120.      2.644      81.99       0.84
       120.      2.644      80.43       0.84
       120.      2.653      82.01       0.84
       120.      2.657      80.46       0.84
       120.      2.666      78.91       0.84
       120.      2.678      78.94       0.84
       120.      2.688      77.40       0.84
       120.      2.691      77.40       0.84
       135.      2.311      70.35       0.96
       135.      2.323      67.26       0.96
       135.      2.333      68.85       0.96
       135.      2.342      70.44       0.96
       135.      2.354      72.04       0.96
       135.      2.364      72.07       0.96
       135.      2.370      76.78       0.96
       135.      2.379      76.80       0.96
       135.      2.388      73.71       0.96
       135.      2.401      79.99       0.96
       135.      2.410      83.15       0.96
       135.      2.419      84.74       0.96
       135.      2.425      86.32       0.96
       135.      2.431      89.46       0.96
       135.      2.431      86.33       0.96
       135.      2.441      89.49       0.96
       135.      2.447      92.63       0.96
       135.      2.450      95.76       0.96
       135.      2.453      97.34       0.96
       135.      2.459      98.92       0.96
       135.      2.462     100.50       0.96
       135.      2.468     105.20       0.96
       135.      2.471     106.80       0.96
       135.      2.478     111.50       0.96
       135.      2.487     113.10       0.96
       135.      2.490     120.90       0.96
       135.      2.496     119.30       0.96
       135.      2.502     122.50       0.96
       135.      2.505     127.20       0.96
       135.      2.508     130.30       0.96
       135.      2.518     131.90       0.96
       135.      2.521     135.00       0.96
       135.      2.524     138.20       0.96
       135.      2.536     141.30       0.96
       135.      2.539     139.80       0.96
       135.      2.549     138.30       0.96
       135.      2.552     135.10       0.96
       135.      2.558     127.30       0.96
       135.      2.558     133.60       0.96
       135.      2.564     121.10       0.96
       135.      2.568     111.70       0.96
       135.      2.574     103.90       0.96
       135.      2.577      97.71       0.96
       135.      2.583      91.48       0.96
       135.      2.589      94.62       0.96
       135.      2.592      91.50       0.96
       135.      2.599      88.40       0.96
       135.      2.605      86.86       0.96
       135.      2.608      86.86       0.96
       135.      2.614      80.63       0.96
       135.      2.621      79.09       0.96
       135.      2.624      77.54       0.96
       135.      2.630      74.43       0.96
       135.      2.636      74.45       0.96
       135.      2.639      71.33       0.96
       135.      2.645      71.35       0.96
       135.      2.652      66.68       0.96
       135.      2.658      66.70       0.96
       135.      2.664      68.28       0.96
       135.      2.667      65.17       0.96
       135.      2.673      62.06       0.96
       135.      2.680      63.64       0.96
       135.      2.692      62.12       0.96
       135.      2.701      60.58       0.96
       145.      2.310      81.26       0.83
       145.      2.322      79.73       0.83
       145.      2.331      81.31       0.83
       145.      2.338      81.32       0.83
       145.      2.341      79.77       0.83
       145.      2.350      82.91       0.83
       145.      2.359      84.49       0.83
       145.      2.372      86.08       0.83
       145.      2.378      89.22       0.83
       145.      2.387      86.11       0.83
       145.      2.396      89.26       0.83
       145.      2.409      92.41       0.83
       145.      2.418      97.11       0.83
       145.      2.427      97.13       0.83
       145.      2.430      98.70       0.83
       145.      2.436     101.80       0.83
       145.      2.440     105.00       0.83
       145.      2.446     103.40       0.83
       145.      2.449     106.60       0.83
       145.      2.455     114.40       0.83
       145.      2.455     109.70       0.83
       145.      2.464     117.50       0.83
       145.      2.467     117.50       0.83
       145.      2.473     122.20       0.83
       145.      2.483     123.80       0.83
       145.      2.486     126.90       0.83
       145.      2.492     139.40       0.83
       145.      2.498     137.90       0.83
       145.      2.504     137.90       0.83
       145.      2.510     144.20       0.83
       145.      2.513     150.40       0.83
       145.      2.520     148.90       0.83
       145.      2.523     156.70       0.83
       145.      2.529     150.50       0.83
       145.      2.535     156.70       0.83
       145.      2.541     158.30       0.83
       145.      2.547     156.80       0.83
       145.      2.550     155.20       0.83
       145.      2.551     152.10       0.83
       145.      2.557     144.30       0.83
       145.      2.563     138.00       0.83
       145.      2.566     131.80       0.83
       145.      2.569     119.30       0.83
       145.      2.573     108.40       0.83
       145.      2.576     102.10       0.83
       145.      2.582      95.89       0.83
       145.      2.588     102.20       0.83
       145.      2.594      92.79       0.83
       145.      2.601      88.12       0.83
       145.      2.607      88.13       0.83
       145.      2.607      83.44       0.83
       145.      2.616      81.90       0.83
       145.      2.622      78.79       0.83
       145.      2.625      75.67       0.83
       145.      2.632      74.12       0.83
       145.      2.638      74.14       0.83
       145.      2.641      72.58       0.83
       145.      2.647      71.03       0.83
       145.      2.650      69.47       0.83
       145.      2.653      64.79       0.83
       145.      2.660      64.81       0.83
       145.      2.666      63.26       0.83
       145.      2.672      63.27       0.83
       145.      2.678      61.72       0.83
       145.      2.688      58.62       0.83
       145.      2.697      57.07       0.83
ENDDATA            250
ENDSUBENT          267
ENDENTRY             3
