ENTRY            O2351   20180325   20181008   20180924       O064
SUBENT        O2351001   20180325   20181008   20180924       O064
BIB                 10         29
TITLE      Differential cross-section measurements for deuteron
           elastic scattering on natSi for elastic
           backscattering purposes
AUTHOR     (E.Ntemoua,X.Aslanoglou,M.Axiotis,M.Kokkoris,
           A.Lagoyannis,P.Misaelides,N.Patronis,
           K.Preketes-Sigalas,P.Tsintari)
INSTITUTE  (2GRCTUA,2GRCIOA,2GRCATH,2GRCARU)
REFERENCE  (J,NIM/B,XX,XX,2018)
           #doi:10.1016/j.nimb.2018.02.033
FACILITY   (VDGT,2GRCATH)
SAMPLE     Natural Si target in form of 5*5 mm**2, 75 mm thick
           Si3N4 foil with a ultra thin Au layer on the top
DETECTOR   (SIBAR) 6 detectors positioned at angles 120, 130,
           140, 150, 160, and 170 degrees
METHOD     (EXTB,SITA) Elastic scattering of deuterons was
           studied on natural Si in the energy range of 1.0-2.2
           MeV. The differential cross sections on Si were
           determined relative to the deuteron scattering cross
           sections on Au, calculated using the Rutherford
           formula. The deuteron energy at the half of the
           target thickness was calculated using the SIMNRA
           code. In order to validate the experimental data,
           scattering spectra were also measured using a
           polished crystalline Si[111] wafer as target.
ERR-ANALYS (ERR-SYS,8.,9.) systematical erros were estimated to
           be 8-9%
           (ERR-S) the statistical error on the experimental
           yields
HISTORY    (20180325C)  MPT
ENDBIB              29
NOCOMMON             0          0
ENDSUBENT           32
SUBENT        O2351002   20180325   20181008   20180924       O064
BIB                  2          2
REACTION   (14-SI-0(D,EL)14-SI-0,,DA,,RTH)
STATUS     (TABLE)   From Table 1.
ENDBIB               2
COMMON               1          3
EN-ERR
KEV
3.0
ENDCOMMON            3
DATA                 4        720
ANG        EN         DATA       ERR-S
ADEG       KEV        NO-DIM     NO-DIM
       120.      992.4      0.982      0.015
       120.     1002.3      0.992      0.015
       120.     1012.3      1.007      0.016
       120.     1022.4      0.976      0.015
       120.     1032.4      0.957      0.015
       120.     1042.4      1.009      0.016
       120.     1052.4      0.978      0.016
       120.     1062.5      1.011      0.016
       120.     1072.5      1.005      0.016
       120.     1082.5      0.994      0.016
       120.     1092.5      0.998      0.016
       120.     1102.5      0.998      0.016
       120.     1112.6      0.995      0.016
       120.     1122.6      1.003      0.017
       120.     1132.6      0.991      0.017
       120.     1142.6      1.014      0.017
       120.     1152.7      0.996      0.017
       120.     1162.7      1.013      0.015
       120.     1172.7      0.998      0.015
       120.     1182.7      1.028      0.016
       120.     1192.7      0.999      0.015
       120.     1202.8      0.990      0.015
       120.     1212.8      0.989      0.015
       120.     1222.8      0.991      0.015
       120.     1232.8      0.991      0.015
       120.     1242.8      0.986      0.015
       120.     1252.8      1.015      0.016
       120.     1262.9      0.986      0.016
       120.     1272.9      0.998      0.016
       120.     1282.9      0.981      0.016
       120.     1292.9      0.978      0.016
       120.     1302.9      0.968      0.014
       120.     1312.9      0.989      0.015
       120.     1323.0      0.990      0.015
       120.     1333.0      0.967      0.015
       120.     1343.0      1.002      0.015
       120.     1353.0      0.978      0.015
       120.     1363.0      0.997      0.015
       120.     1373.0      0.998      0.015
       120.     1383.1      0.993      0.015
       120.     1393.1      0.996      0.015
       120.     1403.1      0.983      0.015
       120.     1413.1      0.979      0.015
       120.     1423.1      0.981      0.015
       120.     1433.1      0.973      0.015
       120.     1443.2      0.989      0.016
       120.     1453.2      0.973      0.015
       120.     1463.2      0.969      0.015
       120.     1473.2      0.969      0.015
       120.     1483.2      0.985      0.014
       120.     1493.2      0.950      0.014
       120.     1503.2      0.964      0.014
       120.     1513.3      0.963      0.014
       120.     1523.3      0.985      0.014
       120.     1533.3      0.979      0.014
       120.     1543.3      0.958      0.014
       120.     1553.3      0.960      0.014
       120.     1563.3      0.954      0.014
       120.     1573.3      0.968      0.014
       120.     1583.3      0.957      0.014
       120.     1593.4      0.968      0.014
       120.     1603.4      0.942      0.014
       120.     1613.4      0.927      0.014
       120.     1623.4      0.943      0.014
       120.     1633.4      0.912      0.014
       120.     1643.4      0.928      0.014
       120.     1653.4      0.923      0.014
       120.     1663.4      0.944      0.014
       120.     1673.5      0.942      0.014
       120.     1683.5      0.972      0.014
       120.     1693.5      0.960      0.014
       120.     1703.5      0.946      0.014
       120.     1715.8      0.941      0.014
       120.     1723.5      0.927      0.014
       120.     1733.5      0.924      0.014
       120.     1743.5      0.907      0.014
       120.     1753.5      0.920      0.014
       120.     1763.6      0.933      0.013
       120.     1773.6      0.922      0.013
       120.     1783.6      0.910      0.013
       120.     1793.6      0.913      0.013
       120.     1803.6      0.905      0.014
       120.     1813.6      0.911      0.014
       120.     1823.6      0.889      0.012
       120.     1833.6      0.882      0.013
       120.     1843.6      0.878      0.013
       120.     1853.7      0.874      0.013
       120.     1863.7      0.880      0.013
       120.     1873.7      0.881      0.013
       120.     1883.7      0.889      0.013
       120.     1893.7      0.869      0.013
       120.     1903.7      0.884      0.013
       120.     1913.7      0.912      0.013
       120.     1923.7      0.892      0.013
       120.     1933.7      0.898      0.013
       120.     1943.7      0.899      0.013
       120.     1953.8      0.914      0.014
       120.     1963.8      0.900      0.013
       120.     1973.8      0.922      0.014
       120.     1983.8      0.920      0.014
       120.     1993.8      0.902      0.013
       120.     2003.8      0.902      0.014
       120.     2013.8      0.911      0.014
       120.     2023.8      0.911      0.014
       120.     2033.8      0.907      0.014
       120.     2043.8      0.898      0.013
       120.     2053.8      0.898      0.014
       120.     2063.9      0.877      0.013
       120.     2073.9      0.858      0.013
       120.     2083.9      0.863      0.013
       120.     2093.9      0.885      0.014
       120.     2103.9      0.933      0.014
       120.     2113.9      0.933      0.015
       120.     2123.9      0.916      0.015
       120.     2133.9      0.944      0.015
       120.     2143.9      0.902      0.015
       120.     2153.9      0.901      0.015
       120.     2163.9      0.915      0.015
       120.     2173.9      0.910      0.015
       120.     2184.0      0.867      0.014
       130.      992.4      1.019      0.020
       130.     1002.3      0.979      0.019
       130.     1012.3      0.987      0.020
       130.     1022.4      1.008      0.020
       130.     1032.4      1.010      0.020
       130.     1042.4      1.009      0.020
       130.     1052.4      1.001      0.020
       130.     1062.5      0.987      0.020
       130.     1072.5      0.996      0.021
       130.     1082.5      0.995      0.021
       130.     1092.5      0.997      0.021
       130.     1102.5      1.004      0.021
       130.     1112.6      1.008      0.021
       130.     1122.6      0.995      0.021
       130.     1132.6      1.040      0.022
       130.     1142.6      1.009      0.022
       130.     1152.7      1.007      0.022
       130.     1162.7      1.025      0.019
       130.     1172.7      0.976      0.019
       130.     1182.7      0.999      0.019
       130.     1192.7      0.989      0.019
       130.     1202.8      0.988      0.019
       130.     1212.8      1.016      0.020
       130.     1222.8      0.988      0.019
       130.     1232.8      0.988      0.019
       130.     1242.8      1.010      0.020
       130.     1252.8      0.986      0.020
       130.     1262.9      0.983      0.020
       130.     1272.9      0.972      0.020
       130.     1282.9      1.015      0.021
       130.     1292.9      0.962      0.020
       130.     1302.9      0.972      0.018
       130.     1312.9      1.009      0.019
       130.     1323.0      0.989      0.019
       130.     1333.0      0.976      0.018
       130.     1343.0      0.989      0.019
       130.     1353.0      0.991      0.019
       130.     1363.0      0.956      0.018
       130.     1373.0      0.987      0.019
       130.     1383.1      0.971      0.019
       130.     1393.1      1.003      0.019
       130.     1403.1      1.008      0.020
       130.     1413.1      0.980      0.019
       130.     1423.1      1.012      0.020
       130.     1433.1      0.956      0.019
       130.     1443.2      0.990      0.020
       130.     1453.2      0.953      0.019
       130.     1463.2      0.987      0.020
       130.     1473.2      0.968      0.020
       130.     1483.2      0.951      0.017
       130.     1493.2      0.979      0.018
       130.     1503.2      0.974      0.017
       130.     1513.3      0.963      0.017
       130.     1523.3      0.976      0.018
       130.     1533.3      0.990      0.018
       130.     1543.3      0.945      0.017
       130.     1553.3      0.978      0.018
       130.     1563.3      0.952      0.018
       130.     1573.3      0.943      0.017
       130.     1583.3      0.946      0.018
       130.     1593.4      0.951      0.018
       130.     1603.4      0.949      0.018
       130.     1613.4      0.938      0.018
       130.     1623.4      0.941      0.018
       130.     1633.4      0.924      0.018
       130.     1643.4      0.947      0.017
       130.     1653.4      0.961      0.018
       130.     1663.4      0.956      0.017
       130.     1673.5      0.949      0.018
       130.     1683.5      0.958      0.018
       130.     1693.5      0.954      0.018
       130.     1703.5      0.946      0.018
       130.     1715.8      0.931      0.017
       130.     1723.5      0.933      0.018
       130.     1733.5      0.903      0.017
       130.     1743.5      0.941      0.018
       130.     1753.5      0.906      0.017
       130.     1763.6      0.892      0.016
       130.     1773.6      0.917      0.016
       130.     1783.6      0.876      0.015
       130.     1793.6      0.903      0.016
       130.     1803.6      0.895      0.017
       130.     1813.6      0.904      0.017
       130.     1823.6      0.879      0.015
       130.     1833.6      0.860      0.015
       130.     1843.6      0.855      0.015
       130.     1853.7      0.876      0.016
       130.     1863.7      0.850      0.015
       130.     1873.7      0.893      0.016
       130.     1883.7      0.864      0.015
       130.     1893.7      0.898      0.016
       130.     1903.7      0.888      0.016
       130.     1913.7      0.932      0.017
       130.     1923.7      0.953      0.017
       130.     1933.7      0.917      0.017
       130.     1943.7      0.893      0.016
       130.     1953.8      0.910      0.017
       130.     1963.8      0.907      0.017
       130.     1973.8      0.957      0.017
       130.     1983.8      0.948      0.017
       130.     1993.8      0.912      0.017
       130.     2003.8      0.920      0.017
       130.     2013.8      0.942      0.017
       130.     2023.8      0.937      0.017
       130.     2033.8      0.898      0.017
       130.     2043.8      0.931      0.017
       130.     2053.8      0.916      0.017
       130.     2063.9      0.914      0.017
       130.     2073.9      0.874      0.017
       130.     2083.9      0.875      0.017
       130.     2093.9      0.939      0.018
       130.     2103.9      0.914      0.017
       130.     2113.9      0.923      0.019
       130.     2123.9      0.976      0.020
       130.     2133.9      0.929      0.019
       130.     2143.9      0.894      0.019
       130.     2153.9      0.886      0.019
       130.     2163.9      0.919      0.019
       130.     2173.9      0.937      0.020
       130.     2184.0      0.881      0.019
       140.      992.4      0.973      0.016
       140.     1002.3      0.979      0.017
       140.     1012.3      0.947      0.016
       140.     1022.4      0.922      0.016
       140.     1032.4      0.937      0.016
       140.     1042.4      0.943      0.016
       140.     1052.4      0.932      0.016
       140.     1062.5      0.953      0.017
       140.     1072.5      0.954      0.017
       140.     1082.5      0.952      0.017
       140.     1092.5      0.913      0.016
       140.     1102.5      0.948      0.017
       140.     1112.6      0.966      0.018
       140.     1122.6      0.994      0.018
       140.     1132.6      0.985      0.018
       140.     1142.6      0.978      0.018
       140.     1152.7      0.969      0.018
       140.     1162.7      0.976      0.016
       140.     1172.7      0.951      0.016
       140.     1182.7      0.972      0.016
       140.     1192.7      0.968      0.016
       140.     1202.8      0.984      0.016
       140.     1212.8      0.950      0.016
       140.     1222.8      0.965      0.016
       140.     1232.8      0.972      0.016
       140.     1242.8      0.977      0.017
       140.     1252.8      0.971      0.016
       140.     1262.9      0.962      0.016
       140.     1272.9      0.964      0.017
       140.     1282.9      0.967      0.017
       140.     1292.9      0.960      0.017
       140.     1302.9      1.001      0.016
       140.     1312.9      0.965      0.016
       140.     1323.0      0.982      0.016
       140.     1333.0      0.971      0.016
       140.     1343.0      0.965      0.016
       140.     1353.0      0.982      0.016
       140.     1363.0      0.986      0.016
       140.     1373.0      0.982      0.016
       140.     1383.1      0.959      0.016
       140.     1393.1      0.980      0.016
       140.     1403.1      0.972      0.016
       140.     1413.1      0.977      0.016
       140.     1423.1      0.983      0.017
       140.     1433.1      0.961      0.016
       140.     1443.2      0.972      0.017
       140.     1453.2      0.987      0.017
       140.     1463.2      0.946      0.016
       140.     1473.2      0.954      0.017
       140.     1483.2      0.982      0.015
       140.     1493.2      0.947      0.015
       140.     1503.2      0.945      0.015
       140.     1513.3      0.963      0.015
       140.     1523.3      0.948      0.015
       140.     1533.3      0.949      0.015
       140.     1543.3      0.955      0.015
       140.     1553.3      0.944      0.015
       140.     1563.3      0.944      0.015
       140.     1573.3      0.937      0.015
       140.     1583.3      0.929      0.015
       140.     1593.4      0.952      0.015
       140.     1603.4      0.939      0.015
       140.     1613.4      0.936      0.015
       140.     1623.4      0.927      0.015
       140.     1633.4      0.943      0.016
       140.     1643.4      0.913      0.014
       140.     1653.4      0.935      0.015
       140.     1663.4      0.917      0.015
       140.     1673.5      0.948      0.015
       140.     1683.5      0.935      0.015
       140.     1693.5      0.914      0.015
       140.     1703.5      0.917      0.015
       140.     1715.8      0.914      0.015
       140.     1723.5      0.892      0.015
       140.     1733.5      0.871      0.014
       140.     1743.5      0.877      0.015
       140.     1753.5      0.867      0.014
       140.     1763.6      0.872      0.014
       140.     1773.6      0.885      0.013
       140.     1783.6      0.890      0.014
       140.     1793.6      0.864      0.013
       140.     1803.6      0.861      0.014
       140.     1813.6      0.894      0.015
       140.     1823.6      0.874      0.013
       140.     1833.6      0.853      0.013
       140.     1843.6      0.852      0.013
       140.     1853.7      0.853      0.013
       140.     1863.7      0.847      0.014
       140.     1873.7      0.880      0.014
       140.     1883.7      0.891      0.014
       140.     1893.7      0.906      0.014
       140.     1903.7      0.924      0.014
       140.     1913.7      0.897      0.014
       140.     1923.7      0.903      0.014
       140.     1933.7      0.893      0.014
       140.     1943.7      0.872      0.014
       140.     1953.8      0.904      0.014
       140.     1963.8      0.960      0.015
       140.     1973.8      0.962      0.015
       140.     1983.8      0.931      0.015
       140.     1993.8      0.938      0.015
       140.     2003.8      0.914      0.014
       140.     2013.8      0.962      0.015
       140.     2023.8      0.938      0.015
       140.     2033.8      0.947      0.015
       140.     2043.8      0.915      0.015
       140.     2053.8      0.915      0.015
       140.     2063.9      0.901      0.015
       140.     2073.9      0.874      0.014
       140.     2083.9      0.894      0.015
       140.     2093.9      0.933      0.015
       140.     2103.9      0.938      0.015
       140.     2113.9      0.967      0.017
       140.     2123.9      0.949      0.016
       140.     2133.9      0.966      0.017
       140.     2143.9      0.955      0.017
       140.     2153.9      0.889      0.016
       140.     2163.9      0.913      0.016
       140.     2173.9      0.939      0.017
       140.     2184.0      0.900      0.016
       150.      992.4      1.017      0.016
       150.     1002.3      1.008      0.016
       150.     1012.3      1.019      0.016
       150.     1022.4      0.989      0.016
       150.     1032.4      1.003      0.017
       150.     1042.4      1.010      0.017
       150.     1052.4      1.023      0.017
       150.     1062.5      1.004      0.017
       150.     1072.5      0.987      0.016
       150.     1082.5      1.013      0.017
       150.     1092.5      0.994      0.016
       150.     1102.5      0.991      0.017
       150.     1112.6      0.978      0.017
       150.     1122.6      0.981      0.017
       150.     1132.6      0.982      0.017
       150.     1142.6      0.992      0.017
       150.     1152.7      1.000      0.017
       150.     1162.7      0.977      0.015
       150.     1172.7      1.008      0.016
       150.     1182.7      0.999      0.016
       150.     1192.7      0.999      0.016
       150.     1202.8      0.979      0.016
       150.     1212.8      0.993      0.016
       150.     1222.8      0.965      0.015
       150.     1232.8      1.002      0.016
       150.     1242.8      0.987      0.016
       150.     1252.8      0.986      0.016
       150.     1262.9      1.005      0.016
       150.     1272.9      1.014      0.017
       150.     1282.9      0.993      0.016
       150.     1292.9      0.991      0.016
       150.     1302.9      0.989      0.015
       150.     1312.9      0.995      0.015
       150.     1323.0      0.975      0.015
       150.     1333.0      0.982      0.015
       150.     1343.0      0.982      0.015
       150.     1353.0      0.992      0.016
       150.     1363.0      0.974      0.015
       150.     1373.0      1.000      0.016
       150.     1383.1      0.998      0.016
       150.     1393.1      0.975      0.016
       150.     1403.1      0.994      0.016
       150.     1413.1      1.000      0.016
       150.     1423.1      0.973      0.016
       150.     1433.1      1.002      0.016
       150.     1443.2      0.970      0.016
       150.     1453.2      0.986      0.016
       150.     1463.2      0.974      0.016
       150.     1473.2      0.970      0.016
       150.     1483.2      0.967      0.014
       150.     1493.2      0.952      0.014
       150.     1503.2      0.949      0.014
       150.     1513.3      0.972      0.015
       150.     1523.3      0.990      0.015
       150.     1533.3      0.972      0.015
       150.     1543.3      0.946      0.014
       150.     1553.3      0.950      0.014
       150.     1563.3      0.938      0.014
       150.     1573.3      0.946      0.015
       150.     1583.3      0.954      0.015
       150.     1593.4      0.962      0.015
       150.     1603.4      0.949      0.015
       150.     1613.4      0.945      0.015
       150.     1623.4      0.954      0.015
       150.     1633.4      0.943      0.015
       150.     1643.4      0.923      0.014
       150.     1653.4      0.938      0.014
       150.     1663.4      0.940      0.014
       150.     1673.5      0.961      0.015
       150.     1683.5      0.941      0.014
       150.     1693.5      0.934      0.014
       150.     1703.5      0.914      0.014
       150.     1715.8      0.933      0.015
       150.     1723.5      0.913      0.014
       150.     1733.5      0.920      0.014
       150.     1743.5      0.910      0.014
       150.     1753.5      0.890      0.014
       150.     1763.6      0.892      0.013
       150.     1773.6      0.891      0.013
       150.     1783.6      0.910      0.013
       150.     1793.6      0.889      0.013
       150.     1803.6      0.899      0.014
       150.     1813.6      0.911      0.014
       150.     1823.6      0.870      0.013
       150.     1833.6      0.873      0.013
       150.     1843.6      0.834      0.012
       150.     1853.7      0.865      0.012
       150.     1863.7      0.877      0.013
       150.     1873.7      0.891      0.013
       150.     1883.7      0.895      0.013
       150.     1893.7      0.923      0.014
       150.     1903.7      0.956      0.014
       150.     1913.7      0.925      0.014
       150.     1923.7      0.911      0.014
       150.     1933.7      0.902      0.014
       150.     1943.7      0.910      0.014
       150.     1953.8      0.935      0.014
       150.     1963.8      0.962      0.014
       150.     1973.8      0.968      0.015
       150.     1983.8      0.954      0.014
       150.     1993.8      0.933      0.014
       150.     2003.8      0.956      0.015
       150.     2013.8      0.962      0.015
       150.     2023.8      0.976      0.015
       150.     2033.8      0.951      0.015
       150.     2043.8      0.949      0.015
       150.     2053.8      0.931      0.014
       150.     2063.9      0.904      0.014
       150.     2073.9      0.899      0.014
       150.     2083.9      0.902      0.014
       150.     2093.9      0.981      0.015
       150.     2103.9      0.990      0.015
       150.     2113.9      0.997      0.016
       150.     2123.9      0.969      0.016
       150.     2133.9      0.973      0.016
       150.     2143.9      0.951      0.016
       150.     2153.9      0.927      0.016
       150.     2163.9      0.959      0.016
       150.     2173.9      0.950      0.016
       150.     2184.0      0.939      0.016
       160.      992.4      1.004      0.018
       160.     1002.3      1.035      0.019
       160.     1012.3      1.000      0.018
       160.     1022.4      1.028      0.019
       160.     1032.4      0.985      0.018
       160.     1042.4      0.996      0.018
       160.     1052.4      0.989      0.018
       160.     1062.5      1.016      0.019
       160.     1072.5      1.023      0.019
       160.     1082.5      0.994      0.019
       160.     1092.5      1.010      0.019
       160.     1102.5      0.967      0.019
       160.     1112.6      0.976      0.019
       160.     1122.6      1.007      0.020
       160.     1132.6      0.990      0.020
       160.     1142.6      0.982      0.019
       160.     1152.7      1.000      0.020
       160.     1162.7      0.986      0.017
       160.     1172.7      0.981      0.017
       160.     1182.7      1.020      0.018
       160.     1192.7      1.012      0.018
       160.     1202.8      0.983      0.017
       160.     1212.8      1.016      0.018
       160.     1222.8      0.989      0.018
       160.     1232.8      1.000      0.018
       160.     1242.8      0.972      0.018
       160.     1252.8      0.978      0.018
       160.     1262.9      1.015      0.019
       160.     1272.9      1.028      0.019
       160.     1282.9      0.985      0.018
       160.     1292.9      1.018      0.019
       160.     1302.9      0.976      0.017
       160.     1312.9      0.984      0.017
       160.     1323.0      1.000      0.017
       160.     1333.0      1.010      0.017
       160.     1343.0      0.978      0.017
       160.     1353.0      0.982      0.017
       160.     1363.0      0.994      0.017
       160.     1373.0      1.013      0.018
       160.     1383.1      0.973      0.017
       160.     1393.1      1.005      0.018
       160.     1403.1      0.989      0.018
       160.     1413.1      0.985      0.018
       160.     1423.1      1.010      0.018
       160.     1433.1      0.998      0.018
       160.     1443.2      0.976      0.018
       160.     1453.2      0.970      0.018
       160.     1463.2      0.975      0.018
       160.     1473.2      0.967      0.018
       160.     1483.2      0.981      0.016
       160.     1493.2      0.960      0.016
       160.     1503.2      0.968      0.016
       160.     1513.3      0.965      0.016
       160.     1523.3      0.962      0.016
       160.     1533.3      0.934      0.016
       160.     1543.3      0.954      0.015
       160.     1553.3      0.949      0.016
       160.     1563.3      0.958      0.016
       160.     1573.3      0.940      0.016
       160.     1583.3      0.938      0.016
       160.     1593.4      0.938      0.016
       160.     1603.4      0.928      0.016
       160.     1613.4      0.936      0.016
       160.     1623.4      0.912      0.016
       160.     1633.4      0.941      0.016
       160.     1643.4      0.925      0.016
       160.     1653.4      0.933      0.016
       160.     1663.4      0.947      0.016
       160.     1673.5      0.952      0.016
       160.     1683.5      0.953      0.016
       160.     1693.5      0.940      0.016
       160.     1703.5      0.933      0.016
       160.     1715.8      0.925      0.016
       160.     1723.5      0.924      0.016
       160.     1733.5      0.894      0.016
       160.     1743.5      0.899      0.016
       160.     1753.5      0.904      0.015
       160.     1763.6      0.893      0.015
       160.     1773.6      0.904      0.014
       160.     1783.6      0.904      0.014
       160.     1793.6      0.907      0.015
       160.     1803.6      0.903      0.016
       160.     1813.6      0.900      0.016
       160.     1823.6      0.883      0.014
       160.     1833.6      0.850      0.014
       160.     1843.6      0.864      0.014
       160.     1853.7      0.867      0.014
       160.     1863.7      0.890      0.015
       160.     1873.7      0.921      0.015
       160.     1883.7      0.927      0.015
       160.     1893.7      0.935      0.015
       160.     1903.7      0.946      0.016
       160.     1913.7      0.940      0.016
       160.     1923.7      0.936      0.016
       160.     1933.7      0.924      0.015
       160.     1943.7      0.914      0.015
       160.     1953.8      0.964      0.016
       160.     1963.8      0.977      0.016
       160.     1973.8      0.995      0.017
       160.     1983.8      0.975      0.016
       160.     1993.8      0.933      0.016
       160.     2003.8      0.992      0.017
       160.     2013.8      0.967      0.016
       160.     2023.8      0.969      0.016
       160.     2033.8      0.983      0.017
       160.     2043.8      0.942      0.016
       160.     2053.8      0.938      0.016
       160.     2063.9      0.903      0.016
       160.     2073.9      0.921      0.016
       160.     2083.9      0.938      0.016
       160.     2093.9      0.955      0.017
       160.     2103.9      1.021      0.018
       160.     2113.9      1.024      0.019
       160.     2123.9      1.008      0.019
       160.     2133.9      1.008      0.019
       160.     2143.9      0.989      0.018
       160.     2153.9      0.949      0.018
       160.     2163.9      1.017      0.019
       160.     2173.9      0.995      0.019
       160.     2184.0      0.942      0.018
       170.      992.4      0.998      0.020
       170.     1002.3      1.029      0.021
       170.     1012.3      1.007      0.021
       170.     1022.4      0.983      0.020
       170.     1032.4      1.032      0.021
       170.     1042.4      1.000      0.021
       170.     1052.4      0.995      0.021
       170.     1062.5      0.996      0.021
       170.     1072.5      1.027      0.022
       170.     1082.5      1.013      0.021
       170.     1092.5      0.982      0.021
       170.     1102.5      1.013      0.022
       170.     1112.6      0.993      0.022
       170.     1122.6      1.000      0.022
       170.     1132.6      1.031      0.023
       170.     1142.6      0.993      0.022
       170.     1152.7      1.018      0.023
       170.     1162.7      0.997      0.019
       170.     1172.7      0.980      0.019
       170.     1182.7      0.988      0.020
       170.     1192.7      0.992      0.020
       170.     1202.8      1.010      0.020
       170.     1212.8      0.985      0.020
       170.     1222.8      1.004      0.020
       170.     1232.8      1.046      0.021
       170.     1242.8      0.984      0.020
       170.     1252.8      1.014      0.021
       170.     1262.9      0.987      0.020
       170.     1272.9      0.965      0.020
       170.     1282.9      0.991      0.021
       170.     1292.9      0.999      0.021
       170.     1302.9      0.983      0.019
       170.     1312.9      0.981      0.019
       170.     1323.0      0.999      0.020
       170.     1333.0      0.987      0.019
       170.     1343.0      0.974      0.019
       170.     1353.0      0.997      0.020
       170.     1363.0      1.008      0.020
       170.     1373.0      0.973      0.019
       170.     1383.1      0.940      0.019
       170.     1393.1      1.008      0.020
       170.     1403.1      0.983      0.020
       170.     1413.1      1.006      0.020
       170.     1423.1      0.997      0.020
       170.     1433.1      0.999      0.020
       170.     1443.2      0.942      0.020
       170.     1453.2      0.960      0.020
       170.     1463.2      0.958      0.020
       170.     1473.2      0.978      0.020
       170.     1483.2      0.974      0.018
       170.     1493.2      0.939      0.017
       170.     1503.2      0.989      0.018
       170.     1513.3      0.974      0.018
       170.     1523.3      0.949      0.018
       170.     1533.3      0.943      0.018
       170.     1543.3      0.935      0.018
       170.     1553.3      0.932      0.018
       170.     1563.3      0.948      0.018
       170.     1573.3      0.933      0.018
       170.     1583.3      0.928      0.018
       170.     1593.4      0.921      0.018
       170.     1603.4      0.912      0.018
       170.     1613.4      0.926      0.018
       170.     1623.4      0.932      0.018
       170.     1633.4      0.984      0.019
       170.     1643.4      0.898      0.017
       170.     1653.4      0.928      0.018
       170.     1663.4      0.949      0.018
       170.     1673.5      0.962      0.018
       170.     1683.5      0.960      0.018
       170.     1693.5      0.933      0.018
       170.     1703.5      0.933      0.018
       170.     1715.8      0.924      0.018
       170.     1723.5      0.913      0.018
       170.     1733.5      0.910      0.018
       170.     1743.5      0.931      0.019
       170.     1753.5      0.905      0.017
       170.     1763.6      0.893      0.016
       170.     1773.6      0.881      0.016
       170.     1783.6      0.881      0.016
       170.     1793.6      0.868      0.016
       170.     1803.6      0.893      0.017
       170.     1813.6      0.874      0.017
       170.     1823.6      0.877      0.016
       170.     1833.6      0.841      0.015
       170.     1843.6      0.854      0.016
       170.     1853.7      0.863      0.016
       170.     1863.7      0.900      0.017
       170.     1873.7      0.905      0.017
       170.     1883.7      0.946      0.017
       170.     1893.7      0.927      0.017
       170.     1903.7      0.970      0.018
       170.     1913.7      0.951      0.014
       170.     1923.7      0.943      0.018
       170.     1933.7      0.919      0.017
       170.     1943.7      0.921      0.017
       170.     1953.8      0.971      0.018
       170.     1963.8      1.008      0.019
       170.     1973.8      1.004      0.019
       170.     1983.8      1.015      0.019
       170.     1993.8      0.947      0.018
       170.     2003.8      0.959      0.018
       170.     2013.8      0.995      0.019
       170.     2023.8      0.999      0.019
       170.     2033.8      0.970      0.018
       170.     2043.8      0.978      0.019
       170.     2053.8      0.962      0.018
       170.     2063.9      0.945      0.018
       170.     2073.9      0.909      0.018
       170.     2083.9      0.969      0.019
       170.     2093.9      0.990      0.019
       170.     2103.9      1.039      0.020
       170.     2113.9      1.015      0.021
       170.     2123.9      1.035      0.022
       170.     2133.9      1.029      0.022
       170.     2143.9      0.969      0.021
       170.     2153.9      0.918      0.020
       170.     2163.9      0.945      0.020
       170.     2173.9      0.977      0.021
       170.     2184.0      0.922      0.020
ENDDATA            722
ENDSUBENT          733
ENDENTRY             2
