ENTRY            O2377   20191217   20200302   20200301       O073
SUBENT        O2377001   20191217   20200302   20200301       O073
BIB                 10         12
TITLE      Levels of 116In and their analogue resonances in 116Sn
AUTHOR     (J.C.Thompson,K.Talbot,G.Parry)
INSTITUTE  (2UK LVP)
REFERENCE  (J,NP,89,209,1966)
FACILITY   (VDG,2UK LVP)
SAMPLE     (49-IN-115,ENR=0.998) The target of 115In was
           60. mu-g/cm2 thick and backed by a thin carbon foil.
METHOD     (BCINT)
ADD-RES    Proton spectrum from the 11Sin(d,p)ll6In reaction at
           90.degr. (given as a function of channel number).
ERR-ANALYS No information about source of uncertainties
HISTORY    (20191217C) SD
ENDBIB              12
NOCOMMON             0          0
ENDSUBENT           15
SUBENT        O2377002   20191217   20200302   20200301       O073
BIB                  3          5
REACTION   (49-IN-115(P,EL)49-IN-115,,DA,,RTH)
DETECTOR   (SIBAR) three surface barrier counters.
            The counter at 20.degr. was used to monitor the
           quantity of beam.
STATUS     (CURVE) Fig.2 from Nucl.Phys.,89(1966)209
ENDBIB               5
COMMON               2          3
EN-ERR-DIG ERR-DIG
MEV        NO-DIM
   0.0031     0.0008
ENDCOMMON            3
DATA                 3        357
ANG        EN         DATA
ADEG       MEV        NO-DIM
        90.     6.4926     0.9144
        90.     6.5501     0.9035
        90.     6.6000     0.9082
        90.     6.6482     0.8991
        90.     6.7019     0.8946
        90.     6.7260     0.8883
        90.     6.7520     0.8838
        90.     6.7779     0.8884
        90.     6.8000     0.8939
        90.     6.8279     0.8766
        90.     6.8520     0.8648
        90.     6.8761     0.8612
        90.     6.8835     0.8612
        90.     6.8928     0.8548
        90.     6.9003     0.8384
        90.     6.9097     0.8284
        90.     6.9173     0.7956
        90.     6.9267     0.7683
        90.     6.9342     0.7574
        90.     6.9415     0.7710
        90.     6.9507     0.7729
        90.     6.9579     0.8057
        90.     6.9707     0.8285
        90.     6.9781     0.8294
        90.     6.9855     0.8285
        90.     6.9929     0.8431
        90.     7.0003     0.8422
        90.     7.0114     0.8331
        90.     7.0208     0.8195
        90.     7.0264     0.8086
        90.     7.0339     0.7912
        90.     7.0433     0.7694
        90.     7.0526     0.7657
        90.     7.0598     0.7895
        90.     7.0708     0.8123
        90.     7.0782     0.8077
        90.     7.0856     0.8077
        90.     7.0947     0.8287
        90.     7.1022     0.8187
        90.     7.1096     0.8169
        90.     7.1208     0.8023
        90.     7.1281     0.8279
        90.     7.1335     0.8425
        90.     7.1427     0.8488
        90.     7.1518     0.8762
        90.     7.1593     0.8662
        90.     7.1668     0.8553
        90.     7.1761     0.8462
        90.     7.1855     0.8261
        90.     7.1948     0.8179
        90.     7.2060     0.8006
        90.     7.2154     0.7724
        90.     7.2265     0.7724
        90.     7.2339     0.7788
        90.     7.2449     0.7943
        90.     7.2541     0.8080
        90.     7.2615     0.8062
        90.     7.2670     0.8080
        90.     7.2726     0.8016
        90.     7.2781     0.8099
        90.     7.2799     0.8135
        90.     7.2855     0.8153
        90.     7.2910     0.8190
        90.     7.2966     0.8199
        90.     7.3058     0.8190
        90.     7.3132     0.8291
        90.     7.3149     0.8418
        90.     7.3242     0.8364
        90.     7.3242     0.8409
        90.     7.3353     0.8446
        90.     7.3427     0.8419
        90.     7.3464     0.8455
        90.     7.3538     0.8446
        90.     7.3593     0.8483
        90.     7.3649     0.8446
        90.     7.3722     0.8510
        90.     7.3742     0.8401
        90.     7.3797     0.8474
        90.     7.3852     0.8438
        90.     7.3909     0.8347
        90.     7.4001     0.8347
        90.     7.4094     0.8310
        90.     7.4113     0.8265
        90.     7.4187     0.8265
        90.     7.4261     0.8247
        90.     7.4335     0.8265
        90.     7.4372     0.8183
        90.     7.4410     0.8110
        90.     7.4465     0.8092
        90.     7.4540     0.8083
        90.     7.4576     0.8202
        90.     7.4612     0.8384
        90.     7.4686     0.8357
        90.     7.4703     0.8521
        90.     7.4758     0.8640
        90.     7.4851     0.8521
        90.     7.4944     0.8485
        90.     7.5018     0.8531
        90.     7.5055     0.8458
        90.     7.5204     0.8385
        90.     7.5445     0.8285
        90.     7.5723     0.8258
        90.     7.6001     0.8259
        90.     7.6241     0.8332
        90.     7.6464     0.8205
        90.     7.6593     0.8232
        90.     7.6686     0.8242
        90.     7.6778     0.8223
        90.     7.6890     0.8169
        90.     7.6982     0.8123
        90.     7.7224     0.8051
        90.     7.7482     0.8115
        90.     7.7741     0.8134
        90.     7.7964     0.8034
        90.     7.8464     0.7953
        90.     7.8982     0.7963
      125.5     6.4963     0.8228
      125.5     6.5278     0.8265
      125.5     6.5502     0.7984
      125.5     6.5760     0.8084
      125.5     6.6001     0.8094
      125.5     6.6242     0.7949
      125.5     6.6501     0.7959
      125.5     6.6742     0.7923
      125.5     6.7001     0.8050
      125.5     6.7243     0.7761
      125.5     6.7485     0.7535
      125.5     6.7577     0.7598
      125.5     6.7708     0.7399
      125.5     6.7764     0.7399
      125.5     6.7856     0.7399
      125.5     6.7930     0.7427
      125.5     6.8023     0.7336
      125.5     6.8098     0.7282
      125.5     6.8190     0.7336
      125.5     6.8264     0.7337
      125.5     6.8340     0.7047
      125.5     6.8433     0.7038
      125.5     6.8524     0.7138
      125.5     6.8599     0.7047
      125.5     6.8674     0.6848
      125.5     6.8767     0.6903
      125.5     6.8824     0.6676
      125.5     6.8935     0.6550
      125.5     6.9010     0.6459
      125.5     6.9104     0.6296
      125.5     6.9177     0.6342
      125.5     6.9249     0.6677
      125.5     6.9339     0.7085
      125.5     6.9410     0.7547
      125.5     6.9501     0.7773
      125.5     6.9576     0.7683
      125.5     6.9686     0.7801
      125.5     6.9761     0.7620
      125.5     6.9928     0.7529
      125.5     7.0004     0.7303
      125.5     7.0079     0.7195
      125.5     7.0189     0.7276
      125.5     7.0264     0.7204
      125.5     7.0320     0.7104
      125.5     7.0431     0.7086
      125.5     7.0502     0.7585
      125.5     7.0575     0.7784
      125.5     7.0649     0.7712
      125.5     7.0742     0.7630
      125.5     7.0835     0.7540
      125.5     7.0947     0.7377
      125.5     7.1022     0.7350
      125.5     7.1078     0.7232
      125.5     7.1189     0.7314
      125.5     7.1262     0.7323
      125.5     7.1337     0.7233
      125.5     7.1429     0.7360
      125.5     7.1503     0.7296
      125.5     7.1597     0.7161
      125.5     7.1690     0.7079
      125.5     7.1764     0.7061
      125.5     7.1838     0.7052
      125.5     7.1932     0.6890
      125.5     7.1951     0.6790
      125.5     7.2043     0.6790
      125.5     7.2173     0.6836
      125.5     7.2244     0.7280
      125.5     7.2316     0.7524
      125.5     7.2426     0.7633
      125.5     7.2555     0.7751
      125.5     7.2575     0.7624
      125.5     7.2629     0.7724
      125.5     7.2686     0.7633
      125.5     7.2760     0.7643
      125.5     7.2833     0.7715
      125.5     7.2907     0.7688
      125.5     7.2981     0.7688
      125.5     7.3056     0.7643
      125.5     7.3111     0.7616
      125.5     7.3185     0.7616
      125.5     7.3223     0.7589
      125.5     7.3279     0.7526
      125.5     7.3334     0.7517
      125.5     7.3409     0.7417
      125.5     7.3464     0.7426
      125.5     7.3501     0.7517
      125.5     7.3538     0.7490
      125.5     7.3594     0.7408
      125.5     7.3668     0.7354
      125.5     7.3743     0.7282
      125.5     7.3798     0.7354
      125.5     7.3872     0.7382
      125.5     7.3946     0.7400
      125.5     7.4020     0.7373
      125.5     7.4113     0.7283
      125.5     7.4150     0.7373
      125.5     7.4187     0.7283
      125.5     7.4243     0.7292
      125.5     7.4298     0.7382
      125.5     7.4353     0.7373
      125.5     7.4427     0.7392
      125.5     7.4446     0.7310
      125.5     7.4483     0.7274
      125.5     7.4539     0.7328
      125.5     7.4594     0.7301
      125.5     7.4650     0.7329
      125.5     7.4705     0.7302
      125.5     7.4761     0.7238
      125.5     7.4835     0.7220
      125.5     7.4892     0.7057
      125.5     7.5003     0.7057
      125.5     7.5077     0.7067
      125.5     7.5225     0.7067
      125.5     7.5448     0.6977
      125.5     7.5707     0.6905
      125.5     7.5967     0.6796
      125.5     7.6207     0.6869
      125.5     7.6448     0.6797
      125.5     7.6559     0.6806
      125.5     7.6671     0.6734
      125.5     7.6763     0.6789
      125.5     7.6856     0.6734
      125.5     7.6949     0.6671
      125.5     7.7208     0.6762
      125.5     7.7468     0.6627
      125.5     7.7708     0.6645
      125.5     7.7968     0.6600
      125.5     7.8468     0.6483
      125.5     7.8987     0.6366
      140.8     6.4999     0.8216
      140.8     6.5518     0.8090
      140.8     6.6019     0.7909
      140.8     6.6518     0.8001
      140.8     6.7001     0.7792
      140.8     6.7260     0.7820
      140.8     6.7518     0.7920
      140.8     6.7759     0.7957
      140.8     6.8003     0.7448
      140.8     6.8263     0.7267
      140.8     6.8505     0.7131
      140.8     6.8747     0.6949
      140.8     6.8858     0.6913
      140.8     6.8933     0.6795
      140.8     6.9009     0.6604
      140.8     6.9119     0.6631
      140.8     6.9193     0.6759
      140.8     6.9282     0.7132
      140.8     6.9315     0.7769
      140.8     6.9404     0.8197
      140.8     6.9496     0.8242
      140.8     6.9551     0.8333
      140.8     6.9681     0.8343
      140.8     6.9831     0.8052
      140.8     6.9925     0.7834
      140.8     6.9981     0.7816
      140.8     7.0054     0.7934
      140.8     7.0168     0.7534
      140.8     7.0261     0.7470
      140.8     7.0334     0.7616
      140.8     7.0424     0.7889
      140.8     7.0496     0.8299
      140.8     7.0570     0.8199
      140.8     7.0642     0.8508
      140.8     7.0643     0.8326
      140.8     7.0757     0.8017
      140.8     7.0849     0.8008
      140.8     7.0960     0.8054
      140.8     7.0980     0.7817
      140.8     7.1074     0.7672
      140.8     7.1148     0.7663
      140.8     7.1241     0.7545
      140.8     7.1334     0.7600
      140.8     7.1407     0.7627
      140.8     7.1517     0.7755
      140.8     7.1592     0.7627
      140.8     7.1667     0.7518
      140.8     7.1778     0.7518
      140.8     7.1835     0.7346
      140.8     7.1947     0.7273
      140.8     7.2002     0.7237
      140.8     7.2075     0.7473
      140.8     7.2148     0.7592
      140.8     7.2237     0.8056
      140.8     7.2309     0.8420
      140.8     7.2440     0.8093
      140.8     7.2477     0.8193
      140.8     7.2587     0.8275
      140.8     7.2643     0.8193
      140.8     7.2736     0.8121
      140.8     7.2829     0.8148
      140.8     7.2904     0.8012
      140.8     7.2943     0.7757
      140.8     7.3018     0.7521
      140.8     7.3129     0.7530
      140.8     7.3241     0.7475
      140.8     7.3352     0.7521
      140.8     7.3424     0.7685
      140.8     7.3536     0.7549
      140.8     7.3629     0.7549
      140.8     7.3720     0.7722
      140.8     7.3831     0.7759
      140.8     7.3924     0.7686
      140.8     7.4035     0.7723
      140.8     7.4091     0.7632
      140.8     7.4129     0.7541
      140.8     7.4186     0.7341
      140.8     7.4241     0.7404
      140.8     7.4297     0.7295
      140.8     7.4353     0.7250
      140.8     7.4391     0.7159
      140.8     7.4465     0.7114
      140.8     7.4503     0.7005
      140.8     7.4541     0.6850
      140.8     7.4615     0.6841
      140.8     7.4689     0.6823
      140.8     7.4725     0.6978
      140.8     7.4800     0.6932
      140.8     7.4854     0.7032
      140.8     7.4910     0.7060
      140.8     7.4946     0.7151
      140.8     7.5001     0.7260
      140.8     7.5038     0.7242
      140.8     7.5094     0.7142
      140.8     7.5149     0.7251
      140.8     7.5187     0.7133
      140.8     7.5261     0.7079
      140.8     7.5334     0.7215
      140.8     7.5446     0.7106
      140.8     7.5539     0.7070
      140.8     7.5632     0.6988
      140.8     7.5744     0.6852
      140.8     7.5837     0.6834
      140.8     7.5947     0.6880
      140.8     7.6152     0.6798
      140.8     7.6337     0.6744
      140.8     7.6560     0.6681
      140.8     7.6764     0.6635
      140.8     7.6950     0.6436
      140.8     7.7449     0.6564
      140.8     7.7968     0.6428
      140.8     7.8951     0.6121
ENDDATA            359
ENDSUBENT          373
SUBENT        O2377003   20191217   20200302   20200301       O073
BIB                  5          8
REACTION   (49-IN-115(P,N)50-SN-115,,DA)
            neutron yield x 0.001/1000 x uC
DETECTOR   (BF3) single BF 3 proportional counter (90% enriched
           10B). The front face was 25 cm from the target
COMMENT    The total background from the carbon backing and other
           sources constituted 10 % of the yield at 7 MeV
ERR-ANALYS (ERR-1) Uncertainty in the target current
STATUS     (CURVE) Fig.6 from Nucl.Phys.,89(1966)209
ENDBIB               8
COMMON               4          3
ANG        ERR-1      EN-ERR-DIG ERR-DIG
ADEG       PER-CENT   MEV        MB/SR
  60.         1.        0.0017     0.0095
ENDCOMMON            3
DATA                 2        112
EN         DATA
MEV        MB/SR
     6.8499     0.3962
     6.8737     1.0341
     6.8994     1.7822
     6.9083     2.6269
     6.9145     3.2023
     6.9182     3.3983
     6.9224     4.2916
     6.9280     4.2553
     6.9327     4.0232
     6.9384     3.8034
     6.9433     3.1799
     6.9481     2.6910
     6.9540     1.8963
     6.9588     1.7009
     6.9635     1.4077
     6.9692     1.1145
     6.9748     1.0537
     6.9794     1.1764
     6.9842     0.7241
     6.9879     0.7122
     6.9935     0.7493
     6.9990     0.7741
     7.0046     0.7134
     7.0091     1.0318
     7.0128     1.1666
     7.0181     1.6563
     7.0225     2.3050
     7.0270     2.6967
     7.0324     3.0152
     7.0378     3.3703
     7.0425     3.2239
     7.0474     2.6004
     7.0541     2.0871
     7.0580     1.5981
     7.0675     1.0727
     7.0786     1.2081
     7.0833     1.0984
     7.0888     1.1722
     7.0935     0.9401
     7.0989     1.3931
     7.1034     1.7971
     7.1089     1.8709
     7.1124     2.3972
     7.1169     2.7523
     7.1230     3.6702
     7.1279     2.9855
     7.1377     1.7874
     7.1427     0.9682
     7.1499     1.4458
     7.1529     0.8221
     7.1576     0.8102
     7.1641     0.6639
     7.1677     1.0801
     7.1741     1.1906
     7.1788     1.2032
     7.1823     1.6438
     7.1878     1.7421
     7.1933     1.9994
     7.1979     1.9508
     7.2031     2.8809
     7.2079     2.3797
     7.2122     3.2975
     7.2161     2.8207
     7.2216     2.8945
     7.2271     3.1762
     7.2340     2.1247
     7.2389     1.4156
     7.2425     1.6850
     7.2485     0.7312
     7.2541     0.7561
     7.2624     0.8913
     7.2681     0.4146
     7.2736     0.6719
     7.2791     0.6968
     7.2838     0.7094
     7.2891     1.2847
     7.2938     1.1994
     7.2981     1.8236
     7.3036     2.1053
     7.3083     1.9956
     7.3131     1.4210
     7.3187     1.3236
     7.3245     0.7490
     7.3293     0.5414
     7.3321     0.4682
     7.3536     0.1273
     7.3693     0.1407
     7.3795     0.1904
     7.4036     0.1310
     7.4090     0.5473
     7.4137     0.5476
     7.4192     0.5235
     7.4226     1.3189
     7.4291     1.4417
     7.4326     1.7600
     7.4380     2.2620
     7.4434     2.5315
     7.4478     3.2291
     7.4523     3.4618
     7.4578     3.5968
     7.4637     2.9367
     7.4676     2.4476
     7.4742     2.1056
     7.4791     1.6044
     7.4838     1.3723
     7.4896     0.9079
     7.4941     1.0183
     7.5000     0.3582
     7.5046     0.5053
     7.5093     0.2365
     7.5149     0.1269
     7.5205     0.2007
ENDDATA            114
ENDSUBENT          131
ENDENTRY             3
