ENTRY            O2391   20191128   20200302   20200301       O073
SUBENT        O2391001   20191128   20200302   20200301       O073
BIB                 12         26
TITLE      Highly accurate spreading width G' of isobaric
           analog states in 139La from 138Ba(p,p') using a
           two-level S-matrix resonance parametrization
AUTHOR     (K.R.Nyga,H.Paetz gen.Schieck)
INSTITUTE  (2GERKLN)
REFERENCE  (J,NP/A,501,513,1989)
FACILITY   (VDGT,2GERKLN) HVEC FN tandem Van de Graaff accelerator
INC-SOURCE (POLIS) Lamb-shift source LASCO
SAMPLE     Isotopically enriched targets (purity >99%, supported
           by 10 mu-g/cm2 carbon foils) with a barium thickness of
           53 mu-g/cm2 for the first beam time and 151 mu-g/cm2
           for the other two beam times.
DETECTOR   (SIBAR) Eight Si surface barrier detectors were mounted
           symmetrically to the left and right of the beam
           Two further detectors were mounted at 45. degr. as
           monitors for target thickness determination via
           Rutherford scattering at Elab = 7 MeV.
           The beam polarization was monitored simultaneously
           with a 4He polarimeter with two detectors at
           Angle(Lab) = 112. installed in the Faraday cup behind
           the scattering chamber.
METHOD     (BCINT)
ADD-RES    Additionally, data set cross section * analyzing power
           are given on figs 4,5(b).
ERR-ANALYS (DATA-ERR) No information about source of uncertainty.
HISTORY    (20191128C) SD
ENDBIB              26
NOCOMMON             0          0
ENDSUBENT           29
SUBENT        O2391002   20191128   20200302   20200301       O073
BIB                  2          2
REACTION   (56-BA-138(P,EL)56-BA-138,,DA)
STATUS     (CURVE) figs 2,3 from Nucl.Phys.,A501(1989)513
ENDBIB               2
COMMON               2          3
EN-ERR-DIG ERR-DIG
MEV        MB/SR
 0.0017      0.040
ENDCOMMON            3
DATA                 4        392
ANG        EN         DATA       DATA-ERR
ADEG       MEV        MB/SR      MB/SR
       140.     9.4433     38.134      1.697
       140.     9.4850     37.105      1.697
       140.     9.5240     36.745      1.748
       140.     9.5735     35.561      1.594
       140.     9.6047     35.612      1.594
       140.     9.6463     34.686      1.491
       140.     9.6880     33.914      1.543
       140.     9.7244     32.834      1.440
       140.     9.7634     32.113      1.491
       140.     9.8025     31.496      1.388
       140.     9.8155     32.010      1.080
       140.     9.8233     32.010      1.080
       140.     9.8337     31.495      1.028
       140.     9.8416     32.010      0.874
       140.     9.8520     31.135      0.874
       140.     9.8624     31.444      0.977
       140.     9.8728     31.135      0.977
       140.     9.8806     31.083      0.977
       140.     9.8936     31.032      1.080
       140.     9.9040     30.312      1.080
       140.     9.9144     30.517      0.926
       140.     9.9249     30.569      0.977
       140.     9.9327     30.260      0.720
       140.     9.9457     30.517      0.926
       140.     9.9509     30.980      0.617
       140.     9.9613     30.517      0.977
       140.     9.9717     30.568      0.771
       140.     9.9796     31.545      0.771
       140.     9.9822     31.905      0.720
       140.     9.9900     32.059      0.874
       140.    10.0080     32.419      1.028
       140.    10.0080     31.287      0.720
       140.    10.0210     31.493      0.823
       140.    10.0340     30.258      0.977
       140.    10.0500     30.310      0.617
       140.    10.0520     29.024      0.720
       140.    10.0600     28.407      0.771
       140.    10.0710     28.972      0.874
       140.    10.0890     28.407      0.977
       140.    10.0890     27.532      0.566
       140.    10.1200     27.429      1.234
       140.    10.1540     27.120      1.234
       140.    10.1930     26.400      1.286
       140.    10.2500     25.267      1.080
       140.    10.3460     23.209      1.028
       140.    10.4300     21.254      0.977
       140.    10.4690     19.814      0.874
       140.    10.4920     19.093      0.874
       140.    10.5130     18.065      0.823
       140.    10.5310     16.727      0.823
       140.    10.5440     15.956      0.720
       140.    10.5620     14.464      0.669
       140.    10.5700     13.384      0.566
       140.    10.5800     12.253      0.514
       140.    10.5880     11.122      0.566
       140.    10.6010     10.247      0.411
       140.    10.6090      9.836      0.411
       140.    10.6220     10.350      0.463
       140.    10.6270     11.687      0.360
       140.    10.6330     12.869      0.566
       140.    10.6400     14.000      0.669
       140.    10.6460     15.337      0.617
       140.    10.6480     17.343      0.771
       140.    10.6480     16.572      0.720
       140.    10.6610     19.554      0.874
       140.    10.6690     21.199      0.926
       140.    10.6770     21.919      1.028
       140.    10.6900     22.433      1.028
       140.    10.7010     22.844      1.028
       140.    10.7160     22.844      0.926
       140.    10.7290     22.690      1.080
       140.    10.7420     22.432      1.080
       140.    10.7630     22.226      0.977
       140.    10.7760     21.815      1.028
       140.    10.8000     21.506      0.926
       140.    10.8200     21.043      0.926
       140.    10.8390     20.631      0.977
       140.    10.8570     20.168      0.926
       140.    10.8780     19.808      0.874
       140.    10.8980     19.756      0.823
       140.    10.9220     19.036      0.874
       140.    10.9400     18.521      0.823
       140.    10.9610     18.110      0.771
       140.    10.9820     18.264      0.823
       140.    11.0030     17.338      0.771
       140.    11.0230     16.206      0.720
       140.    11.0310     15.229      0.566
       140.    11.0440     14.869      0.360
       140.    11.0520     14.098      0.463
       140.    11.0650     13.480      0.463
       140.    11.0750     13.223      0.411
       140.    11.0860     13.737      0.360
       140.    11.0960     14.457      0.411
       140.    11.1070     15.537      0.720
       140.    11.1120     16.205      0.411
       140.    11.1220     16.925      0.514
       140.    11.1330     17.747      0.566
       140.    11.1410     18.159      0.411
       140.    11.1510     18.159      0.514
       140.    11.1610     18.158      0.566
       140.    11.1720     18.158      0.463
       140.    11.1850     18.107      0.514
       140.    11.1900     18.158      0.823
       140.    11.2010     18.209      0.823
       140.    11.2210     17.849      0.874
       140.    11.2340     17.849      0.823
       140.    11.2500     17.900      0.771
       140.    11.2630     18.054      0.669
       140.    11.2730     18.208      0.669
       140.    11.2840     18.362      0.617
       140.    11.2920     18.414      0.720
       140.    11.3020     18.465      0.874
       140.    11.3100     18.208      0.566
       140.    11.3150     17.642      0.668
       140.    11.3330     17.076      0.617
       140.    11.3410     16.716      0.771
       140.    11.3540     16.253      0.514
       140.    11.3700     16.150      0.463
       140.    11.3830     15.893      0.514
       140.    11.3930     15.944      0.514
       140.    11.4060     15.995      0.514
       140.    11.4140     16.047      0.566
       140.    11.4320     16.046      0.514
       140.    11.4430     16.098      0.617
       140.    11.4560     15.943      0.411
       140.    11.4690     15.274      0.411
       140.    11.4790     15.172      0.514
       140.    11.4950     14.760      0.566
       140.    11.5080     14.708      0.514
       140.    11.5130     14.297      0.514
       140.    11.5260     14.142      0.514
       140.    11.5340     13.937      0.463
       140.    11.5440     13.885      0.463
       140.    11.5550     13.885      0.463
       140.    11.5650     13.833      0.411
       140.    11.5730     13.833      0.463
       140.    11.5860     13.782      0.463
       140.    11.5960     13.781      0.514
       140.    11.6090     13.678      0.514
       140.    11.6220     13.627      0.514
       140.    11.6350     13.472      0.463
       140.    11.6510     13.164      0.411
       140.    11.6640     12.958      0.463
       140.    11.6740     12.649      0.411
       140.    11.6870     12.392      0.463
       140.    11.6980     11.980      0.514
       140.    11.7130     11.826      0.617
       140.    11.7210     11.826      0.514
       140.    11.7320     11.568      0.309
       140.    11.7420     11.311      0.309
       140.    11.7550     11.002      0.360
       140.    11.7710     10.848      0.360
       140.    11.7840     11.053      0.411
       140.    11.7990     11.310      0.360
       140.    11.8100     11.567      0.257
       140.    11.8180     11.721      0.463
       140.    11.8310     11.361      0.411
       140.    11.8490     11.310      0.411
       140.    11.8670     11.001      0.411
       140.    11.8830     10.795      0.411
       140.    11.8960     10.486      0.566
       140.    11.9140     10.435      0.566
       140.    11.9290     10.126      0.411
       140.    11.9480     10.023      0.514
       140.    11.9610     10.125      0.360
       140.    11.9760     10.125      0.309
       140.    11.9890      9.816      0.309
       140.    12.0050      9.662      0.360
       140.    12.0230      9.302      0.360
       140.    12.0390      8.890      0.308
       140.    12.0490      8.530      0.411
       140.    12.0620      8.221      0.257
       140.    12.0750      7.810      0.309
       140.    12.0880      7.295      0.257
       140.    12.0960      6.781      0.309
       140.    12.1060      6.267      0.309
       140.    12.1220      5.649      0.309
       140.    12.1350      5.083      0.257
       140.    12.1510      5.186      0.257
       140.    12.1610      5.854      0.206
       140.    12.1820      6.523      0.309
       140.    12.1870      7.191      0.257
       140.    12.2030      8.014      0.360
       140.    12.2110      8.425      0.360
       140.    12.2260      9.093      0.360
       140.    12.2370      9.556      0.309
       140.    12.2500      9.813      0.360
       140.    12.2650     10.070      0.463
       140.    12.2840      9.967      0.463
       140.    12.3070      9.658      0.360
       140.    12.3250      9.503      0.309
       140.    12.3330      9.246      0.360
       170.     9.4474     26.441      1.151
       170.     9.4866     25.621      1.151
       170.     9.5306     25.506      1.151
       170.     9.5747     25.007      1.087
       170.     9.6083     25.144      1.087
       170.     9.6499     24.452      1.087
       170.     9.6914     24.272      1.087
       170.     9.7303     23.900      1.087
       170.     9.7663     24.294      1.024
       170.     9.8048     24.752      1.151
       170.     9.8200     25.524      0.768
       170.     9.8251     25.653      0.575
       170.     9.8379     25.848      0.831
       170.     9.8453     26.618      0.896
       170.     9.8557     26.493      0.702
       170.     9.8630     27.518      0.895
       170.     9.8732     27.777      0.830
       170.     9.8884     28.484      0.958
       170.     9.8913     27.718      0.703
       170.     9.8956     29.701      0.896
       170.     9.9059     29.832      0.960
       170.     9.9135     30.090      0.831
       170.     9.9251     32.842      0.511
       170.     9.9259     31.116      0.639
       170.     9.9307     32.013      0.576
       170.     9.9328     32.972      0.639
       170.     9.9398     34.637      0.959
       170.     9.9476     34.639      0.959
       170.     9.9573     35.920      1.215
       170.     9.9641     38.096      1.215
       170.     9.9767     38.611      1.023
       170.     9.9908     36.058      0.830
       170.     9.9939     34.972      1.151
       170.    10.0030     26.407      0.831
       170.    10.0070     18.543      0.767
       170.    10.0140     14.901      0.448
       170.    10.0180     10.618      0.511
       170.    10.0250      7.232      0.448
       170.    10.0410      4.871      0.448
       170.    10.0570      5.067      0.320
       170.    10.0690      5.710      0.256
       170.    10.0720      6.478      0.319
       170.    10.0870      6.546      0.320
       170.    10.1150      7.705      0.320
       170.    10.1480      8.673      0.384
       170.    10.1890      9.516      0.383
       170.    10.2480     10.044      0.448
       170.    10.3490      9.817      0.383
       170.    10.4300      8.817      0.448
       170.    10.4660      8.060      0.384
       170.    10.4900      7.491      0.320
       170.    10.5110      6.794      0.319
       170.    10.5320      6.096      0.320
       170.    10.5450      5.589      0.256
       170.    10.5630      4.891      0.256
       170.    10.5710      4.637      0.320
       170.    10.5840      4.385      0.256
       170.    10.5920      4.515      0.256
       170.    10.5990      5.220      0.320
       170.    10.6090      7.397      0.320
       170.    10.6210      9.510      0.384
       170.    10.6290     13.029      0.640
       170.    10.6410     16.165      0.703
       170.    10.6470     18.725      0.831
       170.    10.6600     20.135      0.704
       170.    10.6650     20.584      0.511
       170.    10.6780     20.779      0.896
       170.    10.6880     20.654      0.511
       170.    10.7010     20.147      0.703
       170.    10.7060     19.701      0.447
       170.    10.7200     18.937      0.639
       170.    10.7300     18.556      0.511
       170.    10.7330     17.918      0.575
       170.    10.7510     17.667      0.511
       170.    10.7590     17.158      0.575
       170.    10.7700     16.841      0.575
       170.    10.7830     16.270      0.702
       170.    10.8040     15.764      0.767
       170.    10.8200     15.193      0.703
       170.    10.8430     14.816      0.703
       170.    10.8640     14.374      0.639
       170.    10.8820     13.932      0.639
       170.    10.9030     13.810      0.640
       170.    10.9240     13.304      0.576
       170.    10.9420     12.990      0.640
       170.    10.9660     12.613      0.575
       170.    10.9840     12.618      0.511
       170.    11.0050     11.857      0.512
       170.    11.0260     11.032      0.575
       170.    11.0360     10.523      0.448
       170.    11.0540     10.464      0.383
       170.    11.0670     10.788      0.255
       170.    11.0750     11.301      0.255
       170.    11.0840     12.711      0.384
       170.    11.0940     14.312      0.384
       170.    11.1060     15.594      0.704
       170.    11.1090     16.234      0.318
       170.    11.1190     16.812      0.255
       170.    11.1240     17.133      0.383
       170.    11.1360     17.648      0.511
       170.    11.1550     17.526      0.448
       170.    11.1700     17.338      0.448
       170.    11.1810     17.149      0.511
       170.    11.1930     17.281      0.511
       170.    11.2040     16.772      0.703
       170.    11.2250     16.203      0.767
       170.    11.2400     16.143      0.639
       170.    11.2540     15.764      0.703
       170.    11.2640     15.447      0.703
       170.    11.2740     15.450      0.512
       170.    11.2850     15.261      0.704
       170.    11.2950     15.136      0.639
       170.    11.3030     15.650      0.703
       170.    11.3130     16.420      0.702
       170.    11.3230     17.126      0.767
       170.    11.3330     17.960      0.703
       170.    11.3430     18.027      0.767
       170.    11.3580     18.031      0.511
       170.    11.3740     18.035      0.511
       170.    11.3840     17.974      0.639
       170.    11.3950     17.913      0.640
       170.    11.4050     17.341      0.639
       170.    11.4110     16.703      0.640
       170.    11.4270     14.150      0.448
       170.    11.4330     13.001      0.447
       170.    11.4420     10.638      0.384
       170.    11.4530      8.979      0.384
       170.    11.4610      8.533      0.448
       170.    11.4740      8.537      0.448
       170.    11.4890      9.373      0.511
       170.    11.4990      9.695      0.511
       170.    11.5090     10.209      0.320
       170.    11.5190     10.724      0.320
       170.    11.5320     11.111      0.511
       170.    11.5420     11.370      0.448
       170.    11.5530     11.756      0.320
       170.    11.5680     11.697      0.448
       170.    11.5810     11.509      0.511
       170.    11.5920     11.384      0.384
       170.    11.6040     11.771      0.384
       170.    11.6170     11.774      0.511
       170.    11.6300     11.906      0.511
       170.    11.6430     12.229      0.256
       170.    11.6560     12.489      0.447
       170.    11.6660     12.939      0.320
       170.    11.6770     11.983      0.383
       170.    11.6850     11.218      0.384
       170.    11.6990      9.048      0.448
       170.    11.7040      7.963      0.256
       170.    11.7160      5.856      0.511
       170.    11.7290      4.901      0.384
       170.    11.7390      4.520      0.192
       170.    11.7520      4.780      0.192
       170.    11.7620      5.102      0.192
       170.    11.7700      5.552      0.192
       170.    11.7800      6.322      0.256
       170.    11.7870      7.283      0.256
       170.    11.8000      8.054      0.320
       170.    11.8070      8.568      0.320
       170.    11.8200      9.083      0.256
       170.    11.8330      9.278      0.384
       170.    11.8480      9.474      0.511
       170.    11.8610      9.670      0.384
       170.    11.8790      9.547      0.448
       170.    11.8970      9.616      0.384
       170.    11.9150      9.813      0.319
       170.    11.9310      9.817      0.447
       170.    11.9390      9.564      0.384
       170.    11.9520      9.184      0.384
       170.    11.9600      8.866      0.384
       170.    11.9680      8.229      0.320
       170.    11.9780      7.657      0.384
       170.    11.9940      7.597      0.448
       170.    12.0090      7.730      0.384
       170.    12.0270      7.799      0.511
       170.    12.0450      7.804      0.384
       170.    12.0640      7.681      0.384
       170.    12.0790      7.366      0.383
       170.    12.0900      6.985      0.448
       170.    12.1000      6.732      0.319
       170.    12.1130      5.905      0.256
       170.    12.1220      5.332      0.320
       170.    12.1350      4.888      0.192
       170.    12.1520      5.532      0.319
       170.    12.1670      6.879      0.383
       170.    12.1770      7.841      0.320
       170.    12.1850      8.483      0.383
       170.    12.1950      9.125      0.384
       170.    12.2020     10.022      0.255
       170.    12.2150     10.985      0.384
       170.    12.2240     12.202      0.384
       170.    12.2370     12.525      0.575
       170.    12.2470     12.720      0.448
       170.    12.2550     13.170      0.448
       170.    12.2650     13.109      0.512
       170.    12.2810     13.049      0.575
       170.    12.2910     13.180      0.384
       170.    12.3070     12.673      0.448
       170.    12.3220     12.294      0.512
       170.    12.3330     11.594      0.448
ENDDATA            394
ENDSUBENT          405
SUBENT        O2391003   20191128   20200302   20200301       O073
BIB                  2          2
REACTION   (56-BA-138(P,EL)56-BA-138,,POL/DA,,ANA)
STATUS     (CURVE) figs 2,3 from Nucl.Phys.,A501(1989)513
ENDBIB               2
COMMON               2          3
EN-ERR-DIG ERR-DIG
MEV        NO-DIM
 0.0018      0.0025
ENDCOMMON            3
DATA                 4        397
ANG        EN         DATA       DATA-ERR
ADEG       MEV        NO-DIM     NO-DIM
       140.     9.4528    -0.0162     0.0054
       140.     9.4917    -0.0072     0.0072
       140.     9.5332    -0.0216     0.0054
       140.     9.5799    -0.0180     0.0072
       140.     9.6110    -0.0252     0.0072
       140.     9.6526    -0.0270     0.0054
       140.     9.6941    -0.0324     0.0072
       140.     9.7356    -0.0270     0.0072
       140.     9.7719    -0.0342     0.0072
       140.     9.8108    -0.0396     0.0054
       140.     9.8264    -0.0396     0.0072
       140.     9.8420    -0.0396     0.0072
       140.     9.8549    -0.0360     0.0054
       140.     9.8679    -0.0377     0.0090
       140.     9.8783    -0.0270     0.0072
       140.     9.8939    -0.0252     0.0054
       140.     9.9068    -0.0090     0.0090
       140.     9.9276     0.0054     0.0072
       140.     9.9380     0.0180     0.0072
       140.     9.9483     0.0774     0.0072
       140.     9.9561     0.1133     0.0054
       140.     9.9665     0.2302     0.0072
       140.     9.9717     0.3112     0.0054
       140.     9.9872     0.5252     0.0072
       140.     9.9898     0.5774     0.0126
       140.    10.0030     0.6277     0.0090
       140.    10.0110     0.6151     0.0108
       140.    10.0160     0.5522     0.0090
       140.    10.0260     0.4766     0.0090
       140.    10.0290     0.4623     0.0072
       140.    10.0390     0.3633     0.0072
       140.    10.0440     0.2914     0.0090
       140.    10.0570     0.2284     0.0072
       140.    10.0620     0.2159     0.0072
       140.    10.0700     0.1727     0.0054
       140.    10.0780     0.1547     0.0072
       140.    10.0880     0.1241     0.0072
       140.    10.1200     0.0828     0.0072
       140.    10.1510     0.0468     0.0072
       140.    10.1950     0.0342     0.0072
       140.    10.2520     0.0036     0.0054
       140.    10.3510    -0.0143     0.0072
       140.    10.4340    -0.0125     0.0054
       140.    10.4720    -0.0054     0.0054
       140.    10.4960     0.0108     0.0072
       140.    10.5110     0.0108     0.0054
       140.    10.5300     0.0234     0.0054
       140.    10.5450     0.0090     0.0054
       140.    10.5610     0.0108     0.0072
       140.    10.5740    -0.0071     0.0090
       140.    10.5840    -0.0287     0.0090
       140.    10.5890    -0.0881     0.0090
       140.    10.5970    -0.1636     0.0090
       140.    10.6130    -0.3399     0.0090
       140.    10.6200    -0.4388     0.0144
       140.    10.6310    -0.4964     0.0108
       140.    10.6360    -0.5018     0.0072
       140.    10.6410    -0.4874     0.0108
       140.    10.6520    -0.4586     0.0090
       140.    10.6590    -0.4118     0.0090
       140.    10.6720    -0.3669     0.0072
       140.    10.6800    -0.3345     0.0090
       140.    10.6900    -0.3021     0.0072
       140.    10.7030    -0.2697     0.0072
       140.    10.7110    -0.2499     0.0072
       140.    10.7190    -0.2553     0.0072
       140.    10.7290    -0.2445     0.0072
       140.    10.7450    -0.2140     0.0108
       140.    10.7600    -0.2068     0.0108
       140.    10.7760    -0.2032     0.0090
       140.    10.7990    -0.1888     0.0072
       140.    10.8120    -0.1834     0.0072
       140.    10.8230    -0.1834     0.0072
       140.    10.8330    -0.1798     0.0108
       140.    10.8440    -0.1816     0.0090
       140.    10.8640    -0.1762     0.0072
       140.    10.8770    -0.1744     0.0090
       140.    10.8980    -0.1834     0.0090
       140.    10.9080    -0.1852     0.0072
       140.    10.9210    -0.1870     0.0090
       140.    10.9420    -0.1798     0.0072
       140.    10.9600    -0.1888     0.0072
       140.    10.9810    -0.1834     0.0072
       140.    10.9990    -0.2050     0.0072
       140.    11.0230    -0.1978     0.0072
       140.    11.0380    -0.1816     0.0072
       140.    11.0480    -0.1330     0.0054
       140.    11.0590    -0.0863     0.0054
       140.    11.0720    -0.0143     0.0054
       140.    11.0800     0.0738     0.0090
       140.    11.0870     0.1386     0.0126
       140.    11.1000     0.1457     0.0144
       140.    11.1160     0.1260     0.0072
       140.    11.1260     0.1008     0.0072
       140.    11.1370     0.0774     0.0072
       140.    11.1470     0.0540     0.0072
       140.    11.1630     0.0181     0.0072
       140.    11.1780    -0.0035     0.0108
       140.    11.1960    -0.0125     0.0072
       140.    11.2220    -0.0287     0.0054
       140.    11.2350    -0.0449     0.0072
       140.    11.2460    -0.0503     0.0072
       140.    11.2610    -0.0539     0.0072
       140.    11.2770    -0.0557     0.0072
       140.    11.2870    -0.0647     0.0072
       140.    11.3080    -0.0665     0.0072
       140.    11.3160    -0.0845     0.0072
       140.    11.3290    -0.0916     0.0072
       140.    11.3360    -0.0988     0.0072
       140.    11.3520    -0.1186     0.0072
       140.    11.3600    -0.1438     0.0054
       140.    11.3700    -0.1654     0.0072
       140.    11.3830    -0.2031     0.0072
       140.    11.3910    -0.2337     0.0072
       140.    11.4040    -0.2841     0.0090
       140.    11.4120    -0.3506     0.0090
       140.    11.4270    -0.4675     0.0108
       140.    11.4300    -0.4873     0.0108
       140.    11.4430    -0.5107     0.0108
       140.    11.4530    -0.4711     0.0162
       140.    11.4610    -0.4190     0.0108
       140.    11.4740    -0.3398     0.0072
       140.    11.4900    -0.2733     0.0072
       140.    11.4950    -0.2535     0.0072
       140.    11.5050    -0.2247     0.0072
       140.    11.5160    -0.1996     0.0072
       140.    11.5260    -0.1618     0.0054
       140.    11.5390    -0.1474     0.0072
       140.    11.5520    -0.1474     0.0072
       140.    11.5620    -0.1366     0.0072
       140.    11.5700    -0.1564     0.0090
       140.    11.5750    -0.1384     0.0090
       140.    11.5880    -0.1312     0.0090
       140.    11.6010    -0.1222     0.0108
       140.    11.6060    -0.1078     0.0072
       140.    11.6170    -0.0952     0.0072
       140.    11.6270    -0.1006     0.0054
       140.    11.6430    -0.0844     0.0054
       140.    11.6530    -0.0718     0.0072
       140.    11.6660    -0.0700     0.0072
       140.    11.6760    -0.0575     0.0072
       140.    11.6920    -0.1006     0.0072
       140.    11.7000    -0.1564     0.0072
       140.    11.7130    -0.2193     0.0090
       140.    11.7230    -0.2733     0.0090
       140.    11.7310    -0.2769     0.0090
       140.    11.7410    -0.2679     0.0108
       140.    11.7570    -0.2481     0.0090
       140.    11.7650    -0.2355     0.0072
       140.    11.7750    -0.2175     0.0108
       140.    11.7850    -0.2067     0.0072
       140.    11.7980    -0.1888     0.0072
       140.    11.8090    -0.1708     0.0090
       140.    11.8190    -0.1582     0.0090
       140.    11.8320    -0.1312     0.0072
       140.    11.8500    -0.1312     0.0090
       140.    11.8630    -0.1276     0.0090
       140.    11.8710    -0.1078     0.0072
       140.    11.8840    -0.1240     0.0108
       140.    11.9020    -0.1096     0.0072
       140.    11.9180    -0.1132     0.0108
       140.    11.9330    -0.1168     0.0090
       140.    11.9440    -0.1348     0.0072
       140.    11.9540    -0.1546     0.0072
       140.    11.9640    -0.1869     0.0072
       140.    11.9720    -0.2157     0.0090
       140.    11.9850    -0.2121     0.0072
       140.    11.9930    -0.1851     0.0072
       140.    12.0160    -0.1546     0.0054
       140.    12.0240    -0.1258     0.0090
       140.    12.0400    -0.1168     0.0090
       140.    12.0550    -0.1024     0.0108
       140.    12.0660    -0.1006     0.0108
       140.    12.0790    -0.0844     0.0090
       140.    12.0940    -0.0700     0.0072
       140.    12.1100    -0.0610     0.0090
       140.    12.1230    -0.0880     0.0072
       140.    12.1330    -0.1456     0.0090
       140.    12.1490    -0.2571     0.0072
       140.    12.1590    -0.3164     0.0072
       140.    12.1770    -0.3326     0.0072
       140.    12.1850    -0.2858     0.0090
       140.    12.1930    -0.2337     0.0090
       140.    12.2010    -0.1384     0.0090
       140.    12.2080    -0.0844     0.0072
       140.    12.2210    -0.0359     0.0072
       140.    12.2320    -0.0287     0.0072
       140.    12.2370    -0.0538     0.0072
       140.    12.2450    -0.0664     0.0072
       140.    12.2600    -0.0664     0.0072
       140.    12.2680    -0.0952     0.0072
       140.    12.2780    -0.1078     0.0090
       140.    12.2890    -0.1312     0.0072
       140.    12.3020    -0.1563     0.0090
       140.    12.3090    -0.1761     0.0090
       140.    12.3220    -0.2121     0.0090
       140.    12.3330    -0.2427     0.0090
       170.     9.4477    -0.0145     0.0052
       170.     9.4888    -0.0066     0.0077
       170.     9.5302    -0.0102     0.0052
       170.     9.5765    -0.0061     0.0065
       170.     9.6077    -0.0189     0.0065
       170.     9.6489    -0.0148     0.0052
       170.     9.6928    -0.0146     0.0077
       170.     9.7312    -0.0002     0.0064
       170.     9.7675    -0.0078     0.0065
       170.     9.8059     0.0053     0.0065
       170.     9.8343     0.0068     0.0039
       170.     9.8522     0.0107     0.0039
       170.     9.8625     0.0134     0.0039
       170.     9.8702     0.0173     0.0039
       170.     9.8778     0.0238     0.0052
       170.     9.8855     0.0264     0.0039
       170.     9.9008     0.0355     0.0052
       170.     9.9136     0.0369     0.0052
       170.     9.9237     0.0511     0.0065
       170.     9.9313     0.0563     0.0052
       170.     9.9364     0.0615     0.0052
       170.     9.9463     0.0809     0.0065
       170.     9.9540     0.0861     0.0052
       170.     9.9635     0.1262     0.0039
       170.     9.9733     0.1508     0.0039
       170.     9.9847     0.2258     0.0039
       170.     9.9920     0.2491     0.0065
       170.    10.0060     0.3021     0.0077
       170.    10.0070     0.4132     0.0077
       170.    10.0110     0.4520     0.0077
       170.    10.0180     0.5205     0.0090
       170.    10.0250     0.5554     0.0103
       170.    10.0290     0.5890     0.0103
       170.    10.0360     0.5051     0.0077
       170.    10.0440     0.3591     0.0090
       170.    10.0500     0.3437     0.0091
       170.    10.0570     0.2145     0.0090
       170.    10.0700     0.1048     0.0052
       170.    10.0780     0.0790     0.0065
       170.    10.0890     0.0351     0.0077
       170.    10.1180    -0.0073     0.0064
       170.    10.1470    -0.0279     0.0091
       170.    10.1890    -0.0509     0.0078
       170.    10.2510    -0.0454     0.0091
       170.    10.3460    -0.0411     0.0078
       170.    10.4310    -0.0303     0.0090
       170.    10.4670    -0.0495     0.0077
       170.    10.4880    -0.0520     0.0103
       170.    10.5090    -0.0623     0.0103
       170.    10.5270    -0.0660     0.0090
       170.    10.5460    -0.0866     0.0116
       170.    10.5560    -0.0995     0.0090
       170.    10.5640    -0.1085     0.0052
       170.    10.5720    -0.1394     0.0129
       170.    10.5810    -0.1678     0.0129
       170.    10.5940    -0.1975     0.0129
       170.    10.6020    -0.1987     0.0116
       170.    10.6120    -0.1883     0.0103
       170.    10.6220    -0.1612     0.0090
       170.    10.6290    -0.1456     0.0078
       170.    10.6420    -0.1210     0.0065
       170.    10.6490    -0.0951     0.0064
       170.    10.6590    -0.0861     0.0065
       170.    10.6720    -0.0718     0.0077
       170.    10.6790    -0.0717     0.0052
       170.    10.6870    -0.0562     0.0065
       170.    10.6970    -0.0600     0.0078
       170.    10.7100    -0.0458     0.0065
       170.    10.7230    -0.0522     0.0077
       170.    10.7360    -0.0508     0.0077
       170.    10.7510    -0.0481     0.0091
       170.    10.7690    -0.0442     0.0129
       170.    10.7800    -0.0557     0.0077
       170.    10.8030    -0.0466     0.0064
       170.    10.8100    -0.0414     0.0052
       170.    10.8210    -0.0375     0.0077
       170.    10.8410    -0.0412     0.0065
       170.    10.8620    -0.0450     0.0064
       170.    10.8800    -0.0462     0.0077
       170.    10.9010    -0.0448     0.0065
       170.    10.9240    -0.0357     0.0077
       170.    10.9420    -0.0394     0.0064
       170.    10.9650    -0.0264     0.0065
       170.    10.9830    -0.0315     0.0065
       170.    11.0010    -0.0211     0.0065
       170.    11.0210    -0.0145     0.0065
       170.    11.0370    -0.0041     0.0039
       170.    11.0490     0.0192     0.0052
       170.    11.0640     0.0412     0.0052
       170.    11.0720     0.0568     0.0039
       170.    11.0870     0.0685     0.0052
       170.    11.1030     0.0492     0.0064
       170.    11.1160     0.0492     0.0065
       170.    11.1210     0.0338     0.0052
       170.    11.1340     0.0222     0.0052
       170.    11.1420     0.0132     0.0039
       170.    11.1530    -0.0022     0.0051
       170.    11.1630     0.0004     0.0052
       170.    11.1730     0.0004     0.0039
       170.    11.1790    -0.0112     0.0052
       170.    11.1890    -0.0085     0.0065
       170.    11.2020    -0.0136     0.0052
       170.    11.2250    -0.0213     0.0077
       170.    11.2380    -0.0251     0.0077
       170.    11.2490    -0.0250     0.0065
       170.    11.2590    -0.0301     0.0065
       170.    11.2690    -0.0185     0.0064
       170.    11.2790    -0.0042     0.0039
       170.    11.2920     0.0230     0.0052
       170.    11.2990     0.0424     0.0065
       170.    11.3120     0.0438     0.0065
       170.    11.3220     0.0451     0.0052
       170.    11.3300     0.0103     0.0065
       170.    11.3410     0.0039     0.0052
       170.    11.3540    -0.0219     0.0052
       170.    11.3620    -0.0361     0.0065
       170.    11.3700    -0.0567     0.0039
       170.    11.3840    -0.0773     0.0039
       170.    11.3920    -0.0992     0.0052
       170.    11.4030    -0.1211     0.0052
       170.    11.4140    -0.1573     0.0064
       170.    11.4280    -0.2153     0.0077
       170.    11.4310    -0.2230     0.0052
       170.    11.4390    -0.2566     0.0090
       170.    11.4560    -0.1919     0.0077
       170.    11.4620    -0.1351     0.0077
       170.    11.4730    -0.0472     0.0052
       170.    11.4880     0.0033     0.0077
       170.    11.4960     0.0137     0.0065
       170.    11.5030     0.0434     0.0065
       170.    11.5130     0.0460     0.0052
       170.    11.5230     0.0706     0.0052
       170.    11.5310     0.0629     0.0065
       170.    11.5430     0.0811     0.0052
       170.    11.5510     0.0734     0.0052
       170.    11.5660     0.0863     0.0091
       170.    11.5820     0.0864     0.0078
       170.    11.5950     0.0684     0.0065
       170.    11.6080     0.0646     0.0077
       170.    11.6130     0.0543     0.0065
       170.    11.6230     0.0673     0.0052
       170.    11.6340     0.0789     0.0052
       170.    11.6460     0.0829     0.0052
       170.    11.6620     0.0881     0.0052
       170.    11.6670     0.0700     0.0052
       170.    11.6800     0.0637     0.0091
       170.    11.6970     0.0211     0.0065
       170.    11.7050     0.0069     0.0065
       170.    11.7110    -0.0486     0.0091
       170.    11.7250    -0.0937     0.0116
       170.    11.7320    -0.0756     0.0077
       170.    11.7420    -0.0329     0.0090
       170.    11.7580     0.0227     0.0090
       170.    11.7640     0.0189     0.0103
       170.    11.7740     0.0422     0.0077
       170.    11.7810     0.0370     0.0077
       170.    11.7940     0.0448     0.0077
       170.    11.8070     0.0488     0.0077
       170.    11.8250     0.0502     0.0077
       170.    11.8400     0.0541     0.0052
       170.    11.8560     0.0581     0.0077
       170.    11.8740     0.0620     0.0065
       170.    11.8840     0.0466     0.0065
       170.    11.9000     0.0505     0.0065
       170.    11.9150     0.0687     0.0065
       170.    11.9310     0.0584     0.0052
       170.    11.9490     0.0236     0.0090
       170.    11.9600     0.0147     0.0077
       170.    11.9730     0.0031     0.0065
       170.    11.9860     0.0174     0.0078
       170.    11.9900     0.0316     0.0077
       170.    11.9980     0.0446     0.0090
       170.    12.0060     0.0459     0.0077
       170.    12.0210     0.0589     0.0077
       170.    12.0360     0.0628     0.0103
       170.    12.0470     0.0538     0.0090
       170.    12.0520     0.0629     0.0077
       170.    12.0720     0.0720     0.0064
       170.    12.0900     0.0851     0.0065
       170.    12.1130     0.0942     0.0077
       170.    12.1300     0.0439     0.0078
       170.    12.1350     0.0091     0.0065
       170.    12.1460    -0.0283     0.0052
       170.    12.1600    -0.0477     0.0052
       170.    12.1720    -0.0334     0.0065
       170.    12.1820    -0.0101     0.0065
       170.    12.1900     0.0055     0.0065
       170.    12.2050     0.0210     0.0052
       170.    12.2150     0.0327     0.0065
       170.    12.2300     0.0328     0.0077
       170.    12.2360     0.0212     0.0091
       170.    12.2560     0.0200     0.0077
       170.    12.2590     0.0084     0.0091
       170.    12.2750    -0.0109     0.0052
       170.    12.2830    -0.0044     0.0052
       170.    12.2930    -0.0160     0.0052
       170.    12.3060    -0.0327     0.0078
       170.    12.3140    -0.0366     0.0103
       170.    12.3270    -0.0507     0.0091
       170.    12.3300    -0.0559     0.0052
ENDDATA            399
ENDSUBENT          410
SUBENT        O2391004   20191128   20200302   20200301       O073
BIB                  2          4
REACTION   (56-BA-138(P,INL)56-BA-138,PAR,DA)
             The first 2+ collective state at an excitation energy
            E = 1.436 MeV
STATUS     (CURVE) figs 4,5 from Nucl.Phys.,A501(1989)513
ENDBIB               4
COMMON               3          3
E-LVL      EN-ERR-DIG ERR-DIG
MEV        MEV        MU-B/SR
  1.436     0.0015        2.12
ENDCOMMON            3
DATA                 4        374
ANG        EN         DATA       DATA-ERR
ADEG       MEV        MU-B/SR    MU-B/SR
       140.     9.7658     106.76      12.76
       140.     9.8047      91.66      10.21
       140.     9.8539     104.67       7.67
       140.     9.8901     112.51       7.65
       140.     9.9287     156.09      12.77
       140.     9.9338     173.98      10.22
       140.     9.9440     204.65      12.77
       140.     9.9515     248.06      10.21
       140.     9.9613     352.72      12.76
       140.     9.9712     439.53      15.31
       140.     9.9830     664.12      20.41
       140.     9.9853     722.82      25.51
       140.     9.9903     748.36      28.07
       140.     10.005     883.66      30.62
       140.     10.010     888.79      10.21
       140.     10.010     865.83      30.62
       140.     10.019     733.20      25.51
       140.     10.019     761.26      40.80
       140.     10.024     666.89      33.16
       140.     10.032     628.66      20.40
       140.     10.035     582.74      25.50
       140.     10.041     513.88      15.31
       140.     10.054     452.72      15.29
       140.     10.062     391.52      15.32
       140.     10.070     355.84      22.95
       140.     10.078     330.37      17.85
       140.     10.083     315.09      17.85
       140.     10.115     261.67      12.76
       140.     10.146     241.42      15.29
       140.     10.187     218.67      12.74
       140.     10.247     183.26      10.21
       140.     10.346     188.88      12.76
       140.     10.429     191.86      12.74
       140.     10.465     204.81      10.21
       140.     10.488     222.79      12.76
       140.     10.506     233.09      12.74
       140.     10.526     299.54      15.32
       140.     10.539     345.53      20.41
       140.     10.554     429.81      20.43
       140.     10.564     488.55      22.95
       140.     10.574     588.10      30.62
       140.     10.586     792.29      38.28
       140.     10.595     993.90      48.48
       140.     10.607    1241.50      58.68
       140.     10.619    1425.20      66.35
       140.     10.623    1557.90      73.99
       140.     10.633    1611.60      76.56
       140.     10.644    1545.30      73.98
       140.     10.653    1405.00      66.34
       140.     10.664    1216.20      58.68
       140.     10.672    1104.00      53.57
       140.     10.681    1002.00      48.45
       140.     10.689     910.19      45.90
       140.     10.697     849.00      38.26
       140.     10.705     762.29      40.78
       140.     10.711     711.29      35.72
       140.     10.724     639.92      30.60
       140.     10.740     586.42      28.04
       140.     10.743     558.37      28.05
       140.     10.756     517.61      25.51
       140.     10.774     487.09      30.60
       140.     10.798     428.53      22.95
       140.     10.816     415.86      22.95
       140.     10.837     382.80      20.38
       140.     10.855     365.04      17.86
       140.     10.876     365.15      20.40
       140.     10.897     332.09      17.86
       140.     10.915     332.18      17.86
       140.     10.936     316.98      15.31
       140.     10.956     347.71      17.86
       140.     10.974     350.35      17.86
       140.     10.992     363.20      17.87
       140.     11.016     368.43      20.41
       140.     11.026     475.64      17.86
       140.     11.036     493.56      15.31
       140.     11.046     603.32      17.86
       140.     11.058     685.03      17.85
       140.     11.065     789.68      25.51
       140.     11.075     873.93      25.51
       140.     11.085     914.81      25.53
       140.     11.096     843.42      43.36
       140.     11.106     886.85      28.07
       140.     11.114     840.97      22.95
       140.     11.125     744.07      22.96
       140.     11.133     687.98      20.41
       140.     11.144     596.18      17.86
       140.     11.160     540.13      15.29
       140.     11.168     529.96      12.74
       140.     11.176     481.53      17.86
       140.     11.184     456.05      15.32
       140.     11.197     443.36      25.50
       140.     11.220     433.28      20.41
       140.     11.233     402.73      22.95
       140.     11.251     374.76      20.40
       140.     11.270     372.30      17.86
       140.     11.285     385.14      22.96
       140.     11.298     431.13      25.53
       140.     11.305     459.24      22.96
       140.     11.315     530.73      25.53
       140.     11.326     556.30      28.08
       140.     11.336     541.05      25.53
       140.     11.349     569.18      20.41
       140.     11.362     599.87      17.89
       140.     11.369     638.18      17.87
       140.     11.374     658.62      22.96
       140.     11.382     719.89      25.53
       140.     11.397     839.89      28.11
       140.     11.403    1016.00      38.28
       140.     11.420    1268.70      43.40
       140.     11.425    1358.00      45.94
       140.     11.438    1432.00      48.46
       140.     11.448    1363.20      43.36
       140.     11.457    1256.10      43.37
       140.     11.468    1090.30      38.26
       140.     11.484     924.54      35.71
       140.     11.487     878.63      30.62
       140.     11.498     825.11      28.05
       140.     11.506     771.57      25.50
       140.     11.517     707.84      25.51
       140.     11.532     667.09      28.05
       140.     11.545     664.61      22.96
       140.     11.566     669.82      20.41
       140.     11.584     682.67      28.07
       140.     11.594     705.69      22.95
       140.     11.610     756.80      28.08
       140.     11.614     823.16      28.05
       140.     11.629     968.68      35.73
       140.     11.639    1014.70      35.73
       140.     11.652    1124.40      40.84
       140.     11.656    1198.50      40.81
       140.     11.674    1349.10      48.49
       140.     11.676    1479.20      53.58
       140.     11.690    1719.10      56.13
       140.     11.697    1780.40      45.93
       140.     11.705    1744.70      58.67
       140.     11.714    1591.70      53.59
       140.     11.725    1436.10      48.48
       140.     11.739    1290.70      43.37
       140.     11.750    1186.20      40.81
       140.     11.758    1043.30      38.26
       140.     11.766    1017.90      35.73
       140.     11.777     877.59      33.17
       140.     11.788     773.04      25.50
       140.     11.799     640.42      20.40
       140.     11.810     579.24      17.85
       140.     11.818     515.49      22.96
       140.     11.829     479.83      20.41
       140.     11.844     477.36      17.86
       140.     11.860     469.79      17.86
       140.     11.870     459.63      15.31
       140.     11.880     513.27      20.40
       140.     11.890     546.49      20.41
       140.     11.901     584.82      20.43
       140.     11.911     674.17      22.98
       140.     11.920     763.52      25.51
       140.     11.931     763.58      25.50
       140.     11.939     684.52      25.51
       140.     11.950     625.90      20.40
       140.     11.960     562.16      20.40
       140.     11.974     501.00      15.29
       140.     11.984     478.09      15.31
       140.     11.997     447.54      17.85
       140.     12.018     409.38      25.50
       140.     12.031     399.24      12.76
       140.     12.047     396.77      17.85
       140.     12.060     396.83      20.41
       140.     12.073     404.56      12.74
       140.     12.083     414.82      15.31
       140.     12.093     417.42      15.29
       140.     12.104     432.78      15.31
       140.     12.116     463.47      17.85
       140.     12.126     529.86      22.96
       140.     12.127     481.38      17.85
       140.     12.139     491.66      20.40
       140.     12.158     499.40      20.41
       140.     12.173     433.15      17.85
       140.     12.178     486.76      15.31
       140.     12.186     458.73      17.86
       140.     12.197     361.83      15.31
       140.     12.205     305.74      12.76
       140.     12.221     277.76      12.76
       140.     12.229     244.63      12.74
       140.     12.239     224.27      10.21
       170.     9.4492      60.31      15.34
       170.     9.4879      56.84      11.50
       170.     9.5318      53.41      11.50
       170.     9.5756      61.49      11.50
       170.     9.6090      77.14      11.50
       170.     9.6503      62.19      11.50
       170.     9.6941      70.26      15.31
       170.     9.7303      59.10      15.34
       170.     9.7690      55.62      11.50
       170.     9.8051      52.13      15.34
       170.     9.8567      33.44      15.34
       170.     9.8928      37.61      11.50
       170.     9.9313      68.64       7.67
       170.     9.9491     145.50      15.34
       170.     9.9540     191.56      11.50
       170.     9.9687     371.92      19.15
       170.     9.9761     467.85      19.17
       170.     9.9875     824.57      26.82
       170.     9.9922     931.98      30.68
       170.     10.004    1189.00      76.64
       170.     10.017    1254.30      42.20
       170.     10.020    1158.50      53.66
       170.     10.025    1089.50      30.68
       170.     10.028     982.16      46.04
       170.     10.036     955.39      34.48
       170.     10.042     817.40      38.34
       170.     10.044     756.08      26.82
       170.     10.055     706.33      26.82
       170.     10.063     629.71      30.68
       170.     10.071     576.10      15.36
       170.     10.087     507.23      19.17
       170.     10.092     468.93      23.01
       170.     10.118     365.64      19.17
       170.     10.149     327.59      19.20
       170.     10.191     289.63      19.15
       170.     10.253     251.86      11.48
       170.     10.351     237.44      15.34
       170.     10.431     242.02      15.34
       170.     10.469     276.89      19.20
       170.     10.490     300.09      19.17
       170.     10.510     327.12      15.34
       170.     10.531     400.17      19.17
       170.     10.546     461.66      19.17
       170.     10.563     576.86      30.70
       170.     10.573     730.33      34.51
       170.     10.583     899.14      38.34
       170.     10.592    1175.30      49.85
       170.     10.604    1440.00      65.18
       170.     10.612    1858.00      88.17
       170.     10.624    2149.60      95.86
       170.     10.634    2303.10     103.55
       170.     10.644    2356.80     103.50
       170.     10.652    2222.70      92.05
       170.     10.661    1988.90      88.22
       170.     10.672    1739.70      80.50
       170.     10.681    1528.90      65.16
       170.     10.692    1310.50      61.35
       170.     10.703    1126.50      53.68
       170.     10.714    1003.90      46.01
       170.     10.722     931.12      46.01
       170.     10.733     820.02      34.51
       170.     10.743     808.61      38.34
       170.     10.751     728.16      34.51
       170.     10.764     697.60      38.32
       170.     10.772     651.66      30.68
       170.     10.782     621.08      26.84
       170.     10.803     605.94      26.84
       170.     10.824     544.78      26.84
       170.     10.842     491.27      23.03
       170.     10.863     441.61      19.17
       170.     10.884     453.31      19.17
       170.     10.904     430.50      19.17
       170.     10.925     400.01      19.17
       170.     10.943     415.52      19.20
       170.     10.964     408.04      19.20
       170.     10.984     427.41      19.20
       170.     11.002     454.42      19.20
       170.     11.025     477.64      23.01
       170.     11.032     726.95      30.65
       170.     11.045     700.23      23.01
       170.     11.052     895.85      26.84
       170.     11.065     926.65      23.01
       170.     11.075    1064.80      30.68
       170.     11.082    1183.70      30.68
       170.     11.092    1245.20      30.68
       170.     11.105    1126.40      53.68
       170.     11.110    1207.00      30.70
       170.     11.121    1149.60      34.51
       170.     11.132     965.61      30.68
       170.     11.142     900.53      23.03
       170.     11.151     735.72      19.20
       170.     11.164     685.99      19.20
       170.     11.174     632.41      15.34
       170.     11.185     609.50      26.86
       170.     11.195     582.75      26.82
       170.     11.203     559.82      26.84
       170.     11.224     510.17      26.79
       170.     11.237     548.63      26.84
       170.     11.255     533.46      26.82
       170.     11.265     564.23      26.82
       170.     11.275     614.18      26.84
       170.     11.285     648.78      26.82
       170.     11.292     729.37      38.34
       170.     11.302     813.83      34.51
       170.     11.313     840.76      38.34
       170.     11.321     756.48      34.51
       170.     11.334     683.75      30.68
       170.     11.344     649.33      34.48
       170.     11.355     618.76      15.34
       170.     11.365     672.53      26.84
       170.     11.368     618.88      23.01
       170.     11.383     684.20      26.84
       170.     11.395     784.02      23.01
       170.     11.405     933.66      30.68
       170.     11.412    1175.30      38.34
       170.     11.426    1589.60      57.52
       170.     11.430    1674.00      34.48
       170.     11.440    1938.60      61.37
       170.     11.453    1892.70      61.35
       170.     11.461    1735.60      49.87
       170.     11.472    1486.50      49.87
       170.     11.488    1337.10      46.01
       170.     11.494    1248.90      42.18
       170.     11.505    1160.80      38.32
       170.     11.515    1061.20      34.51
       170.     11.526     999.97      26.84
       170.     11.534     950.20      30.68
       170.     11.544     927.29      26.84
       170.     11.555     927.38      26.84
       170.     11.565     958.15      30.68
       170.     11.575     958.25      30.70
       170.     11.585     992.85      34.51
       170.     11.595    1031.30      38.34
       170.     11.608    1104.30      38.34
       170.     11.613    1165.70      42.15
       170.     11.628    1319.20      46.01
       170.     11.635    1476.50      49.82
       170.     11.652    1787.20      57.54
       170.     11.661    2067.20      72.88
       170.     11.665    2163.10      72.88
       170.     11.677    2420.20      84.38
       170.     11.684    2573.60      76.71
       170.     11.694    2719.40      65.18
       170.     11.705    2619.80      76.71
       170.     11.716    2447.40      84.33
       170.     11.730    2179.10      72.83
       170.     11.736    1968.20      65.21
       170.     11.747    1765.10      57.49
       170.     11.756    1535.10      53.68
       170.     11.764    1481.50      53.68
       170.     11.775    1282.20      42.18
       170.     11.786     987.06      30.68
       170.     11.798     726.42      22.98
       170.     11.809     534.80      19.17
       170.     11.820     435.20      11.50
       170.     11.828     396.93      19.15
       170.     11.838     385.52      26.84
       170.     11.853     401.00      15.34
       170.     11.869     443.33      19.17
       170.     11.879     489.43      19.17
       170.     11.891     535.57      22.98
       170.     11.904     612.38      23.01
       170.     11.919     689.21      26.84
       170.     11.929     723.81      26.84
       170.     11.943     658.75      19.17
       170.     11.951     559.13      19.17
       170.     11.959     459.51      15.34
       170.     11.969     390.58      15.34
       170.     11.983     333.19      15.34
       170.     11.991     291.08      15.31
       170.     12.001     264.34      15.34
       170.     12.022     245.36      11.50
       170.     12.029     237.76      11.50
       170.     12.042     245.55      15.34
       170.     12.055     241.84       7.67
       170.     12.070     276.49      30.68
       170.     12.086     307.31      23.03
       170.     12.101     376.47      15.34
       170.     12.109     407.22      11.50
       170.     12.126     480.24      19.17
       170.     12.139     545.55      19.20
       170.     12.147     495.77      19.17
       170.     12.163     430.73      19.20
       170.     12.168     469.12      19.17
       170.     12.183     404.08      15.36
       170.     12.184     331.23      15.34
       170.     12.194     346.66      11.53
       170.     12.205     273.91      11.53
       170.     12.213     189.62      15.34
       170.     12.231     147.61      11.50
       170.     12.249     151.61      11.50
ENDDATA            376
ENDSUBENT          389
ENDENTRY             4
