ENTRY            41548   20111019   20111215   20111212       4154
SUBENT        41548001   20111019   20111215   20111212       4154
BIB                 11         24
REFERENCE  ((S,ISINN-8,334,2000)=(S,JINR-E3-2000-192,2000))
           ((S,ISINN-7,158,1999)=(S,JINR-E3-98-212,158,1999))
            Preliminary results.
AUTHOR     (S.B.Borzakov, H.Faikov-Stanczyk, Ts.Ts.Panteleev,
           S.A.Telezhnikov, Yu.V.Grigoriev, L.M.Smotritsky,
           B.P.Konstantinov)
TITLE       Gamma-ray transitions of Sn-118 observed in radiative
           capture of thermal neutrons.
INSTITUTE  (4ZZZDUB) S.B.Borzakov, H.Faikov-Stanczyk,
           Ts.Ts.Panteleev, S.A.Telezhnikov
           (4RUSFEI) Yu.V.Grigoriev
           (4RUSLIN) L.M.Smotritsky, B.P.Konstantinov
REL-REF    (R,,B.Krusche+,J,NP/A,386,245,1982)
FACILITY   (REAC,4ZZZDUB) IBR-2 pulsed reactor.
INC-SOURCE (REAC) Mirror guide at flight path 6b of IBR-2.
            Distance from active zone - 34 m.
INC-SPECT   Neutron flux on the sample 3.E+6 n/cm**2/sec.
SAMPLE       400 g metallic tin enriched in Sn-117 to 88 %.
DETECTOR   (HPGE) 72 cm**3 HPGe detector to register gamma-rays.
            Efficiency was determined by Cl(n,g) reaction using
           intensities from REL-REF of Krusche+.
HISTORY    (20101202C)
           (20111019A) E-LVL-INI/FIN -> LVL-INI/FIN.
             Mistakes in headings were corrected.
ENDBIB              24
NOCOMMON             0          0
ENDSUBENT           27
SUBENT        41548002   20111019   20111215   20111212       4154
BIB                  3          5
REACTION   (50-SN-117(N,G)50-SN-118,,SPC,,SPA/REL) Gamma-intensity
           normalized using the sum of intensities of 14
           transitions on the ground state as 100%.
EN-SEC     (E,G)
STATUS     (TABLE) Table 1 of S,ISINN-8,334,2000
ENDBIB               5
COMMON               2          3
EN-MIN     EN-MAX
MILLI-EV   MILLI-EV
 3.         60.
ENDCOMMON            3
DATA                 6         78
E          E-ERR      DATA       DATA-ERR   LVL-INI    LVL-FIN
KEV        KEV        ARB-UNITS  ARB-UNITS  KEV        KEV
 683.014   0.662       0.16      0.03       2963.44    2280.34
 766.750   1.117       0.16      0.03       3048.35    2280.34
 813.130   0.019       9.18      0.92       2042.88    1229.66
 827.335   0.035       4.09      0.41       2056.91    1229.66
 859.586   0.989       0.21      0.04       3592.54    2733.78
 886.944   0.314       0.37      0.04       5379.40    4495.40
1050.480   0.032       4.25      0.43       2280.34    1229.66
1095.548   0.020       8.26      0.83       3374.60    2280.34
1098.864   0.026       5.44      0.54       2328.02    1229.66
1173.326   0.023       6.35      0.63       2403.22    1229.66
1182.406   0.526       0.32      0.06       3460.49    2280.34
1229.580   0.003      72.74      7.27       1229.67    0.
1259.152   0.569       0.17      0.03       2499.87    1229.66
1267.829   0.076       1.69      0.17       3753.85    2488.87
1300.192   0.342       0.47      0.05       3704.84    2403.22
1376.133   0.331       0.51      0.05       3704.84    2328.02
1384.057   0.953       0.18      0.04       3709.87    2328.02
1419.521   0.184       0.76      0.08       3460.49    2042.88
1447.737   0.163       1.69      0.17       2677.35    1229.66
1473.336   0.570       0.20      0.04       3753.85    2280.34
1508.377   0.048       4.04      0.40       2738.01    1229.66
1674.185   0.254       0.61      0.06       2903.87    1229.66
1699.355   0.241       0.70      0.07       2929.72    1229.66
1907.647   0.337       0.53      0.15       3137.48    1229.66
1997.732   0.252       0.54      0.11       3227.67    1229.66
2022.332   0.178       0.77      0.08       3252.03    1229.66
2042.977   0.141       7.95      0.80       2042.88    0.
2079.012   0.240       0.75      0.07       3308.54    1229.66
2125.173   0.191       1.00      0.20       3355.86    1229.66
2198.687   0.845       0.18      0.05       3427.11    1229.66
2310.667   0.302       0.71      0.07       3540.57    1229.66
2327.906   0.174       1.17      0.12       2328.02    0.
2465.151   1.066       0.27      0.14       3696.78    1229.66
2497.303   1.195       0.17      0.05       2496.88    0.
2532.188   0.183       1.22      0.12       3762.13    1229.66
2611.335   0.840       1.74      0.42       3838.88    1229.66
2670.339   0.476       0.41      0.08       3898.90    1229.66
2676.994   0.153       2.65      0.27       2677.35    0.
2739.125   0.525       1.19      0.12       2738.01    0.
2815.237   0.574       0.47      0.14       4044.60    1229.66
2878.570   0.186       0.53      0.20       4109.00    1229.66
2897.878   0.282       0.80      0.16       4126.70    1229.66
2903.917   0.172       2.92      0.29       2903.87    0.
3057.409   0.509       1.77      0.18       3057.22    0.
3228.748   0.376       1.50      0.15       3228.37    0.
3270.409   0.079       2.59      0.26       3270.67    0.
3941.934   0.856       0.45      0.09       3944.40    0.
4126.986   0.805       0.58      0.13       4126.70    0.
4145.251   0.846       0.33      0.07       9326.60    5126.60
4178.990   1.261       0.53      0.11       9326.60    5150.00
4318.620   0.302       0.44      0.23       9326.60    5006.00
4385.968   0.527       0.62      0.19       9326.60    4940.00
4495.643   0.581       0.60      0.12       9326.60    4932.00
4718.074   0.583       0.64      0.18       9326.60    4604.00
4790.097   0.456       0.66      0.07       9326.60    4540.00
4915.600   0.927       0.36      0.07       9326.60    4408.00
4960.300   0.879       0.43      0.16       9326.60    4365.00
4972.945   0.326       0.90      0.18       9326.60    4352.00
5014.463   0.237       0.79      0.16       9326.60    4313.00
5218.069   0.349       0.95      0.10       9326.60    4109.00
5437.948   0.371       0.42      0.16       9326.60    3889.00
5564.925   0.304       0.74      0.21       9326.60    3762.13
5683.050   1.057       0.17      0.04       9326.60    3643.00
5864.098   0.408       0.33      0.07       9326.60    3462.63
5971.831   0.434       0.70      0.07       9326.60    3355.86
6055.420   0.690       0.39      0.04       9326.60    3274.00
6097.754   0.887       0.33      0.07       9326.60    3231.00
6422.294   0.189       0.78      0.08       9326.60    2903.87
6587.652   0.925       0.20      0.04       9326.60    2738.01
6649.385   0.210       0.78      0.08       9326.60    2677.35
6791.638   1.666       0.07      0.02       9326.60    2530.00
6828.894   0.608       0.32      0.03       9326.60    2496.88
6988.639   1.439       0.17      0.03       6988.00    0.
6995.934   0.636       0.29      0.06       9326.60    2328.02
7268.689   0.362       0.35      0.04       9326.60    2056.91
7280.080   1.356       0.12      0.04       9326.60    2042.88
8096.043   0.346       0.24      0.02       9326.60    1229.66
9326.201   0.066       4.15      0.41       9326.60    0.
ENDDATA             80
ENDSUBENT           94
ENDENTRY             2
