ENTRY            14848   20250418   20250605   20250605       1518
SUBENT        14848001   20250418   20250605   20250605       1518
BIB                 10         25
TITLE      Total Neutron Cross Section Measurements of 10B and 11B
AUTHOR     (O.A.Wasson,A.D.Carlson,R.A.Schrack,J.A.Harvey,
           N.W.Hill)
REFERENCE  (C,94GATLIN,1,50,1994)
INSTITUTE  (1USANIS,1USAORL)
FACILITY   (LINAC,1USAORL) The Oak Ridge Electron Linear
           Accelerator (ORELA).
INC-SPECT  The energy region extended from about 0.1 to 20 MeV
           using 80 m & 200 m flight paths and 10 ns electron beam
           width. The 2.3 cm diameter neutron beam was
           collimated to originate from tantalum portion of the
           target in order to reduce the gamma ray background
           produced in the water moderator.
DETECTOR   (SCIN) The neutron detector consisted of a 2.5 cm
           thick NE110 plastic scintillator.
SAMPLE     Two samples were contained in 3.2
           cm diameter cylindrical holders with 0.5 cm thick
           tantalum end caps. The thickness in each sample of
           10B (0.2355 and 0.2349 atoms per barn)
           was determined
           from the dimensions of the precisely matched holder,
           the chemical analysis of the boron, and the weight of
           the material.
STATUS     (APRVD) Approved by A.D.Carlson on April 18, 2025.
HISTORY    (20250418C) BP
ENDBIB              25
NOCOMMON             0          0
ENDSUBENT           28
SUBENT        14848002   20250418   20250605   20250605       1518
BIB                  5         25
REACTION   (5-B-10(N,TOT),,SIG)
METHOD     (TOF) 80 m flight path. The boron and blank
            (including tantalum end caps) samples were measured
           at approximately 10 minute intervals. Typical
           measurements lasted several days. Two separate beam
           monitors were employed for fluence normalization.
           These data have been grouped in ~5% energy groups.
CORRECTION The maximum dead time correction was approximately
           60% for the 80 m measurements due to a longer data
           gate in the acquisition system. Because of this large
           correction at 80 m, additional measurements using
           thick iron filters in the beam were done at this
           distance. The maximum dead time correction was
           reduced to less than 0.3%, although only
           approximately 20 neutron energy windows between 20
           and 600 keV were available for analysis.
ERR-ANALYS (ERR-S) Statistical uncertainty.
           (ERR-SYS,0.4,0.5)
           (ERR-1) Sample uncertainties.
           (ERR-2) Areal density.
           (ERR-3) Background uncertainty, deadtime correction
           and measurement procedure.
STATUS     (TABLE,,O.A.Wasson,C,94GATLIN,1,50,1994) Data were
           provided by A.D.Carlson on April 17, 2025.
           (COREL,14848003) Data from 200 m.
ENDBIB              25
COMMON               3          3
ERR-1      ERR-2      ERR-3
PER-CENT   PER-CENT   PER-CENT
        0.3        0.2        0.2
ENDCOMMON            3
DATA                 3         90
EN         DATA       ERR-S
EV         B          B
0.98922E+07    1.506510.46841E-01
0.90764E+07    1.519290.42206E-01
0.83580E+07    1.567580.42413E-01
0.77219E+07    1.563690.39133E-01
0.71561E+07    1.581450.48468E-01
0.66504E+07    1.611560.46531E-01
0.61967E+07    1.509560.39870E-01
0.57419E+07    1.469550.38144E-01
0.52909E+07    1.487460.42215E-01
0.48912E+07    1.605120.41280E-01
0.45353E+07    1.791510.44106E-01
0.42169E+07    1.912090.44420E-01
0.39309E+07    1.698890.44318E-01
0.36734E+07    1.750720.42800E-01
0.34408E+07    1.765870.42518E-01
0.32092E+07    1.875730.38803E-01
0.29821E+07    2.228740.40916E-01
0.27783E+07    2.476230.42024E-01
0.25948E+07    2.264660.39584E-01
0.24289E+07    1.980640.36248E-01
0.22784E+07    1.911920.32182E-01
0.21311E+07    1.940630.29595E-01
0.19874E+07    2.077110.30322E-01
0.18572E+07    2.192190.29306E-01
0.17406E+07    2.287910.28566E-01
0.16341E+07    2.087830.27920E-01
0.15370E+07    1.893180.26660E-01
0.14426E+07    1.950660.24307E-01
0.13510E+07    2.032120.24187E-01
0.12678E+07    2.114250.23017E-01
0.11921E+07    2.198070.21728E-01
0.11226E+07    2.309010.22498E-01
0.10560E+07    2.431870.22442E-01
    991367.    2.552720.23247E-01
    932454.    2.705550.23399E-01
    878644.    2.797020.23154E-01
    826855.    2.919220.21227E-01
    777033.    3.156060.21572E-01
    731585.    3.205300.22404E-01
    690012.    3.358940.22962E-01
    650137.    3.587480.23610E-01
    611890.    3.786990.25140E-01
    576923.    4.012730.25573E-01
    543533.    4.200670.25196E-01
    511637.    4.402340.26079E-01
    482470.    4.484330.26744E-01
    455728.    4.570000.28146E-01
    430208.    4.607040.28347E-01
    405839.    4.673340.27904E-01
    383485.    4.720790.29662E-01
    362200.    4.822160.29284E-01
    341918.    4.853010.29989E-01
    322682.    4.889940.30728E-01
    304417.    4.958250.31991E-01
    287661.    4.974040.33874E-01
    271779.    4.957470.33150E-01
    256707.    5.071320.34558E-01
    242457.    5.030090.34708E-01
    228965.    5.105980.36399E-01
    216570.    5.049170.37625E-01
    204845.    5.097720.39408E-01
    193740.    5.081870.39459E-01
    183252.    5.121520.40135E-01
    173333.    5.008390.41157E-01
    163977.    5.010270.42539E-01
    155137.    4.946820.44093E-01
    146806.    4.943110.45286E-01
    138942.    4.930280.46598E-01
    131534.    4.916930.45487E-01
    124545.    4.923540.48037E-01
    117962.    4.914520.50468E-01
    111630.    4.826130.54254E-01
    105670.    4.918980.57218E-01
    100069.    4.837770.57546E-01
    94699.0    4.984480.56573E-01
    89653.5    4.934920.58692E-01
    84918.3    4.991250.59814E-01
    80390.2    4.902250.57471E-01
    76139.1    4.881350.59252E-01
    72151.8    4.897280.59824E-01
    68345.7    4.948470.62470E-01
    64718.7    5.052680.65697E-01
    61318.1    5.038600.66476E-01
    58131.9    5.070170.71836E-01
    55097.9    5.129740.75350E-01
    52212.5    4.956120.75248E-01
    49471.6    5.178240.77709E-01
    46870.6    5.237520.81996E-01
    44404.3    5.351460.87619E-01
    42067.9    5.212440.90168E-01
ENDDATA             92
ENDSUBENT          126
SUBENT        14848003   20250418   20250605   20250605       1518
BIB                  5         18
REACTION   (5-B-10(N,TOT),,SIG)
METHOD     (TOF) 200 m flight path. The boron and blank
            (including tantalum end caps) samples were measured
           at approximately 10 minute intervals. Typical
           measurements lasted several days. Two separate beam
           monitors were employed for fluence normalization.
           These data have been grouped in ~5% energy groups.
CORRECTION The maximum dead time correction for the 200 m
           measurement was approximately 7%.
ERR-ANALYS (ERR-S) Statistical uncertainty.
           (ERR-SYS,0.4,0.5)
           (ERR-1) Sample uncertainties.
           (ERR-2) Areal density.
           (ERR-3) Background uncertainty, deadtime correction
           and measurement procedure.
STATUS     (TABLE,,O.A.Wasson,C,94GATLIN,1,50,1994) Data were
           provided by A.D.Carlson on April 17, 2025.
           (COREL,14848002) Data from 80 m.
ENDBIB              18
COMMON               3          3
ERR-1      ERR-2      ERR-3
PER-CENT   PER-CENT   PER-CENT
        0.3        0.2        0.2
ENDCOMMON            3
DATA                 3         94
EN         DATA       ERR-S
EV         B          B
0.16024E+08    1.441950.19318E-01
0.15087E+08    1.454380.18268E-01
0.14230E+08    1.474990.17125E-01
0.13411E+08    1.459710.15404E-01
0.12630E+08    1.485870.14329E-01
0.11915E+08    1.489760.13277E-01
0.11235E+08    1.502380.11867E-01
0.10586E+08    1.498160.11124E-01
0.99929E+07    1.502830.99553E-02
0.94290E+07    1.491070.87057E-02
0.88925E+07    1.480100.84346E-02
0.84007E+07    1.513160.81461E-02
0.79340E+07    1.525830.71347E-02
0.74905E+07    1.542770.71038E-02
0.70833E+07    1.585350.73466E-02
0.66970E+07    1.577630.70000E-02
0.63302E+07    1.571940.68234E-02
0.59831E+07    1.520250.67759E-02
0.56542E+07    1.460820.68045E-02
0.53435E+07    1.495330.67943E-02
0.50497E+07    1.530260.68984E-02
0.47725E+07    1.642110.68824E-02
0.45110E+07    1.783650.69289E-02
0.42645E+07    1.874490.67730E-02
0.40319E+07    1.779780.66731E-02
0.38129E+07    1.644080.62849E-02
0.36064E+07    1.631480.61101E-02
0.34121E+07    1.754570.59594E-02
0.32290E+07    1.873090.59091E-02
0.30567E+07    2.108340.57449E-02
0.28944E+07    2.368350.56645E-02
0.27416E+07    2.471390.54650E-02
0.25949E+07    2.291300.48751E-02
0.24569E+07    2.064670.44847E-02
0.23273E+07    1.951640.41071E-02
0.22032E+07    1.921490.37889E-02
0.20866E+07    1.953510.35085E-02
0.19772E+07    2.080110.33513E-02
0.18727E+07    2.215790.31568E-02
0.17730E+07    2.292250.30905E-02
0.16795E+07    2.173030.29012E-02
0.15919E+07    1.984300.27100E-02
0.15084E+07    1.938750.26516E-02
0.14290E+07    1.960230.25767E-02
0.13536E+07    2.024010.25395E-02
0.12829E+07    2.102560.24924E-02
0.12167E+07    2.191860.25354E-02
0.11538E+07    2.274220.25000E-02
0.10941E+07    2.364920.24741E-02
0.10375E+07    2.462740.25955E-02
    983830.    2.570870.25620E-02
    932955.    2.675360.26013E-02
    884790.    2.792360.26549E-02
    839205.    2.908900.27338E-02
    796085.    3.031600.28487E-02
    755300.    3.163400.29368E-02
    716340.    3.302030.30656E-02
    679150.    3.448160.31859E-02
    644070.    3.605010.35888E-02
    610985.    3.771380.37968E-02
    579485.    3.943930.39063E-02
    549515.    4.130120.41384E-02
    521290.    4.309520.44302E-02
    494485.    4.459150.47176E-02
    469020.    4.569940.50875E-02
    444865.    4.620850.55727E-02
    421965.    4.670320.59197E-02
    400275.    4.704410.59368E-02
    379720.    4.736500.62836E-02
    360270.    4.807450.65566E-02
    341860.    4.854160.70185E-02
    324450.    4.905450.75360E-02
    307870.    4.965050.81960E-02
    292095.    5.001140.93644E-02
    277200.    5.022000.99997E-02
    263140.    5.051330.10384E-01
    249775.    5.054940.11072E-01
    237090.    5.087730.11826E-01
    225055.    5.095590.12761E-01
    213635.    5.100320.13662E-01
    202760.    5.050370.14940E-01
    192400.    5.043050.15690E-01
    182600.    5.019920.16949E-01
    173330.    5.042660.18332E-01
    164520.    4.977030.19900E-01
    156155.    4.955610.21474E-01
    148215.    4.920790.22991E-01
    140690.    4.918780.25340E-01
    133550.    4.915260.26478E-01
    126785.    4.858760.28174E-01
    120365.    4.941290.32808E-01
    114185.    4.908040.35954E-01
    108330.    4.852970.41231E-01
    102780.    4.832190.45032E-01
ENDDATA             96
ENDSUBENT          123
ENDENTRY             3
