ENTRY            22343   20121209   20130812   20130718       2234
SUBENT        22343001   20121209   20130812   20130718       2234
BIB                 11         18
INSTITUTE  (2JPNTOH)
REFERENCE  (S,JAERI-C-96-008,146,199511)  Graphs are given
AUTHOR     (D.Soda,S.Matsuyama,I.Masanobu,M.Baba,S.Iwasaki,
            N.Hirakawa)
TITLE       Measurements of double-differential neutron emission
            cross sections for 18 and 11.5 MeV neutrons
FACILITY   (DYNAM,2JPNTOH) Tohoku University 4.5 MV dynamitron
INC-SOURCE (D-T)  For 18 MeV incident neutrons
           (D-N15) For 11.5 MeV neutrons
METHOD     (TOF)   Combined single-TOF and double-TOF method
                   Flight path is 6 m
DETECTOR   (SCIN)  Long liquid scintillation counters NE123
MONITOR    .Absolute measurements
ERR-ANALYS (ERR-S)    Standard deviation
HISTORY    (19971010C)  + +  Compiled by S. M.
           (20030529A) Converted to new date formats, lower case.
           (20121209U) SD: Ref. on report was corrected
              (JAERI-96-008 -> JAERI-C-96-008).
ENDBIB              18
NOCOMMON             0          0
ENDSUBENT           21
SUBENT        22343002   20030529   20031222   20050926       0000
BIB                  4          4
REACTION   (83-BI-209(N,X)0-NN-1,,DA/DE)
SAMPLE      Metallic cylinders 3 cm diam, 5 cm height
STATUS     Data submitted on diskette by Masanobu, 1997/08.
HISTORY    (20030529A) Reaction corrected.
ENDBIB               4
COMMON               1          3
EN
MEV
   11.50000
ENDCOMMON            3
DATA                 5        205
ANG        E-MIN      E-MAX      DATA       ERR-S
ADEG       MEV        MEV        B/SR/MEV   B/SR/MEV
   30.00000    6.00000    6.20000 7.6692E-03 8.9664E-04
   30.00000    6.20000    6.40000 9.6611E-03 1.1032E-03
   30.00000    6.40000    6.60000 8.9555E-03 1.1196E-03
   30.00000    6.60000    6.80000 8.2907E-03 1.1079E-03
   30.00000    6.80000    7.00000 1.5105E-02 1.4434E-03
   30.00000    7.00000    7.20000 1.7416E-02 1.7010E-03
   30.00000    7.20000    7.40000 1.6554E-02 1.6743E-03
   30.00000    7.40000    7.60000 1.2442E-02 1.3901E-03
   30.00000    7.60000    7.80000 4.4528E-03 9.4206E-04
   30.00000    7.80000    8.00000 4.1070E-03 8.3231E-04
   30.00000    8.00000    8.20000 2.7066E-03 6.9639E-04
   30.00000    8.20000    8.40000 4.4971E-03 7.2380E-04
   30.00000    8.40000    8.60000 6.6230E-03 8.3577E-04
   30.00000    8.60000    8.80000 1.1138E-02 1.3706E-03
   30.00000    8.80000    9.00000 1.4070E-02 1.5190E-03
   30.00000    9.00000    9.20000 9.7597E-03 1.2311E-03
   30.00000    9.20000    9.40000 5.3469E-03 1.1539E-03
   30.00000    9.40000    9.60000 4.1643E-03 9.2407E-04
   30.00000    9.60000    9.80000 4.8165E-03 9.1154E-04
   30.00000    9.80000   10.00000 4.1045E-03 9.9732E-04
   30.00000   10.00000   10.20000 1.1995E-03 8.0830E-04
   30.00000   10.20000   10.40000 3.9047E-03 1.0059E-03
   30.00000   10.40000   10.60000 7.4798E-03 1.2731E-03
   30.00000   10.60000   10.80000 9.6814E-03 1.6456E-03
   30.00000   10.80000   11.00000 4.6044E-02 4.0414E-03
   30.00000   11.00000   11.20000 1.2298E-01 8.0606E-03
   30.00000   11.20000   11.40000 2.2669E-01 1.3341E-02
   30.00000   11.40000   11.60000 2.4385E-01 1.4323E-02
   30.00000   11.60000   11.80000 1.8523E-01 1.1187E-02
   30.00000   11.80000   12.00000 9.9096E-02 6.5376E-03
   30.00000   12.00000   12.20000 2.9907E-02 2.5276E-03
   30.00000   12.20000   12.40000 1.0396E-02 1.3002E-03
   30.00000   12.40000   12.60000 3.2571E-03 7.4744E-04
   45.00000    6.00000    6.20000 1.0554E-02 1.3004E-03
   45.00000    6.20000    6.40000 1.0987E-02 1.4013E-03
   45.00000    6.40000    6.60000 8.7419E-03 1.1685E-03
   45.00000    6.60000    6.80000 1.2068E-02 1.3696E-03
   45.00000    6.80000    7.00000 9.9614E-03 1.2988E-03
   45.00000    7.00000    7.20000 1.1109E-02 1.4083E-03
   45.00000    7.20000    7.40000 1.1104E-02 1.4857E-03
   45.00000    7.40000    7.60000 8.6718E-03 1.3679E-03
   45.00000    7.60000    7.80000 3.3341E-03 9.4384E-04
   45.00000    7.80000    8.00000 5.3131E-03 1.0240E-03
   45.00000    8.00000    8.20000 5.4914E-03 9.3091E-04
   45.00000    8.20000    8.40000 7.3928E-03 1.1225E-03
   45.00000    8.40000    8.60000 8.2672E-03 1.1239E-03
   45.00000    8.60000    8.80000 1.3648E-02 1.6807E-03
   45.00000    8.80000    9.00000 1.5439E-02 1.6251E-03
   45.00000    9.00000    9.20000 9.3267E-03 1.2039E-03
   45.00000    9.20000    9.40000 3.9783E-03 9.3916E-04
   45.00000    9.40000    9.60000 2.6904E-03 7.8284E-04
   45.00000    9.60000    9.80000 3.6688E-03 8.5794E-04
   45.00000    9.80000   10.00000 1.9270E-03 8.2453E-04
   45.00000   10.00000   10.20000 4.0089E-03 9.5132E-04
   45.00000   10.20000   10.40000 6.8696E-03 1.1961E-03
   45.00000   10.40000   10.60000 1.2520E-02 1.5460E-03
   45.00000   10.60000   10.80000 3.1852E-02 2.9739E-03
   45.00000   10.80000   11.00000 9.2319E-02 6.3930E-03
   45.00000   11.00000   11.20000 2.4655E-01 1.5167E-02
   45.00000   11.20000   11.40000 4.3793E-01 2.5963E-02
   45.00000   11.40000   11.60000 5.0919E-01 3.0412E-02
   45.00000   11.60000   11.80000 3.9391E-01 2.3762E-02
   45.00000   11.80000   12.00000 2.2187E-01 1.3857E-02
   45.00000   12.00000   12.20000 7.4785E-02 5.3759E-03
   45.00000   12.20000   12.40000 1.6677E-02 1.7515E-03
   45.00000   12.40000   12.60000 5.1964E-03 9.7192E-04
   60.00000    6.00000    6.20000 9.0804E-03 1.1586E-03
   60.00000    6.20000    6.40000 8.8178E-03 1.1072E-03
   60.00000    6.40000    6.60000 5.2821E-03 9.1726E-04
   60.00000    6.60000    6.80000 6.8950E-03 1.0484E-03
   60.00000    6.80000    7.00000 1.0282E-02 1.2509E-03
   60.00000    7.00000    7.20000 1.1333E-02 1.3254E-03
   60.00000    7.20000    7.40000 8.6692E-03 1.1261E-03
   60.00000    7.40000    7.60000 5.3829E-03 9.2523E-04
   60.00000    7.60000    7.80000 4.6571E-03 8.1880E-04
   60.00000    7.80000    8.00000 2.7761E-03 7.7328E-04
   60.00000    8.00000    8.20000 2.4889E-03 6.8299E-04
   60.00000    8.20000    8.40000 4.6010E-03 8.3877E-04
   60.00000    8.40000    8.60000 7.7338E-03 9.5152E-04
   60.00000    8.60000    8.80000 1.3753E-02 1.4827E-03
   60.00000    8.80000    9.00000 1.1355E-02 1.2349E-03
   60.00000    9.00000    9.20000 5.8465E-03 9.7587E-04
   60.00000    9.20000    9.60000 1.4560E-03 7.3013E-04
   60.00000    9.60000   10.00000 1.1209E-03 5.6491E-04
   60.00000   10.00000   10.20000 2.4913E-03 8.5446E-04
   60.00000   10.20000   10.40000 1.9551E-04 8.3981E-04
   60.00000   10.40000   10.60000 3.2633E-03 9.2264E-04
   60.00000   10.60000   10.80000 7.0329E-03 1.4208E-03
   60.00000   10.80000   11.00000 3.1031E-02 2.6930E-03
   60.00000   11.00000   11.20000 6.7686E-02 4.4710E-03
   60.00000   11.20000   11.40000 9.5117E-02 5.8778E-03
   60.00000   11.40000   11.60000 1.0555E-01 6.4813E-03
   60.00000   11.60000   11.80000 7.7523E-02 4.9712E-03
   60.00000   11.80000   12.00000 3.5801E-02 2.7138E-03
   60.00000   12.00000   12.20000 1.2877E-02 1.2731E-03
   60.00000   12.20000   12.40000 3.0224E-03 7.1041E-04
   60.00000   12.40000   12.60000 1.3121E-03 4.4989E-04
   90.00000     .60000    1.00000 8.7127E-02 1.4357E-02
   90.00000    1.00000    1.40000 1.0835E-01 1.5292E-02
   90.00000    1.40000    1.80000 1.0997E-01 1.4838E-02
   90.00000    1.80000    2.20000 8.1407E-02 1.1007E-02
   90.00000    2.20000    2.60000 5.8561E-02 8.0082E-03
   90.00000    2.60000    3.00000 3.8239E-02 5.3984E-03
   90.00000    3.00000    3.40000 2.7808E-02 4.0518E-03
   90.00000    3.40000    3.80000 1.7214E-02 2.7661E-03
   90.00000    3.80000    4.20000 1.1263E-02 2.1393E-03
   90.00000    4.20000    4.60000 1.1933E-02 2.0975E-03
   90.00000    4.60000    5.00000 7.8059E-03 1.7379E-03
   90.00000    5.00000    5.40000 7.4479E-03 1.5757E-03
   90.00000    5.40000    5.80000 4.9601E-03 1.3856E-03
   90.00000    5.80000    6.00000 3.8159E-03 1.3866E-03
   90.00000    6.00000    6.20000 5.9882E-03 7.9952E-04
   90.00000    6.20000    6.40000 5.3845E-03 7.7675E-04
   90.00000    6.40000    6.60000 5.7984E-03 8.3280E-04
   90.00000    6.60000    6.80000 4.0139E-03 7.3413E-04
   90.00000    6.80000    7.00000 6.4567E-03 8.3070E-04
   90.00000    7.00000    7.20000 6.0853E-03 8.6434E-04
   90.00000    7.20000    7.40000 6.7930E-03 9.0376E-04
   90.00000    7.40000    7.60000 4.6919E-03 7.3100E-04
   90.00000    7.60000    7.80000 2.7350E-03 5.8817E-04
   90.00000    7.80000    8.00000 1.4095E-03 5.3110E-04
   90.00000    8.00000    8.20000 3.2878E-03 6.9054E-04
   90.00000    8.20000    8.40000 3.0885E-03 6.0579E-04
   90.00000    8.40000    8.60000 5.5421E-03 7.3448E-04
   90.00000    8.60000    8.80000 8.6142E-03 1.0021E-03
   90.00000    8.80000    9.00000 6.2540E-03 8.9183E-04
   90.00000    9.00000    9.20000 4.8357E-03 7.5045E-04
   90.00000    9.20000    9.40000 1.5702E-03 5.8643E-04
   90.00000    9.40000    9.60000 4.0469E-04 5.1035E-04
   90.00000    9.60000    9.80000 8.9159E-04 5.6498E-04
   90.00000    9.80000   10.00000 4.0823E-04 4.9487E-04
   90.00000   10.00000   10.20000 1.5312E-03 6.5382E-04
   90.00000   10.20000   10.40000 5.4683E-04 6.2697E-04
   90.00000   10.40000   10.60000 2.9395E-04 6.7067E-04
   90.00000   10.60000   10.80000 2.8481E-03 7.5907E-04
   90.00000   10.80000   11.00000 1.1608E-02 1.3242E-03
   90.00000   11.00000   11.20000 2.5738E-02 2.0724E-03
   90.00000   11.20000   11.40000 3.1452E-02 2.3140E-03
   90.00000   11.40000   11.60000 3.1948E-02 2.4096E-03
   90.00000   11.60000   11.80000 2.2166E-02 1.8621E-03
   90.00000   11.80000   12.00000 1.0692E-02 1.1615E-03
   90.00000   12.00000   12.20000 3.3422E-03 5.9240E-04
   90.00000   12.20000   12.40000 4.3780E-04 4.0054E-04
  120.00000    6.00000    6.20000 3.7071E-03 6.3154E-04
  120.00000    6.20000    6.40000 5.2467E-03 6.7575E-04
  120.00000    6.40000    6.60000 4.6579E-03 6.3528E-04
  120.00000    6.60000    6.80000 2.9560E-03 5.6190E-04
  120.00000    6.80000    7.00000 4.1757E-03 6.7862E-04
  120.00000    7.00000    7.20000 4.9213E-03 7.1998E-04
  120.00000    7.20000    7.40000 4.0725E-03 6.7278E-04
  120.00000    7.40000    7.60000 1.8438E-03 5.6473E-04
  120.00000    7.60000    7.80000 1.6953E-03 5.1644E-04
  120.00000    7.80000    8.00000 3.3136E-04 3.9120E-04
  120.00000    8.00000    8.20000 1.8897E-03 4.6003E-04
  120.00000    8.20000    8.40000 1.9676E-03 5.2808E-04
  120.00000    8.40000    8.60000 3.4830E-03 7.2294E-04
  120.00000    8.60000    8.80000 4.1765E-03 6.9130E-04
  120.00000    8.80000    9.00000 2.2083E-03 6.9414E-04
  120.00000    9.00000    9.20000 1.6325E-03 5.4427E-04
  120.00000    9.20000    9.40000 1.7481E-03 5.5302E-04
  120.00000    9.40000    9.60000 6.6668E-04 4.9188E-04
  120.00000    9.60000    9.80000 9.8451E-04 5.1483E-04
  120.00000    9.80000   10.20000 1.2777E-04 4.9900E-04
  120.00000   10.20000   10.40000 4.6418E-04 5.8719E-04
  120.00000   10.40000   10.60000 1.6067E-03 6.5033E-04
  120.00000   10.60000   10.80000 2.6337E-03 8.9328E-04
  120.00000   10.80000   11.00000 1.0395E-02 1.3949E-03
  120.00000   11.00000   11.20000 2.0799E-02 1.9827E-03
  120.00000   11.20000   11.40000 2.4720E-02 2.2590E-03
  120.00000   11.40000   11.60000 2.4786E-02 2.0768E-03
  120.00000   11.60000   11.80000 1.5374E-02 1.5288E-03
  120.00000   11.80000   12.00000 6.8398E-03 9.1769E-04
  120.00000   12.00000   12.20000 1.7056E-03 4.7991E-04
  145.00000    6.00000    6.20000 3.6412E-03 5.4558E-04
  145.00000    6.20000    6.40000 2.1767E-03 5.2449E-04
  145.00000    6.40000    6.60000 2.6678E-03 5.5156E-04
  145.00000    6.60000    6.80000 2.7441E-03 5.3468E-04
  145.00000    6.80000    7.00000 3.5348E-03 5.4080E-04
  145.00000    7.00000    7.20000 2.0551E-03 5.1920E-04
  145.00000    7.20000    7.40000 1.6931E-03 5.3438E-04
  145.00000    7.40000    7.60000 2.3476E-03 4.9043E-04
  145.00000    7.60000    7.80000 1.0203E-03 4.0029E-04
  145.00000    7.80000    8.00000 4.7668E-04 4.5507E-04
  145.00000    8.00000    8.20000 7.8593E-04 5.3605E-04
  145.00000    8.20000    8.40000 2.6617E-03 6.2071E-04
  145.00000    8.40000    8.60000 5.1399E-03 7.0635E-04
  145.00000    8.60000    8.80000 3.9188E-03 6.6009E-04
  145.00000    8.80000    9.00000 1.7391E-03 6.1866E-04
  145.00000    9.00000    9.20000 1.2315E-03 4.6321E-04
  145.00000    9.20000    9.40000 4.7691E-04 4.1103E-04
  145.00000    9.40000    9.60000 3.2260E-04 5.1775E-04
  145.00000    9.60000    9.80000 3.5381E-04 5.0609E-04
  145.00000    9.80000   10.00000 6.4217E-04 4.9280E-04
  145.00000   10.00000   10.20000 4.8849E-04 5.2629E-04
  145.00000   10.20000   10.40000 2.2369E-04 5.4295E-04
  145.00000   10.40000   10.60000 1.1903E-03 6.8605E-04
  145.00000   10.60000   10.80000 4.3765E-03 9.8091E-04
  145.00000   10.80000   11.00000 9.4029E-03 1.3731E-03
  145.00000   11.00000   11.20000 1.8129E-02 1.8529E-03
  145.00000   11.20000   11.40000 2.3444E-02 2.0080E-03
  145.00000   11.40000   11.60000 1.8043E-02 1.6082E-03
  145.00000   11.60000   11.80000 7.5186E-03 8.9808E-04
  145.00000   11.80000   12.20000 2.3321E-03 4.9888E-04
  145.00000   12.20000   12.40000 9.3779E-04 3.1476E-04
  145.00000   12.40000   12.60000 6.4632E-04 2.9589E-04
ENDDATA            207
ENDSUBENT          220
SUBENT        22343003   20030529   20031222   20050926       0000
BIB                  3          3
REACTION   (29-CU-0(N,X)0-NN-1,,DA/DE)
STATUS     Data submitted on diskette by Masanobu, 1997/08/05.
HISTORY    (20030529A) Reaction corrected.
ENDBIB               3
COMMON               1          3
EN
MEV
   11.50000
ENDCOMMON            3
DATA                 5        265
ANG        E-MIN      E-MAX      DATA       ERR-S
ADEG       MEV        MEV        B/SR/MEV   B/SR/MEV
   30.00000    6.20000    6.40000 3.8296E-03 4.6788E-04
   30.00000    6.40000    6.60000 4.1240E-03 4.8953E-04
   30.00000    6.60000    6.80000 4.1147E-03 6.0902E-04
   30.00000    6.80000    7.00000 4.3420E-03 6.1296E-04
   30.00000    7.00000    7.20000 4.6558E-03 6.7973E-04
   30.00000    7.20000    7.40000 4.7161E-03 6.7987E-04
   30.00000    7.40000    7.60000 3.9396E-03 6.5442E-04
   30.00000    7.60000    7.80000 5.1071E-03 7.1826E-04
   30.00000    7.80000    8.00000 4.9052E-03 7.7274E-04
   30.00000    8.00000    8.20000 5.4086E-03 7.8288E-04
   30.00000    8.20000    8.40000 3.5474E-03 6.0583E-04
   30.00000    8.40000    8.60000 4.9474E-03 7.3570E-04
   30.00000    8.60000    8.80000 4.9655E-03 7.4573E-04
   30.00000    8.80000    9.00000 4.0990E-03 6.7552E-04
   30.00000    9.00000    9.20000 4.3196E-03 6.9823E-04
   30.00000    9.20000    9.40000 5.4025E-03 7.5743E-04
   30.00000    9.40000    9.60000 7.5840E-03 9.4866E-04
   30.00000    9.60000    9.80000 9.1695E-03 1.0647E-03
   30.00000    9.80000   10.00000 1.1411E-02 1.3078E-03
   30.00000   10.00000   10.20000 1.5521E-02 1.5951E-03
   30.00000   10.20000   10.40000 2.2671E-02 2.1547E-03
   30.00000   10.40000   10.60000 2.0765E-02 2.0537E-03
   30.00000   10.60000   10.80000 3.1589E-02 2.8794E-03
   30.00000   10.80000   11.00000 6.7625E-02 5.4706E-03
   30.00000   11.00000   11.20000 1.8763E-01 1.4065E-02
   30.00000   11.20000   11.40000 5.2380E-01 3.8026E-02
   30.00000   11.40000   11.60000 7.2787E-01 5.3530E-02
   30.00000   11.60000   11.80000 5.3494E-01 3.9510E-02
   30.00000   11.80000   12.00000 2.2954E-01 1.7335E-02
   30.00000   12.00000   12.20000 4.8804E-02 4.1617E-03
   30.00000   12.20000   12.40000 1.1679E-02 1.3642E-03
   30.00000   12.40000   12.60000 7.0470E-03 1.0173E-03
   37.50000    6.20000    6.40000 4.2763E-03 4.9205E-04
   37.50000    6.40000    6.60000 4.3141E-03 4.6814E-04
   37.50000    6.60000    6.80000 5.4189E-03 6.1111E-04
   37.50000    6.80000    7.00000 4.5965E-03 5.6015E-04
   37.50000    7.00000    7.20000 5.0538E-03 6.3655E-04
   37.50000    7.20000    7.40000 5.9914E-03 7.1844E-04
   37.50000    7.40000    7.60000 4.5859E-03 6.1380E-04
   37.50000    7.60000    7.80000 3.7034E-03 5.5978E-04
   37.50000    7.80000    8.00000 4.6223E-03 6.0821E-04
   37.50000    8.00000    8.20000 4.9199E-03 6.2099E-04
   37.50000    8.20000    8.40000 3.7625E-03 5.3215E-04
   37.50000    8.40000    8.60000 3.4549E-03 5.2649E-04
   37.50000    8.60000    8.80000 2.8902E-03 4.7332E-04
   37.50000    8.80000    9.00000 4.5537E-03 5.9288E-04
   37.50000    9.00000    9.20000 4.7725E-03 6.7482E-04
   37.50000    9.20000    9.40000 4.1229E-03 5.9111E-04
   37.50000    9.40000    9.60000 3.1768E-03 4.9014E-04
   37.50000    9.60000    9.80000 3.6026E-03 5.2567E-04
   37.50000    9.80000   10.00000 8.8498E-03 9.9554E-04
   37.50000   10.00000   10.20000 1.3672E-02 1.3683E-03
   37.50000   10.20000   10.40000 1.5160E-02 1.3637E-03
   37.50000   10.40000   10.60000 1.4533E-02 1.3440E-03
   37.50000   10.60000   10.80000 1.5953E-02 1.4068E-03
   37.50000   10.80000   11.00000 2.2630E-02 1.8914E-03
   37.50000   11.00000   11.20000 6.0729E-02 4.1589E-03
   37.50000   11.20000   11.40000 1.5957E-01 1.0006E-02
   37.50000   11.40000   11.60000 1.9915E-01 1.2040E-02
   37.50000   11.60000   11.80000 1.3826E-01 8.5055E-03
   37.50000   11.80000   12.00000 6.1379E-02 4.0066E-03
   37.50000   12.00000   12.20000 1.4734E-02 1.2455E-03
   37.50000   12.20000   12.40000 3.7002E-03 5.1332E-04
   37.50000   12.40000   12.60000 1.9420E-03 3.7206E-04
   45.00000    6.20000    6.40000 5.6594E-03 5.2108E-04
   45.00000    6.40000    6.60000 4.6113E-03 4.6909E-04
   45.00000    6.60000    6.80000 4.2527E-03 4.8517E-04
   45.00000    6.80000    7.00000 4.8064E-03 4.9621E-04
   45.00000    7.00000    7.20000 4.3512E-03 5.0267E-04
   45.00000    7.20000    7.40000 3.8233E-03 4.8412E-04
   45.00000    7.40000    7.60000 4.2079E-03 4.7470E-04
   45.00000    7.60000    7.80000 3.4981E-03 4.2404E-04
   45.00000    7.80000    8.00000 4.4406E-03 5.2425E-04
   45.00000    8.00000    8.20000 4.9894E-03 5.6230E-04
   45.00000    8.20000    8.40000 3.4852E-03 4.0097E-04
   45.00000    8.40000    8.60000 3.2365E-03 3.8812E-04
   45.00000    8.60000    8.80000 4.6352E-03 5.0020E-04
   45.00000    8.80000    9.00000 4.1373E-03 4.9481E-04
   45.00000    9.00000    9.20000 3.1731E-03 4.2036E-04
   45.00000    9.20000    9.40000 3.1825E-03 4.4283E-04
   45.00000    9.40000    9.60000 3.7156E-03 4.5456E-04
   45.00000    9.60000    9.80000 3.9675E-03 4.7344E-04
   45.00000    9.80000   10.00000 7.8049E-03 7.7765E-04
   45.00000   10.00000   10.20000 9.0693E-03 8.3185E-04
   45.00000   10.20000   10.40000 1.1229E-02 9.2114E-04
   45.00000   10.40000   10.60000 9.0509E-03 8.1224E-04
   45.00000   10.60000   10.80000 7.3126E-03 6.4061E-04
   45.00000   10.80000   11.00000 1.0066E-02 8.4738E-04
   45.00000   11.00000   11.20000 2.2505E-02 1.4576E-03
   45.00000   11.20000   11.40000 4.5022E-02 2.5583E-03
   45.00000   11.40000   11.60000 4.1208E-02 2.3704E-03
   45.00000   11.60000   11.80000 2.4193E-02 1.4905E-03
   45.00000   11.80000   12.00000 8.2754E-03 6.4111E-04
   45.00000   12.00000   12.20000 1.6212E-03 2.3278E-04
   45.00000   12.20000   12.40000 5.6071E-04 1.3627E-04
   45.00000   12.40000   12.60000 2.7774E-04 1.0219E-04
   60.00000    6.20000    6.40000 4.3055E-03 4.3101E-04
   60.00000    6.40000    6.60000 3.9629E-03 3.9393E-04
   60.00000    6.60000    6.80000 3.7384E-03 4.2480E-04
   60.00000    6.80000    7.00000 3.4305E-03 4.1042E-04
   60.00000    7.00000    7.20000 3.3249E-03 3.9481E-04
   60.00000    7.20000    7.40000 3.6455E-03 3.9394E-04
   60.00000    7.40000    7.60000 3.3220E-03 3.9302E-04
   60.00000    7.60000    7.80000 3.4958E-03 4.0215E-04
   60.00000    7.80000    8.00000 4.3433E-03 4.3963E-04
   60.00000    8.00000    8.20000 3.0038E-03 3.5719E-04
   60.00000    8.20000    8.40000 2.2737E-03 3.1161E-04
   60.00000    8.40000    8.60000 2.4167E-03 3.0069E-04
   60.00000    8.60000    8.80000 2.7130E-03 3.2302E-04
   60.00000    8.80000    9.00000 2.6456E-03 3.4906E-04
   60.00000    9.00000    9.20000 2.1947E-03 3.2198E-04
   60.00000    9.20000    9.40000 1.9594E-03 2.8395E-04
   60.00000    9.40000    9.60000 1.7900E-03 2.6612E-04
   60.00000    9.60000    9.80000 2.3564E-03 3.2249E-04
   60.00000    9.80000   10.00000 3.8222E-03 4.1748E-04
   60.00000   10.00000   10.20000 4.9654E-03 5.3462E-04
   60.00000   10.20000   10.40000 5.3037E-03 5.5058E-04
   60.00000   10.40000   10.60000 4.9521E-03 5.3149E-04
   60.00000   10.60000   10.80000 2.3455E-03 3.2398E-04
   60.00000   10.80000   11.00000 2.7585E-03 3.7271E-04
   60.00000   11.00000   11.20000 5.2145E-03 4.8355E-04
   60.00000   11.20000   11.40000 8.9991E-03 7.1328E-04
   60.00000   11.40000   11.60000 5.2698E-03 4.8920E-04
   60.00000   11.60000   11.80000 3.6675E-03 3.5974E-04
   60.00000   11.80000   12.00000 1.1199E-03 1.4749E-04
   60.00000   12.00000   12.20000 3.7338E-04 7.0651E-05
   60.00000   12.20000   12.40000 2.4059E-05 3.5246E-05
   60.00000   12.40000   12.60000 2.0000E-05 3.1919E-05
   75.00000    6.20000    6.40000 3.9946E-03 4.0499E-04
   75.00000    6.40000    6.60000 2.9771E-03 3.4724E-04
   75.00000    6.60000    6.80000 3.3842E-03 3.6370E-04
   75.00000    6.80000    7.00000 3.4290E-03 3.6576E-04
   75.00000    7.00000    7.20000 3.3250E-03 3.6453E-04
   75.00000    7.20000    7.40000 2.9960E-03 3.3795E-04
   75.00000    7.40000    7.60000 3.1781E-03 3.5777E-04
   75.00000    7.60000    7.80000 2.5488E-03 3.2780E-04
   75.00000    7.80000    8.00000 2.7855E-03 3.3236E-04
   75.00000    8.00000    8.20000 2.3654E-03 3.0203E-04
   75.00000    8.20000    8.40000 1.8822E-03 2.5817E-04
   75.00000    8.40000    8.60000 1.8111E-03 2.5685E-04
   75.00000    8.60000    8.80000 2.4546E-03 3.0405E-04
   75.00000    8.80000    9.00000 1.9873E-03 2.8102E-04
   75.00000    9.00000    9.20000 2.0706E-03 2.8789E-04
   75.00000    9.20000    9.40000 1.4428E-03 2.6462E-04
   75.00000    9.40000    9.60000 1.1847E-03 2.3069E-04
   75.00000    9.60000    9.80000 2.6550E-03 3.1511E-04
   75.00000    9.80000   10.00000 4.3311E-03 4.6446E-04
   75.00000   10.00000   10.20000 5.1086E-03 5.4175E-04
   75.00000   10.20000   10.40000 5.3086E-03 5.7792E-04
   75.00000   10.40000   10.60000 4.8366E-03 5.3955E-04
   75.00000   10.60000   10.80000 4.6511E-03 5.4861E-04
   75.00000   10.80000   11.00000 7.6105E-03 7.6353E-04
   75.00000   11.00000   11.20000 1.6546E-02 1.4104E-03
   75.00000   11.20000   11.40000 2.2137E-02 1.7897E-03
   75.00000   11.40000   11.60000 1.4401E-02 1.1963E-03
   75.00000   11.60000   11.80000 6.5726E-03 6.4648E-04
   75.00000   11.80000   12.00000 1.2768E-03 2.4508E-04
   75.00000   12.00000   12.20000 4.8771E-04 1.4909E-04
   75.00000   12.20000   12.40000 4.9204E-05 2.1134E-05
   75.00000   12.40000   12.60000 4.2453E-05 1.9658E-05
   90.00000     .60000    1.00000 3.1728E-02 4.3791E-03
   90.00000    1.00000    1.40000 2.9157E-02 3.2101E-03
   90.00000    1.40000    1.80000 2.4227E-02 2.5376E-03
   90.00000    1.80000    2.20000 2.0138E-02 2.1407E-03
   90.00000    2.20000    2.60000 1.8683E-02 2.0177E-03
   90.00000    2.60000    3.00000 1.5866E-02 1.7474E-03
   90.00000    3.00000    3.40000 1.1631E-02 1.3389E-03
   90.00000    3.40000    3.80000 1.0382E-02 1.2219E-03
   90.00000    3.80000    4.20000 9.4357E-03 1.1308E-03
   90.00000    4.20000    4.60000 6.8344E-03 8.8452E-04
   90.00000    4.60000    5.00000 5.2394E-03 7.5308E-04
   90.00000    5.00000    5.40000 5.5898E-03 7.6804E-04
   90.00000    5.40000    5.80000 3.8440E-03 6.1620E-04
   90.00000    5.80000    6.00000 4.0811E-03 6.2804E-04
   90.00000    6.00000    6.20000 2.6812E-03 2.1066E-04
   90.00000    6.20000    6.40000 3.7256E-03 3.0748E-04
   90.00000    6.40000    6.60000 2.9253E-03 2.6778E-04
   90.00000    6.60000    6.80000 3.4120E-03 2.8821E-04
   90.00000    6.80000    7.00000 3.4069E-03 2.8381E-04
   90.00000    7.00000    7.20000 2.7626E-03 2.5039E-04
   90.00000    7.20000    7.40000 2.5355E-03 2.4621E-04
   90.00000    7.40000    7.60000 3.1866E-03 2.8397E-04
   90.00000    7.60000    7.80000 3.1289E-03 2.8491E-04
   90.00000    7.80000    8.00000 2.3114E-03 2.2483E-04
   90.00000    8.00000    8.20000 2.0880E-03 2.0862E-04
   90.00000    8.20000    8.40000 1.3104E-03 1.6854E-04
   90.00000    8.40000    8.60000 1.8855E-03 2.0131E-04
   90.00000    8.60000    8.80000 2.0488E-03 2.2396E-04
   90.00000    8.80000    9.00000 1.9787E-03 2.1851E-04
   90.00000    9.00000    9.20000 1.3035E-03 1.7980E-04
   90.00000    9.20000    9.40000 1.1641E-03 1.8124E-04
   90.00000    9.40000    9.60000 1.9478E-03 2.1612E-04
   90.00000    9.60000    9.80000 2.8439E-03 2.7437E-04
   90.00000    9.80000   10.00000 3.5690E-03 3.2886E-04
   90.00000   10.00000   10.20000 3.9844E-03 3.5985E-04
   90.00000   10.20000   10.40000 3.7552E-03 3.2713E-04
   90.00000   10.40000   10.60000 3.9293E-03 3.3672E-04
   90.00000   10.60000   10.80000 4.9508E-03 4.1805E-04
   90.00000   10.80000   11.00000 1.3275E-02 8.9160E-04
   90.00000   11.00000   11.20000 2.8061E-02 1.9993E-03
   90.00000   11.20000   11.40000 2.8067E-02 2.0006E-03
   90.00000   11.40000   11.60000 1.7922E-02 1.3165E-03
   90.00000   11.60000   11.80000 6.7470E-03 5.5870E-04
   90.00000   11.80000   12.00000 1.0860E-03 1.5659E-04
   90.00000   12.00000   12.20000 4.5278E-04 1.0376E-04
   90.00000   12.20000   12.40000 1.1099E-06 4.0484E-07
  120.00000    6.20000    6.40000 3.5709E-03 3.1889E-04
  120.00000    6.40000    6.60000 2.9677E-03 2.8572E-04
  120.00000    6.60000    6.80000 3.2120E-03 2.9638E-04
  120.00000    6.80000    7.00000 2.5414E-03 2.6014E-04
  120.00000    7.00000    7.20000 2.8205E-03 2.6967E-04
  120.00000    7.20000    7.40000 2.5596E-03 2.5349E-04
  120.00000    7.40000    7.60000 2.9081E-03 2.7472E-04
  120.00000    7.60000    7.80000 2.2583E-03 2.4141E-04
  120.00000    7.80000    8.00000 1.1146E-03 1.7709E-04
  120.00000    8.00000    8.20000 1.1192E-03 1.7014E-04
  120.00000    8.20000    8.40000 1.8444E-03 2.0620E-04
  120.00000    8.40000    8.60000 2.2974E-03 2.3295E-04
  120.00000    8.60000    8.80000 1.8570E-03 2.1201E-04
  120.00000    8.80000    9.00000 1.0753E-03 1.6434E-04
  120.00000    9.00000    9.20000 9.1896E-04 1.6402E-04
  120.00000    9.20000    9.40000 1.1192E-03 1.9868E-04
  120.00000    9.40000    9.60000 1.5049E-03 2.2869E-04
  120.00000    9.60000    9.80000 2.6099E-03 3.0480E-04
  120.00000    9.80000   10.00000 2.1279E-03 2.7714E-04
  120.00000   10.00000   10.20000 1.7674E-03 2.3892E-04
  120.00000   10.20000   10.40000 1.4970E-03 2.3367E-04
  120.00000   10.40000   10.60000 2.8002E-03 3.0284E-04
  120.00000   10.60000   10.80000 6.4106E-03 5.4499E-04
  120.00000   10.80000   11.00000 1.1734E-02 8.5291E-04
  120.00000   11.00000   11.20000 9.9530E-03 7.2367E-04
  120.00000   11.20000   11.40000 5.5755E-03 4.6332E-04
  120.00000   11.40000   11.60000 1.9376E-03 2.0959E-04
  120.00000   11.60000   12.00000 4.2546E-04 1.1335E-04
  120.00000   12.00000   12.20000 2.0984E-04 7.2412E-05
  120.00000   12.20000   12.40000 2.6574E-06 5.7251E-05
  150.00000    6.20000    6.40000 3.2548E-03 2.9472E-04
  150.00000    6.40000    6.60000 2.9494E-03 3.0646E-04
  150.00000    6.60000    6.80000 2.3841E-03 2.6398E-04
  150.00000    6.80000    7.00000 2.5246E-03 2.6944E-04
  150.00000    7.00000    7.20000 2.5026E-03 2.7719E-04
  150.00000    7.20000    7.40000 2.2946E-03 2.6091E-04
  150.00000    7.40000    7.60000 2.4025E-03 2.6027E-04
  150.00000    7.60000    7.80000 1.4655E-03 2.1271E-04
  150.00000    7.80000    8.00000 1.3789E-03 2.0993E-04
  150.00000    8.00000    8.20000 1.6981E-03 2.1664E-04
  150.00000    8.20000    8.40000 1.7656E-03 2.3955E-04
  150.00000    8.40000    8.60000 1.4203E-03 2.3610E-04
  150.00000    8.60000    8.80000 1.1487E-03 1.9316E-04
  150.00000    8.80000    9.00000 8.6579E-04 1.7298E-04
  150.00000    9.00000    9.20000 1.0540E-03 2.0420E-04
  150.00000    9.20000    9.40000 2.1037E-03 2.6741E-04
  150.00000    9.40000    9.60000 3.6641E-03 3.6405E-04
  150.00000    9.60000    9.80000 4.2592E-03 4.0760E-04
  150.00000    9.80000   10.00000 3.4595E-03 3.5589E-04
  150.00000   10.00000   10.20000 2.9023E-03 3.1547E-04
  150.00000   10.20000   10.40000 2.9907E-03 3.3089E-04
  150.00000   10.40000   10.60000 7.8745E-03 6.5948E-04
  150.00000   10.60000   10.80000 1.7445E-02 1.2663E-03
  150.00000   10.80000   11.00000 1.8522E-02 1.3297E-03
  150.00000   11.00000   11.20000 1.1618E-02 8.7884E-04
  150.00000   11.20000   11.40000 3.9773E-03 3.8284E-04
  150.00000   11.40000   11.80000 5.1125E-04 1.2849E-04
  150.00000   11.80000   12.00000 1.7871E-05 1.3405E-05
  150.00000   12.00000   12.20000 9.3803E-07 1.1900E-05
ENDDATA            267
ENDSUBENT          279
SUBENT        22343004   20030529   20031222   20050926       0000
BIB                  4          6
REACTION   (26-FE-0(N,X)0-NN-1,,DA/DE)
SAMPLE      Metallic cylinders 3 cm diam, 5 cm height
STATUS     Data submitted on diskette by Masanobu:
            for 11.5 MeV on 1997/08/05.
            for 18 MeV on 1997/09/22.
HISTORY    (20030529A) Reaction corrected.
ENDBIB               6
NOCOMMON             0          0
DATA                 6        971
EN         ANG        E-MIN      E-MAX      DATA       ERR-S
MEV        ADEG       MEV        MEV        B/SR/MEV   B/SR/MEV
   11.50000   20.00000    6.00000    6.20000 4.5913E-03 4.8609E-04
   11.50000   20.00000    6.20000    6.40000 5.6279E-03 5.7889E-04
   11.50000   20.00000    6.40000    6.60000 6.5584E-03 6.1962E-04
   11.50000   20.00000    6.60000    6.80000 7.7697E-03 6.8626E-04
   11.50000   20.00000    6.80000    7.00000 6.5374E-03 6.4053E-04
   11.50000   20.00000    7.00000    7.20000 4.1494E-03 5.3279E-04
   11.50000   20.00000    7.20000    7.40000 4.7582E-03 5.8199E-04
   11.50000   20.00000    7.40000    7.60000 2.4356E-03 4.0676E-04
   11.50000   20.00000    7.60000    7.80000 2.9281E-03 4.3167E-04
   11.50000   20.00000    7.80000    8.00000 3.7580E-03 4.4407E-04
   11.50000   20.00000    8.00000    8.20000 2.9613E-03 3.8022E-04
   11.50000   20.00000    8.20000    8.40000 4.7930E-03 5.4022E-04
   11.50000   20.00000    8.40000    8.60000 5.0926E-03 5.4493E-04
   11.50000   20.00000    8.60000    8.80000 3.7009E-03 4.7252E-04
   11.50000   20.00000    8.80000    9.00000 4.0552E-03 4.7450E-04
   11.50000   20.00000    9.00000    9.20000 2.6105E-03 3.5787E-04
   11.50000   20.00000    9.20000    9.40000 3.6594E-03 5.3746E-04
   11.50000   20.00000    9.40000    9.60000 5.1801E-03 7.0990E-04
   11.50000   20.00000    9.60000    9.80000 6.4233E-03 8.0666E-04
   11.50000   20.00000    9.80000   10.00000 7.0557E-03 8.0078E-04
   11.50000   20.00000   10.00000   10.20000 1.3073E-02 1.1259E-03
   11.50000   20.00000   10.20000   10.40000 2.9937E-02 2.3842E-03
   11.50000   20.00000   10.40000   10.60000 5.8744E-02 4.2257E-03
   11.50000   20.00000   10.60000   10.80000 1.1714E-01 9.0535E-03
   11.50000   20.00000   10.80000   11.00000 2.3694E-01 1.7826E-02
   11.50000   20.00000   11.00000   11.20000 6.4461E-01 5.0028E-02
   11.50000   20.00000   11.20000   11.40000 1.2688E+00 9.8012E-02
   11.50000   20.00000   11.40000   11.60000 1.5767E+00 1.3057E-01
   11.50000   20.00000   11.60000   11.80000 1.2396E+00 1.0275E-01
   11.50000   20.00000   11.80000   12.00000 6.2156E-01 5.1948E-02
   11.50000   20.00000   12.00000   12.20000 1.7533E-01 1.4986E-02
   11.50000   20.00000   12.20000   12.40000 4.2021E-02 3.9470E-03
   11.50000   20.00000   12.40000   12.60000 1.6893E-02 1.8515E-03
   11.50000   30.00000    6.00000    6.20000 5.2867E-03 4.8445E-04
   11.50000   30.00000    6.20000    6.40000 4.7455E-03 4.9734E-04
   11.50000   30.00000    6.40000    6.60000 5.0385E-03 5.0166E-04
   11.50000   30.00000    6.60000    6.80000 7.4029E-03 6.5233E-04
   11.50000   30.00000    6.80000    7.00000 6.4782E-03 6.0941E-04
   11.50000   30.00000    7.00000    7.20000 3.9969E-03 4.6883E-04
   11.50000   30.00000    7.20000    7.40000 3.9107E-03 4.9689E-04
   11.50000   30.00000    7.40000    7.60000 3.4667E-03 4.2141E-04
   11.50000   30.00000    7.60000    7.80000 3.3229E-03 4.1781E-04
   11.50000   30.00000    7.80000    8.00000 4.0405E-03 4.6932E-04
   11.50000   30.00000    8.00000    8.20000 3.6141E-03 3.9672E-04
   11.50000   30.00000    8.20000    8.40000 4.0462E-03 4.3984E-04
   11.50000   30.00000    8.40000    8.60000 4.2407E-03 4.6169E-04
   11.50000   30.00000    8.60000    8.80000 3.0252E-03 3.9703E-04
   11.50000   30.00000    8.80000    9.00000 2.4569E-03 3.7882E-04
   11.50000   30.00000    9.00000    9.20000 2.2470E-03 3.4783E-04
   11.50000   30.00000    9.20000    9.40000 1.9048E-03 4.0387E-04
   11.50000   30.00000    9.40000    9.60000 3.1392E-03 5.2647E-04
   11.50000   30.00000    9.60000    9.80000 3.9026E-03 5.6743E-04
   11.50000   30.00000    9.80000   10.00000 6.6881E-03 7.0460E-04
   11.50000   30.00000   10.00000   10.20000 1.2843E-02 1.0674E-03
   11.50000   30.00000   10.20000   10.40000 2.8547E-02 2.1809E-03
   11.50000   30.00000   10.40000   10.60000 4.3043E-02 3.1237E-03
   11.50000   30.00000   10.60000   10.80000 7.2242E-02 5.5527E-03
   11.50000   30.00000   10.80000   11.00000 1.3146E-01 9.8072E-03
   11.50000   30.00000   11.00000   11.20000 3.0024E-01 2.1519E-02
   11.50000   30.00000   11.20000   11.40000 5.1470E-01 3.6616E-02
   11.50000   30.00000   11.40000   11.60000 5.5596E-01 4.0330E-02
   11.50000   30.00000   11.60000   11.80000 3.9764E-01 2.8954E-02
   11.50000   30.00000   11.80000   12.00000 1.7670E-01 1.3098E-02
   11.50000   30.00000   12.00000   12.20000 4.2471E-02 3.4361E-03
   11.50000   30.00000   12.20000   12.40000 9.7700E-03 1.0179E-03
   11.50000   30.00000   12.40000   12.60000 3.7707E-03 5.3568E-04
   11.50000   37.50000    6.00000    6.20000 6.5729E-03 5.4909E-04
   11.50000   37.50000    6.20000    6.40000 5.0720E-03 4.9075E-04
   11.50000   37.50000    6.40000    6.60000 5.5468E-03 5.0413E-04
   11.50000   37.50000    6.60000    6.80000 7.3040E-03 6.4278E-04
   11.50000   37.50000    6.80000    7.00000 6.4493E-03 5.9968E-04
   11.50000   37.50000    7.00000    7.20000 4.8255E-03 5.1006E-04
   11.50000   37.50000    7.20000    7.40000 3.6788E-03 4.8206E-04
   11.50000   37.50000    7.40000    7.60000 3.2656E-03 3.9421E-04
   11.50000   37.50000    7.60000    7.80000 2.8583E-03 3.5897E-04
   11.50000   37.50000    7.80000    8.00000 3.3808E-03 3.7875E-04
   11.50000   37.50000    8.00000    8.20000 3.5836E-03 3.5982E-04
   11.50000   37.50000    8.20000    8.40000 3.7919E-03 3.8838E-04
   11.50000   37.50000    8.40000    8.60000 3.6065E-03 4.0794E-04
   11.50000   37.50000    8.60000    8.80000 3.1184E-03 3.9840E-04
   11.50000   37.50000    8.80000    9.00000 2.5455E-03 3.6682E-04
   11.50000   37.50000    9.00000    9.20000 1.1446E-03 2.7392E-04
   11.50000   37.50000    9.20000    9.40000 1.3147E-03 3.1225E-04
   11.50000   37.50000    9.40000    9.60000 1.4433E-03 3.0954E-04
   11.50000   37.50000    9.60000    9.80000 2.1164E-03 3.5281E-04
   11.50000   37.50000    9.80000   10.00000 2.5463E-03 3.9418E-04
   11.50000   37.50000   10.00000   10.20000 7.1955E-03 7.0371E-04
   11.50000   37.50000   10.20000   10.40000 1.7498E-02 1.4084E-03
   11.50000   37.50000   10.40000   10.60000 2.4001E-02 1.8382E-03
   11.50000   37.50000   10.60000   10.80000 2.5937E-02 1.9977E-03
   11.50000   37.50000   10.80000   11.00000 5.1942E-02 3.6910E-03
   11.50000   37.50000   11.00000   11.20000 1.3056E-01 8.4845E-03
   11.50000   37.50000   11.20000   11.40000 1.9567E-01 1.2547E-02
   11.50000   37.50000   11.40000   11.60000 1.7016E-01 1.0705E-02
   11.50000   37.50000   11.60000   11.80000 1.0738E-01 6.8849E-03
   11.50000   37.50000   11.80000   12.00000 4.7663E-02 3.2337E-03
   11.50000   37.50000   12.00000   12.20000 2.8164E-02 2.0431E-03
   11.50000   37.50000   12.20000   12.40000 2.2024E-02 1.6632E-03
   11.50000   37.50000   12.40000   12.60000 1.5174E-02 1.2339E-03
   11.50000   45.00000    6.00000    6.20000 4.5954E-03 5.1794E-04
   11.50000   45.00000    6.20000    6.40000 5.3382E-03 6.2779E-04
   11.50000   45.00000    6.40000    6.60000 5.2584E-03 6.0271E-04
   11.50000   45.00000    6.60000    6.80000 8.0822E-03 7.8404E-04
   11.50000   45.00000    6.80000    7.00000 7.8343E-03 7.6128E-04
   11.50000   45.00000    7.00000    7.20000 3.9697E-03 5.0198E-04
   11.50000   45.00000    7.20000    7.40000 3.8190E-03 4.9752E-04
   11.50000   45.00000    7.40000    7.60000 2.5304E-03 4.0035E-04
   11.50000   45.00000    7.60000    7.80000 2.5799E-03 3.9191E-04
   11.50000   45.00000    7.80000    8.00000 3.4174E-03 4.4414E-04
   11.50000   45.00000    8.00000    8.20000 3.5423E-03 4.1022E-04
   11.50000   45.00000    8.20000    8.40000 2.6151E-03 3.9233E-04
   11.50000   45.00000    8.40000    8.60000 2.7178E-03 3.6797E-04
   11.50000   45.00000    8.60000    8.80000 1.5116E-03 3.2694E-04
   11.50000   45.00000    8.80000    9.00000 1.6245E-03 3.3305E-04
   11.50000   45.00000    9.00000    9.20000 8.7833E-04 3.0905E-04
   11.50000   45.00000    9.20000    9.40000 1.9055E-03 3.9408E-04
   11.50000   45.00000    9.40000    9.60000 1.0794E-03 2.9706E-04
   11.50000   45.00000    9.60000    9.80000 2.1281E-03 3.9605E-04
   11.50000   45.00000    9.80000   10.00000 3.2840E-03 4.9500E-04
   11.50000   45.00000   10.00000   10.20000 9.1314E-03 8.7779E-04
   11.50000   45.00000   10.20000   10.40000 1.4530E-02 1.2928E-03
   11.50000   45.00000   10.40000   10.60000 1.7481E-02 1.5352E-03
   11.50000   45.00000   10.60000   10.80000 1.5575E-02 1.4633E-03
   11.50000   45.00000   10.80000   11.00000 2.1829E-02 1.9262E-03
   11.50000   45.00000   11.00000   11.20000 4.4840E-02 3.0055E-03
   11.50000   45.00000   11.20000   11.40000 6.3301E-02 3.9774E-03
   11.50000   45.00000   11.40000   11.60000 4.9795E-02 3.0263E-03
   11.50000   45.00000   11.60000   11.80000 2.7392E-02 1.8273E-03
   11.50000   45.00000   11.80000   12.00000 7.7089E-03 7.1034E-04
   11.50000   45.00000   12.00000   12.20000 8.2941E-04 2.3550E-04
   11.50000   45.00000   12.20000   12.40000 5.1990E-04 1.8615E-04
   11.50000   52.50000    6.00000    6.20000 5.6745E-03 5.3119E-04
   11.50000   52.50000    6.20000    6.40000 4.7593E-03 4.9602E-04
   11.50000   52.50000    6.40000    6.60000 6.1412E-03 5.8130E-04
   11.50000   52.50000    6.60000    6.80000 7.4144E-03 7.1653E-04
   11.50000   52.50000    6.80000    7.00000 6.1043E-03 6.4701E-04
   11.50000   52.50000    7.00000    7.20000 3.2883E-03 4.3320E-04
   11.50000   52.50000    7.20000    7.40000 3.2276E-03 3.9985E-04
   11.50000   52.50000    7.40000    7.60000 2.8485E-03 3.8507E-04
   11.50000   52.50000    7.60000    7.80000 2.5839E-03 3.8510E-04
   11.50000   52.50000    7.80000    8.00000 2.7919E-03 3.9523E-04
   11.50000   52.50000    8.00000    8.20000 2.3171E-03 3.6313E-04
   11.50000   52.50000    8.20000    8.40000 3.1817E-03 3.9411E-04
   11.50000   52.50000    8.40000    8.60000 2.1186E-03 3.4114E-04
   11.50000   52.50000    8.60000    8.80000 2.1841E-03 3.3468E-04
   11.50000   52.50000    8.80000    9.00000 7.7472E-04 2.9178E-04
   11.50000   52.50000    9.00000    9.20000 1.2939E-03 2.8574E-04
   11.50000   52.50000    9.20000    9.40000 6.5948E-04 2.5656E-04
   11.50000   52.50000    9.40000    9.60000 7.1689E-04 2.5966E-04
   11.50000   52.50000    9.60000    9.80000 1.1546E-03 2.7151E-04
   11.50000   52.50000    9.80000   10.00000 2.5008E-03 3.6965E-04
   11.50000   52.50000   10.00000   10.20000 4.2423E-03 4.7459E-04
   11.50000   52.50000   10.20000   10.40000 1.0710E-02 9.4320E-04
   11.50000   52.50000   10.40000   10.60000 1.1230E-02 9.9872E-04
   11.50000   52.50000   10.60000   10.80000 1.0973E-02 9.3845E-04
   11.50000   52.50000   10.80000   11.00000 1.2485E-02 1.0552E-03
   11.50000   52.50000   11.00000   11.20000 1.7016E-02 1.3393E-03
   11.50000   52.50000   11.20000   11.40000 2.3336E-02 1.6853E-03
   11.50000   52.50000   11.40000   11.60000 1.6860E-02 1.2544E-03
   11.50000   52.50000   11.60000   11.80000 1.1145E-02 9.2922E-04
   11.50000   52.50000   11.80000   12.00000 3.1389E-03 3.8980E-04
   11.50000   52.50000   12.00000   12.20000 6.6742E-04 1.8919E-04
   11.50000   52.50000   12.20000   12.40000 3.8162E-04 1.3786E-04
   11.50000   52.50000   12.40000   12.60000 5.2219E-04 1.4350E-04
   11.50000   60.00000    6.00000    6.20000 5.1935E-03 5.7577E-04
   11.50000   60.00000    6.20000    6.40000 5.0549E-03 5.4884E-04
   11.50000   60.00000    6.40000    6.60000 4.9241E-03 5.3736E-04
   11.50000   60.00000    6.60000    6.80000 6.6451E-03 7.2545E-04
   11.50000   60.00000    6.80000    7.00000 6.6633E-03 7.1139E-04
   11.50000   60.00000    7.00000    7.20000 3.9076E-03 4.5629E-04
   11.50000   60.00000    7.20000    7.40000 2.4434E-03 3.9795E-04
   11.50000   60.00000    7.40000    7.60000 1.5209E-03 3.1930E-04
   11.50000   60.00000    7.60000    7.80000 1.9816E-03 3.4094E-04
   11.50000   60.00000    7.80000    8.00000 1.9176E-03 3.4574E-04
   11.50000   60.00000    8.00000    8.20000 2.9590E-03 4.1000E-04
   11.50000   60.00000    8.20000    8.40000 2.4944E-03 3.9885E-04
   11.50000   60.00000    8.40000    8.60000 2.6084E-03 4.0625E-04
   11.50000   60.00000    8.60000    8.80000 2.1061E-03 3.5319E-04
   11.50000   60.00000    8.80000    9.00000 7.2760E-04 2.7284E-04
   11.50000   60.00000    9.00000    9.20000 1.4053E-03 3.0411E-04
   11.50000   60.00000    9.20000    9.40000 9.5644E-04 2.8890E-04
   11.50000   60.00000    9.40000    9.60000 1.4547E-04 1.9787E-04
   11.50000   60.00000    9.60000    9.80000 5.6858E-04 2.4710E-04
   11.50000   60.00000    9.80000   10.00000 1.4406E-03 3.0958E-04
   11.50000   60.00000   10.00000   10.20000 2.9122E-03 4.0037E-04
   11.50000   60.00000   10.20000   10.40000 6.5054E-03 6.4330E-04
   11.50000   60.00000   10.40000   10.60000 8.5459E-03 8.2996E-04
   11.50000   60.00000   10.60000   10.80000 6.5476E-03 6.6635E-04
   11.50000   60.00000   10.80000   11.00000 6.6011E-03 6.9531E-04
   11.50000   60.00000   11.00000   11.20000 7.4618E-03 8.1197E-04
   11.50000   60.00000   11.20000   11.40000 1.4212E-02 1.1688E-03
   11.50000   60.00000   11.40000   11.60000 9.1872E-03 8.6905E-04
   11.50000   60.00000   11.60000   11.80000 6.8009E-03 6.9801E-04
   11.50000   60.00000   11.80000   12.00000 1.4409E-03 3.3511E-04
   11.50000   60.00000   12.00000   12.20000 4.0333E-04 1.7599E-04
   11.50000   60.00000   12.20000   12.40000 3.3961E-04 1.2550E-04
   11.50000   60.00000   12.40000   12.60000 2.4242E-04 1.0270E-04
   11.50000   75.00000    6.00000    6.20000 5.3323E-03 5.3021E-04
   11.50000   75.00000    6.20000    6.40000 4.1834E-03 4.9772E-04
   11.50000   75.00000    6.40000    6.60000 4.8607E-03 5.1696E-04
   11.50000   75.00000    6.60000    6.80000 6.5950E-03 6.1257E-04
   11.50000   75.00000    6.80000    7.00000 3.9431E-03 4.5294E-04
   11.50000   75.00000    7.00000    7.20000 2.6411E-03 3.5504E-04
   11.50000   75.00000    7.20000    7.40000 1.9321E-03 3.2943E-04
   11.50000   75.00000    7.40000    7.60000 2.1645E-03 3.5320E-04
   11.50000   75.00000    7.60000    7.80000 2.7533E-03 3.6222E-04
   11.50000   75.00000    7.80000    8.00000 2.1382E-03 3.3892E-04
   11.50000   75.00000    8.00000    8.20000 3.0602E-03 4.1636E-04
   11.50000   75.00000    8.20000    8.40000 2.4127E-03 3.5891E-04
   11.50000   75.00000    8.40000    8.60000 1.2563E-03 2.9453E-04
   11.50000   75.00000    8.60000    8.80000 4.7606E-04 2.2657E-04
   11.50000   75.00000    8.80000    9.00000 3.6026E-04 2.0591E-04
   11.50000   75.00000    9.00000    9.20000 1.0203E-03 2.7094E-04
   11.50000   75.00000    9.20000    9.40000 8.3097E-04 2.7733E-04
   11.50000   75.00000    9.40000    9.60000 6.3900E-04 2.1816E-04
   11.50000   75.00000    9.60000    9.80000 2.2433E-04 2.1683E-04
   11.50000   75.00000    9.80000   10.00000 1.9180E-03 2.8765E-04
   11.50000   75.00000   10.00000   10.20000 3.8675E-03 4.1357E-04
   11.50000   75.00000   10.20000   10.40000 7.2261E-03 7.2739E-04
   11.50000   75.00000   10.40000   10.60000 7.0164E-03 7.2084E-04
   11.50000   75.00000   10.60000   10.80000 5.4608E-03 6.2263E-04
   11.50000   75.00000   10.80000   11.00000 7.1573E-03 7.1634E-04
   11.50000   75.00000   11.00000   11.20000 1.1539E-02 1.0600E-03
   11.50000   75.00000   11.20000   11.40000 1.1477E-02 1.0734E-03
   11.50000   75.00000   11.40000   11.60000 5.0770E-03 6.3594E-04
   11.50000   75.00000   11.60000   11.80000 2.0454E-03 4.0271E-04
   11.50000   75.00000   11.80000   12.00000 9.1339E-04 2.3404E-04
   11.50000   90.00000     .60000    1.00000 2.0020E-02 2.7843E-03
   11.50000   90.00000    1.00000    1.40000 2.0805E-02 2.3541E-03
   11.50000   90.00000    1.40000    1.80000 2.0196E-02 2.0715E-03
   11.50000   90.00000    1.80000    2.20000 1.6204E-02 1.6833E-03
   11.50000   90.00000    2.20000    2.60000 1.5726E-02 1.6396E-03
   11.50000   90.00000    2.60000    3.00000 1.1938E-02 1.2987E-03
   11.50000   90.00000    3.00000    3.40000 1.0549E-02 1.1794E-03
   11.50000   90.00000    3.40000    3.80000 9.5896E-03 1.0968E-03
   11.50000   90.00000    3.80000    4.20000 7.8552E-03 9.3145E-04
   11.50000   90.00000    4.20000    4.60000 6.2904E-03 7.8908E-04
   11.50000   90.00000    4.60000    5.00000 4.5575E-03 6.3708E-04
   11.50000   90.00000    5.00000    5.40000 4.4626E-03 6.2349E-04
   11.50000   90.00000    5.40000    5.80000 3.6598E-03 5.1960E-04
   11.50000   90.00000    5.80000    6.00000 4.0179E-03 5.3662E-04
   11.50000   90.00000    6.00000    6.20000 4.0472E-03 4.7541E-04
   11.50000   90.00000    6.20000    6.40000 3.6181E-03 4.3486E-04
   11.50000   90.00000    6.40000    6.60000 4.4705E-03 4.8034E-04
   11.50000   90.00000    6.60000    6.80000 3.5264E-03 4.4182E-04
   11.50000   90.00000    6.80000    7.00000 2.6989E-03 3.7175E-04
   11.50000   90.00000    7.00000    7.20000 1.4976E-03 2.8934E-04
   11.50000   90.00000    7.20000    7.40000 1.9470E-03 3.1630E-04
   11.50000   90.00000    7.40000    7.60000 1.3567E-03 2.8312E-04
   11.50000   90.00000    7.60000    7.80000 2.4803E-03 3.5882E-04
   11.50000   90.00000    7.80000    8.00000 2.5751E-03 3.8934E-04
   11.50000   90.00000    8.00000    8.20000 2.4740E-03 3.7656E-04
   11.50000   90.00000    8.20000    8.40000 1.5283E-03 3.0760E-04
   11.50000   90.00000    8.40000    8.60000 1.4740E-03 2.8702E-04
   11.50000   90.00000    8.60000    8.80000 5.5116E-04 2.1054E-04
   11.50000   90.00000    8.80000    9.00000 1.8971E-04 1.9933E-04
   11.50000   90.00000    9.00000    9.20000 3.3643E-04 2.6528E-04
   11.50000   90.00000    9.20000    9.40000 8.6105E-04 2.8563E-04
   11.50000   90.00000    9.40000    9.60000 1.0422E-03 2.4517E-04
   11.50000   90.00000    9.60000    9.80000 1.5082E-03 2.7435E-04
   11.50000   90.00000    9.80000   10.00000 3.2488E-03 4.4517E-04
   11.50000   90.00000   10.00000   10.20000 5.3743E-03 6.4602E-04
   11.50000   90.00000   10.20000   10.40000 7.7473E-03 8.0611E-04
   11.50000   90.00000   10.40000   10.60000 8.0586E-03 8.1732E-04
   11.50000   90.00000   10.60000   10.80000 8.3324E-03 8.3278E-04
   11.50000   90.00000   10.80000   11.00000 1.6115E-02 1.3532E-03
   11.50000   90.00000   11.00000   11.20000 2.3691E-02 2.0839E-03
   11.50000   90.00000   11.20000   11.40000 2.0253E-02 1.8415E-03
   11.50000   90.00000   11.40000   11.60000 1.0571E-02 1.1356E-03
   11.50000   90.00000   11.60000   11.80000 2.9122E-03 5.4741E-04
   11.50000   90.00000   11.80000   12.00000 8.0983E-04 2.8384E-04
   11.50000  105.00000    6.00000    6.20000 3.3806E-03 3.6877E-04
   11.50000  105.00000    6.20000    6.40000 4.7125E-03 4.4610E-04
   11.50000  105.00000    6.40000    6.60000 4.4839E-03 4.4682E-04
   11.50000  105.00000    6.60000    6.80000 2.8648E-03 3.3443E-04
   11.50000  105.00000    6.80000    7.00000 1.7204E-03 2.7799E-04
   11.50000  105.00000    7.00000    7.20000 1.6888E-03 2.7255E-04
   11.50000  105.00000    7.20000    7.40000 1.8247E-03 2.7789E-04
   11.50000  105.00000    7.40000    7.60000 1.6871E-03 2.5597E-04
   11.50000  105.00000    7.60000    7.80000 1.9824E-03 2.8886E-04
   11.50000  105.00000    7.80000    8.00000 2.6661E-03 3.1668E-04
   11.50000  105.00000    8.00000    8.20000 1.4572E-03 2.5647E-04
   11.50000  105.00000    8.20000    8.40000 1.9427E-03 2.7838E-04
   11.50000  105.00000    8.40000    8.60000 7.5582E-04 2.0500E-04
   11.50000  105.00000    8.60000    8.80000 3.9849E-04 1.9493E-04
   11.50000  105.00000    8.80000    9.00000 4.6894E-04 1.9129E-04
   11.50000  105.00000    9.00000    9.20000 4.8453E-04 1.9197E-04
   11.50000  105.00000    9.20000    9.40000 3.2978E-04 1.9270E-04
   11.50000  105.00000    9.40000    9.60000 9.9017E-04 2.1670E-04
   11.50000  105.00000    9.60000    9.80000 1.5285E-03 2.6074E-04
   11.50000  105.00000    9.80000   10.00000 4.2223E-03 4.7422E-04
   11.50000  105.00000   10.00000   10.20000 5.0197E-03 5.5632E-04
   11.50000  105.00000   10.20000   10.40000 5.3372E-03 5.8795E-04
   11.50000  105.00000   10.40000   10.60000 8.1242E-03 7.3823E-04
   11.50000  105.00000   10.60000   10.80000 1.6251E-02 1.3415E-03
   11.50000  105.00000   10.80000   11.00000 1.9203E-02 1.5110E-03
   11.50000  105.00000   11.00000   11.20000 1.4434E-02 1.1691E-03
   11.50000  105.00000   11.20000   11.40000 6.3683E-03 6.5957E-04
   11.50000  105.00000   11.40000   11.60000 1.9583E-03 3.5109E-04
   11.50000  105.00000   11.60000   11.80000 1.1554E-03 2.3790E-04
   11.50000  105.00000   11.80000   12.00000 5.6673E-04 1.7649E-04
   11.50000  105.00000   12.00000   12.20000 5.4957E-04 1.6948E-04
   11.50000  105.00000   12.20000   12.40000 8.4781E-05 3.2694E-05
   11.50000  120.00000    6.00000    6.20000 3.1754E-03 3.3871E-04
   11.50000  120.00000    6.20000    6.40000 5.0098E-03 4.3498E-04
   11.50000  120.00000    6.40000    6.60000 4.1087E-03 4.0942E-04
   11.50000  120.00000    6.60000    6.80000 2.3374E-03 2.6763E-04
   11.50000  120.00000    6.80000    7.00000 1.5355E-03 2.4155E-04
   11.50000  120.00000    7.00000    7.20000 1.7246E-03 2.2794E-04
   11.50000  120.00000    7.20000    7.40000 1.7239E-03 2.4379E-04
   11.50000  120.00000    7.40000    7.60000 2.4320E-03 2.7968E-04
   11.50000  120.00000    7.60000    7.80000 1.8253E-03 2.5652E-04
   11.50000  120.00000    7.80000    8.00000 2.3086E-03 2.9908E-04
   11.50000  120.00000    8.00000    8.20000 1.0276E-03 2.2168E-04
   11.50000  120.00000    8.20000    8.40000 9.2362E-04 1.7296E-04
   11.50000  120.00000    8.40000    8.60000 7.0963E-04 1.8832E-04
   11.50000  120.00000    8.60000    8.80000 4.8105E-04 1.9309E-04
   11.50000  120.00000    8.80000    9.00000 7.3272E-04 2.2127E-04
   11.50000  120.00000    9.00000    9.20000 6.0661E-04 1.5765E-04
   11.50000  120.00000    9.20000    9.40000 4.8859E-04 1.7227E-04
   11.50000  120.00000    9.40000    9.60000 1.2137E-03 1.9827E-04
   11.50000  120.00000    9.60000    9.80000 2.0318E-03 2.4276E-04
   11.50000  120.00000    9.80000   10.00000 4.4080E-03 4.3135E-04
   11.50000  120.00000   10.00000   10.20000 4.6483E-03 4.3359E-04
   11.50000  120.00000   10.20000   10.40000 3.3100E-03 3.2081E-04
   11.50000  120.00000   10.40000   10.60000 4.3891E-03 3.8194E-04
   11.50000  120.00000   10.60000   10.80000 7.3272E-03 5.7153E-04
   11.50000  120.00000   10.80000   11.00000 8.3326E-03 6.3601E-04
   11.50000  120.00000   11.00000   11.20000 5.6709E-03 4.6038E-04
   11.50000  120.00000   11.20000   11.40000 2.0928E-03 2.7755E-04
   11.50000  120.00000   11.40000   11.60000 1.0467E-03 1.7373E-04
   11.50000  120.00000   11.60000   12.00000 1.0176E-04 1.0487E-04
   11.50000  120.00000   12.00000   12.20000 1.6186E-04 6.5941E-05
   11.50000  120.00000   12.20000   12.40000 6.7684E-05 6.2807E-05
   18.00000   30.00000    1.00000    1.20000 5.7759E-02 6.7060E-03
   18.00000   30.00000    1.20000    1.40000 4.6062E-02 3.9236E-03
   18.00000   30.00000    1.40000    1.60000 4.8989E-02 4.0022E-03
   18.00000   30.00000    1.60000    1.80000 3.4346E-02 2.6106E-03
   18.00000   30.00000    1.80000    2.00000 3.6160E-02 2.3168E-03
   18.00000   30.00000    2.00000    2.20000 3.2973E-02 2.1073E-03
   18.00000   30.00000    2.20000    2.40000 3.0845E-02 1.8911E-03
   18.00000   30.00000    2.40000    2.60000 2.5948E-02 1.5965E-03
   18.00000   30.00000    2.60000    2.80000 2.5207E-02 1.5715E-03
   18.00000   30.00000    2.80000    3.00000 2.5939E-02 1.6742E-03
   18.00000   30.00000    3.00000    3.20000 2.4032E-02 1.5740E-03
   18.00000   30.00000    3.20000    3.40000 2.4295E-02 1.5798E-03
   18.00000   30.00000    3.40000    3.60000 1.9429E-02 1.3721E-03
   18.00000   30.00000    3.60000    3.80000 1.8736E-02 1.4083E-03
   18.00000   30.00000    3.80000    4.00000 1.5343E-02 1.2805E-03
   18.00000   30.00000    4.00000    4.20000 1.3248E-02 1.1459E-03
   18.00000   30.00000    4.20000    4.40000 1.2371E-02 1.0548E-03
   18.00000   30.00000    4.40000    4.60000 1.0241E-02 1.0262E-03
   18.00000   30.00000    4.60000    4.80000 9.4654E-03 1.4003E-03
   18.00000   30.00000    4.80000    5.00000 8.6459E-03 1.1173E-03
   18.00000   30.00000    5.00000    5.20000 7.8487E-03 7.5865E-04
   18.00000   30.00000    5.20000    5.40000 7.0526E-03 2.7243E-04
   18.00000   30.00000    5.40000    5.60000 6.2537E-03 5.9110E-04
   18.00000   30.00000    5.60000    5.80000 5.3158E-03 5.5289E-04
   18.00000   30.00000    5.80000    6.00000 6.2195E-03 5.8752E-04
   18.00000   30.00000    6.00000    6.20000 5.4503E-03 5.4298E-04
   18.00000   30.00000    6.20000    6.40000 5.6086E-03 5.2828E-04
   18.00000   30.00000    6.40000    6.60000 5.4216E-03 4.8893E-04
   18.00000   30.00000    6.60000    6.80000 5.1813E-03 4.8670E-04
   18.00000   30.00000    6.80000    7.00000 4.5174E-03 4.3203E-04
   18.00000   30.00000    7.00000    7.20000 4.2682E-03 4.5321E-04
   18.00000   30.00000    7.20000    7.40000 5.1663E-03 5.2653E-04
   18.00000   30.00000    7.40000    7.60000 3.5506E-03 4.0623E-04
   18.00000   30.00000    7.60000    7.80000 4.3557E-03 4.7338E-04
   18.00000   30.00000    7.80000    8.00000 2.8585E-03 4.2872E-04
   18.00000   30.00000    8.00000    8.20000 2.5392E-03 4.3479E-04
   18.00000   30.00000    8.20000    8.40000 3.6875E-03 4.7307E-04
   18.00000   30.00000    8.40000    8.60000 3.1820E-03 4.6703E-04
   18.00000   30.00000    8.60000    8.80000 2.5663E-03 4.5647E-04
   18.00000   30.00000    8.80000    9.00000 3.7787E-03 5.2950E-04
   18.00000   30.00000    9.00000    9.20000 2.7394E-03 4.7415E-04
   18.00000   30.00000    9.20000    9.40000 3.9404E-03 5.3965E-04
   18.00000   30.00000    9.40000    9.60000 3.3123E-03 5.0891E-04
   18.00000   30.00000    9.60000    9.80000 3.1408E-03 5.2050E-04
   18.00000   30.00000    9.80000   10.00000 3.1504E-03 4.4188E-04
   18.00000   30.00000   10.00000   10.20000 3.5299E-03 4.7401E-04
   18.00000   30.00000   10.20000   10.40000 2.5958E-03 4.5468E-04
   18.00000   30.00000   10.40000   10.60000 2.9717E-03 4.4713E-04
   18.00000   30.00000   10.60000   10.80000 4.1185E-03 5.3349E-04
   18.00000   30.00000   10.80000   11.00000 4.4945E-03 5.5983E-04
   18.00000   30.00000   11.00000   11.20000 3.5660E-03 4.8366E-04
   18.00000   30.00000   11.20000   11.40000 2.6050E-03 4.2292E-04
   18.00000   30.00000   11.40000   11.60000 3.1417E-03 4.6526E-04
   18.00000   30.00000   11.60000   11.80000 3.0059E-03 4.6656E-04
   18.00000   30.00000   11.80000   12.00000 2.9921E-03 4.5182E-04
   18.00000   30.00000   12.00000   12.20000 2.7251E-03 4.3170E-04
   18.00000   30.00000   12.20000   12.40000 1.7213E-03 4.0373E-04
   18.00000   30.00000   12.40000   12.60000 2.1701E-03 4.2508E-04
   18.00000   30.00000   12.60000   12.80000 3.1773E-03 5.0389E-04
   18.00000   30.00000   12.80000   13.00000 3.1141E-03 5.0282E-04
   18.00000   30.00000   13.00000   13.20000 4.2148E-03 5.7531E-04
   18.00000   30.00000   13.20000   13.40000 4.3254E-03 6.2910E-04
   18.00000   30.00000   13.40000   13.60000 5.9238E-03 6.9148E-04
   18.00000   30.00000   13.60000   13.80000 3.5297E-03 5.0539E-04
   18.00000   30.00000   13.80000   14.00000 3.2796E-03 5.2468E-04
   18.00000   30.00000   14.00000   14.20000 3.2502E-03 4.8117E-04
   18.00000   30.00000   14.20000   14.40000 2.7509E-03 4.1931E-04
   18.00000   30.00000   14.40000   14.60000 2.7657E-03 3.7479E-04
   18.00000   30.00000   14.60000   14.80000 2.7742E-03 3.6720E-04
   18.00000   30.00000   14.80000   15.00000 3.1371E-03 3.6964E-04
   18.00000   30.00000   15.00000   15.20000 2.8621E-03 3.6468E-04
   18.00000   30.00000   15.20000   15.40000 2.0648E-03 3.0221E-04
   18.00000   30.00000   15.40000   15.60000 2.2757E-03 3.2016E-04
   18.00000   30.00000   15.60000   15.80000 1.7377E-03 3.0112E-04
   18.00000   30.00000   15.80000   16.00000 1.5849E-03 2.4907E-04
   18.00000   30.00000   16.00000   16.20000 1.6630E-03 3.0110E-04
   18.00000   30.00000   16.20000   16.40000 2.5152E-03 3.9935E-04
   18.00000   30.00000   16.40000   16.60000 6.5428E-03 7.6995E-04
   18.00000   30.00000   16.60000   16.80000 1.0213E-02 1.1451E-03
   18.00000   30.00000   16.80000   17.00000 1.6638E-02 1.5670E-03
   18.00000   30.00000   17.00000   17.20000 2.1777E-02 1.9977E-03
   18.00000   30.00000   17.20000   17.40000 3.1879E-02 2.7503E-03
   18.00000   30.00000   17.40000   17.60000 4.9108E-02 3.7561E-03
   18.00000   30.00000   17.60000   17.80000 6.4750E-02 4.5987E-03
   18.00000   30.00000   17.80000   18.00000 6.9715E-02 4.8807E-03
   18.00000   30.00000   18.00000   18.20000 6.7167E-02 4.5619E-03
   18.00000   30.00000   18.20000   18.40000 5.9102E-02 4.0126E-03
   18.00000   30.00000   18.40000   18.60000 4.0351E-02 2.8745E-03
   18.00000   30.00000   18.60000   18.80000 2.1945E-02 1.7284E-03
   18.00000   30.00000   18.80000   19.00000 9.5010E-03 9.3392E-04
   18.00000   30.00000   19.00000   19.20000 4.6041E-03 5.6786E-04
   18.00000   30.00000   19.20000   19.40000 2.0106E-03 3.5642E-04
   18.00000   30.00000   19.40000   19.60000 6.3395E-04 2.1191E-04
   18.00000   30.00000   19.60000   19.80000 1.5090E-04 1.6179E-04
   18.00000   30.00000   19.80000   20.00000 4.9514E-06 1.2911E-04
   18.00000   45.00000    1.00000    1.20000 4.7792E-02 4.8480E-03
   18.00000   45.00000    1.20000    1.40000 4.4609E-02 3.5111E-03
   18.00000   45.00000    1.40000    1.60000 4.1113E-02 3.2086E-03
   18.00000   45.00000    1.60000    1.80000 3.1125E-02 2.2070E-03
   18.00000   45.00000    1.80000    2.00000 3.2513E-02 1.9941E-03
   18.00000   45.00000    2.00000    2.20000 3.2306E-02 1.9031E-03
   18.00000   45.00000    2.20000    2.40000 2.9806E-02 1.6822E-03
   18.00000   45.00000    2.40000    2.60000 2.5137E-02 1.4114E-03
   18.00000   45.00000    2.60000    2.80000 2.3432E-02 1.3194E-03
   18.00000   45.00000    2.80000    3.00000 2.2899E-02 1.2888E-03
   18.00000   45.00000    3.00000    3.20000 2.1783E-02 1.2395E-03
   18.00000   45.00000    3.20000    3.40000 2.0341E-02 1.1642E-03
   18.00000   45.00000    3.40000    3.60000 1.9047E-02 1.0980E-03
   18.00000   45.00000    3.60000    3.80000 1.6594E-02 1.0036E-03
   18.00000   45.00000    3.80000    4.00000 1.5546E-02 1.0896E-03
   18.00000   45.00000    4.00000    4.20000 1.2825E-02 9.4371E-04
   18.00000   45.00000    4.20000    4.40000 1.0789E-02 7.5878E-04
   18.00000   45.00000    4.40000    4.60000 9.5555E-03 8.4747E-04
   18.00000   45.00000    4.60000    4.80000 8.8526E-03 1.0586E-03
   18.00000   45.00000    4.80000    5.00000 8.1636E-03 8.0942E-04
   18.00000   45.00000    5.00000    5.20000 7.4534E-03 4.9481E-04
   18.00000   45.00000    5.20000    5.40000 6.7424E-03 3.3919E-04
   18.00000   45.00000    5.40000    5.60000 6.0522E-03 5.0800E-04
   18.00000   45.00000    5.60000    5.80000 6.4953E-03 5.1977E-04
   18.00000   45.00000    5.80000    6.00000 5.7792E-03 4.7144E-04
   18.00000   45.00000    6.00000    6.20000 5.7165E-03 4.7013E-04
   18.00000   45.00000    6.20000    6.40000 4.5395E-03 3.8937E-04
   18.00000   45.00000    6.40000    6.60000 4.5370E-03 3.7559E-04
   18.00000   45.00000    6.60000    6.80000 4.6016E-03 3.8085E-04
   18.00000   45.00000    6.80000    7.00000 4.7074E-03 4.0290E-04
   18.00000   45.00000    7.00000    7.20000 4.6433E-03 4.3396E-04
   18.00000   45.00000    7.20000    7.40000 4.1211E-03 4.0009E-04
   18.00000   45.00000    7.40000    7.60000 4.0987E-03 4.3069E-04
   18.00000   45.00000    7.60000    7.80000 3.8119E-03 4.0408E-04
   18.00000   45.00000    7.80000    8.00000 3.4289E-03 3.8752E-04
   18.00000   45.00000    8.00000    8.20000 2.9590E-03 3.6091E-04
   18.00000   45.00000    8.20000    8.40000 3.1915E-03 3.6785E-04
   18.00000   45.00000    8.40000    8.60000 2.5254E-03 3.5558E-04
   18.00000   45.00000    8.60000    8.80000 3.4187E-03 3.9540E-04
   18.00000   45.00000    8.80000    9.00000 2.0672E-03 3.3048E-04
   18.00000   45.00000    9.00000    9.20000 3.5814E-03 4.1662E-04
   18.00000   45.00000    9.20000    9.40000 2.9175E-03 3.8116E-04
   18.00000   45.00000    9.40000    9.60000 3.0754E-03 3.8368E-04
   18.00000   45.00000    9.60000    9.80000 2.7433E-03 3.6456E-04
   18.00000   45.00000    9.80000   10.00000 2.7230E-03 3.3694E-04
   18.00000   45.00000   10.00000   10.20000 2.9994E-03 3.4796E-04
   18.00000   45.00000   10.20000   10.40000 2.5801E-03 3.5316E-04
   18.00000   45.00000   10.40000   10.60000 3.1866E-03 3.7918E-04
   18.00000   45.00000   10.60000   10.80000 3.4597E-03 3.9672E-04
   18.00000   45.00000   10.80000   11.00000 2.5553E-03 3.5582E-04
   18.00000   45.00000   11.00000   11.20000 2.6306E-03 3.6479E-04
   18.00000   45.00000   11.20000   11.40000 2.5956E-03 3.6041E-04
   18.00000   45.00000   11.40000   11.60000 2.3409E-03 3.2201E-04
   18.00000   45.00000   11.60000   11.80000 2.1497E-03 3.1112E-04
   18.00000   45.00000   11.80000   12.00000 2.1179E-03 3.1555E-04
   18.00000   45.00000   12.00000   12.20000 2.4015E-03 3.4921E-04
   18.00000   45.00000   12.20000   12.40000 2.1758E-03 3.4757E-04
   18.00000   45.00000   12.40000   12.60000 2.8188E-03 3.6805E-04
   18.00000   45.00000   12.60000   12.80000 2.5301E-03 3.6142E-04
   18.00000   45.00000   12.80000   13.00000 4.4126E-03 4.7858E-04
   18.00000   45.00000   13.00000   13.20000 5.3257E-03 5.5968E-04
   18.00000   45.00000   13.20000   13.40000 5.1243E-03 5.4082E-04
   18.00000   45.00000   13.40000   13.60000 4.0757E-03 4.9762E-04
   18.00000   45.00000   13.60000   13.80000 2.9226E-03 4.0729E-04
   18.00000   45.00000   13.80000   14.00000 1.9617E-03 3.4159E-04
   18.00000   45.00000   14.00000   14.20000 2.0412E-03 3.3392E-04
   18.00000   45.00000   14.20000   14.40000 2.0096E-03 3.0871E-04
   18.00000   45.00000   14.40000   14.60000 2.2799E-03 3.0736E-04
   18.00000   45.00000   14.60000   14.80000 2.2773E-03 2.9104E-04
   18.00000   45.00000   14.80000   15.00000 2.6609E-03 3.1270E-04
   18.00000   45.00000   15.00000   15.20000 2.0908E-03 2.7514E-04
   18.00000   45.00000   15.20000   15.40000 9.3561E-04 2.1432E-04
   18.00000   45.00000   15.40000   15.60000 1.4488E-03 2.3460E-04
   18.00000   45.00000   15.60000   15.80000 5.8025E-04 1.9531E-04
   18.00000   45.00000   15.80000   16.00000 1.2851E-03 2.3967E-04
   18.00000   45.00000   16.00000   16.20000 1.5126E-03 2.7616E-04
   18.00000   45.00000   16.20000   16.40000 1.6796E-03 3.0657E-04
   18.00000   45.00000   16.40000   16.60000 5.1210E-03 5.8161E-04
   18.00000   45.00000   16.60000   16.80000 7.8848E-03 8.3451E-04
   18.00000   45.00000   16.80000   17.00000 1.2212E-02 1.1966E-03
   18.00000   45.00000   17.00000   17.20000 1.9075E-02 1.7038E-03
   18.00000   45.00000   17.20000   17.40000 3.1198E-02 2.5287E-03
   18.00000   45.00000   17.40000   17.60000 4.9557E-02 3.6871E-03
   18.00000   45.00000   17.60000   17.80000 6.3988E-02 4.6426E-03
   18.00000   45.00000   17.80000   18.00000 6.8847E-02 4.9691E-03
   18.00000   45.00000   18.00000   18.20000 5.7469E-02 4.1827E-03
   18.00000   45.00000   18.20000   18.40000 3.7105E-02 2.8052E-03
   18.00000   45.00000   18.40000   18.60000 2.1716E-02 1.7348E-03
   18.00000   45.00000   18.60000   18.80000 8.5783E-03 8.3124E-04
   18.00000   45.00000   18.80000   19.00000 3.2496E-03 4.2771E-04
   18.00000   45.00000   19.00000   19.20000 1.7432E-03 2.7604E-04
   18.00000   45.00000   19.20000   19.40000 6.2421E-04 1.6723E-04
   18.00000   45.00000   19.40000   19.60000 3.6909E-04 1.3128E-04
   18.00000   45.00000   19.60000   19.80000 2.9448E-05 8.7637E-05
   18.00000   45.00000   19.80000   20.00000 1.2168E-04 9.0331E-05
   18.00000   60.00000    1.00000    1.20000 4.7085E-02 5.8738E-03
   18.00000   60.00000    1.20000    1.40000 4.0806E-02 3.2212E-03
   18.00000   60.00000    1.40000    1.60000 4.2940E-02 3.1137E-03
   18.00000   60.00000    1.60000    1.80000 3.5281E-02 2.3177E-03
   18.00000   60.00000    1.80000    2.00000 3.3246E-02 2.0103E-03
   18.00000   60.00000    2.00000    2.20000 2.8261E-02 1.6863E-03
   18.00000   60.00000    2.20000    2.40000 2.7544E-02 1.5552E-03
   18.00000   60.00000    2.40000    2.60000 2.3918E-02 1.3491E-03
   18.00000   60.00000    2.60000    2.80000 2.1452E-02 1.2257E-03
   18.00000   60.00000    2.80000    3.00000 2.0364E-02 1.1691E-03
   18.00000   60.00000    3.00000    3.20000 1.8607E-02 1.0751E-03
   18.00000   60.00000    3.20000    3.40000 1.7053E-02 1.0730E-03
   18.00000   60.00000    3.40000    3.60000 1.5539E-02 1.0386E-03
   18.00000   60.00000    3.60000    3.80000 1.3972E-02 9.9246E-04
   18.00000   60.00000    3.80000    4.00000 1.2468E-02 8.9843E-04
   18.00000   60.00000    4.00000    4.20000 1.0382E-02 7.5782E-04
   18.00000   60.00000    4.20000    4.40000 9.6481E-03 6.9002E-04
   18.00000   60.00000    4.40000    4.60000 8.9081E-03 7.5436E-04
   18.00000   60.00000    4.60000    4.80000 8.1691E-03 7.6317E-04
   18.00000   60.00000    4.80000    5.00000 7.4481E-03 5.8325E-04
   18.00000   60.00000    5.00000    5.20000 6.7138E-03 3.7912E-04
   18.00000   60.00000    5.20000    5.40000 5.9717E-03 4.8006E-04
   18.00000   60.00000    5.40000    5.60000 6.3768E-03 5.5033E-04
   18.00000   60.00000    5.60000    5.80000 5.3407E-03 5.1224E-04
   18.00000   60.00000    5.80000    6.00000 5.1889E-03 4.7931E-04
   18.00000   60.00000    6.00000    6.20000 4.5917E-03 4.5025E-04
   18.00000   60.00000    6.20000    6.40000 4.1416E-03 4.0736E-04
   18.00000   60.00000    6.40000    6.60000 4.1936E-03 4.0144E-04
   18.00000   60.00000    6.60000    6.80000 3.7359E-03 3.6408E-04
   18.00000   60.00000    6.80000    7.00000 3.4068E-03 3.8513E-04
   18.00000   60.00000    7.00000    7.20000 3.7509E-03 4.0205E-04
   18.00000   60.00000    7.20000    7.40000 2.5652E-03 3.5377E-04
   18.00000   60.00000    7.40000    7.60000 3.1049E-03 3.7515E-04
   18.00000   60.00000    7.60000    7.80000 3.1017E-03 3.6770E-04
   18.00000   60.00000    7.80000    8.00000 2.5613E-03 3.3643E-04
   18.00000   60.00000    8.00000    8.20000 3.0829E-03 3.6731E-04
   18.00000   60.00000    8.20000    8.40000 1.9472E-03 3.0621E-04
   18.00000   60.00000    8.40000    8.60000 1.7303E-03 3.0221E-04
   18.00000   60.00000    8.60000    8.80000 2.0416E-03 3.0924E-04
   18.00000   60.00000    8.80000    9.00000 2.6439E-03 3.5196E-04
   18.00000   60.00000    9.00000    9.20000 2.5836E-03 3.5748E-04
   18.00000   60.00000    9.20000    9.40000 2.0646E-03 3.3395E-04
   18.00000   60.00000    9.40000    9.60000 2.1642E-03 3.5119E-04
   18.00000   60.00000    9.60000    9.80000 3.0545E-03 3.5352E-04
   18.00000   60.00000    9.80000   10.00000 2.6226E-03 3.5919E-04
   18.00000   60.00000   10.00000   10.20000 2.4717E-03 3.3600E-04
   18.00000   60.00000   10.20000   10.40000 2.2112E-03 3.4547E-04
   18.00000   60.00000   10.40000   10.60000 1.8751E-03 3.2384E-04
   18.00000   60.00000   10.60000   10.80000 1.5432E-03 2.9043E-04
   18.00000   60.00000   10.80000   11.00000 2.6062E-03 3.4684E-04
   18.00000   60.00000   11.00000   11.20000 3.0721E-03 3.8051E-04
   18.00000   60.00000   11.20000   11.40000 1.8314E-03 3.0021E-04
   18.00000   60.00000   11.40000   11.60000 2.0937E-03 3.2476E-04
   18.00000   60.00000   11.60000   11.80000 1.3077E-03 2.9777E-04
   18.00000   60.00000   11.80000   12.00000 2.0760E-03 3.3307E-04
   18.00000   60.00000   12.00000   12.20000 1.9416E-03 3.3404E-04
   18.00000   60.00000   12.20000   12.40000 2.4198E-03 3.5717E-04
   18.00000   60.00000   12.40000   12.60000 3.2222E-03 4.1250E-04
   18.00000   60.00000   12.60000   12.80000 2.9216E-03 4.3000E-04
   18.00000   60.00000   12.80000   13.00000 2.6400E-03 4.2440E-04
   18.00000   60.00000   13.00000   13.20000 2.7642E-03 4.3705E-04
   18.00000   60.00000   13.20000   13.40000 2.9152E-03 4.3350E-04
   18.00000   60.00000   13.40000   13.60000 2.5575E-03 4.1840E-04
   18.00000   60.00000   13.60000   13.80000 1.8895E-03 3.5865E-04
   18.00000   60.00000   13.80000   14.00000 1.4402E-03 3.1810E-04
   18.00000   60.00000   14.00000   14.20000 1.8967E-03 3.4521E-04
   18.00000   60.00000   14.20000   14.40000 1.3086E-03 2.6412E-04
   18.00000   60.00000   14.40000   14.60000 1.9949E-03 3.0590E-04
   18.00000   60.00000   14.60000   14.80000 1.3152E-03 2.7365E-04
   18.00000   60.00000   14.80000   15.00000 9.0094E-04 2.5608E-04
   18.00000   60.00000   15.00000   15.20000 7.1670E-04 2.3087E-04
   18.00000   60.00000   15.20000   15.40000 4.9277E-04 2.5071E-04
   18.00000   60.00000   15.40000   15.60000 9.2146E-04 2.5328E-04
   18.00000   60.00000   15.60000   15.80000 5.9919E-04 2.3636E-04
   18.00000   60.00000   15.80000   16.00000 1.3672E-03 2.8489E-04
   18.00000   60.00000   16.00000   16.20000 1.6586E-03 3.0820E-04
   18.00000   60.00000   16.20000   16.40000 1.7907E-03 3.9793E-04
   18.00000   60.00000   16.40000   16.60000 3.8504E-03 6.1707E-04
   18.00000   60.00000   16.60000   16.80000 5.2158E-03 7.5407E-04
   18.00000   60.00000   16.80000   17.00000 8.9223E-03 1.0378E-03
   18.00000   60.00000   17.00000   17.20000 1.1144E-02 1.1568E-03
   18.00000   60.00000   17.20000   17.40000 1.6206E-02 1.3921E-03
   18.00000   60.00000   17.40000   17.60000 2.4155E-02 1.7789E-03
   18.00000   60.00000   17.60000   17.80000 2.5744E-02 1.8389E-03
   18.00000   60.00000   17.80000   18.00000 1.9945E-02 1.4784E-03
   18.00000   60.00000   18.00000   18.20000 1.3886E-02 1.0921E-03
   18.00000   60.00000   18.20000   18.40000 7.3409E-03 6.7686E-04
   18.00000   60.00000   18.40000   18.60000 2.6202E-03 3.6063E-04
   18.00000   60.00000   18.60000   18.80000 1.3317E-03 2.3420E-04
   18.00000   60.00000   18.80000   19.00000 4.8328E-04 1.4549E-04
   18.00000   60.00000   19.00000   19.20000 1.1781E-04 1.2188E-04
   18.00000   60.00000   19.20000   19.40000 2.3059E-04 1.0465E-04
   18.00000   60.00000   19.40000   19.60000 2.0290E-04 9.5530E-05
   18.00000   60.00000   19.60000   19.80000 1.0462E-04 9.2312E-05
   18.00000   75.00000    1.00000    1.20000 3.2022E-02 3.2175E-03
   18.00000   75.00000    1.20000    1.40000 3.7345E-02 2.9684E-03
   18.00000   75.00000    1.40000    1.60000 3.5140E-02 3.0650E-03
   18.00000   75.00000    1.60000    1.80000 3.4557E-02 2.2509E-03
   18.00000   75.00000    1.80000    2.00000 3.2632E-02 2.0368E-03
   18.00000   75.00000    2.00000    2.20000 2.8290E-02 1.7170E-03
   18.00000   75.00000    2.20000    2.40000 2.5664E-02 1.4909E-03
   18.00000   75.00000    2.40000    2.60000 2.3125E-02 1.3172E-03
   18.00000   75.00000    2.60000    2.80000 2.0775E-02 1.2350E-03
   18.00000   75.00000    2.80000    3.00000 1.9225E-02 1.1349E-03
   18.00000   75.00000    3.00000    3.20000 1.7794E-02 1.0432E-03
   18.00000   75.00000    3.20000    3.40000 1.6179E-02 1.0122E-03
   18.00000   75.00000    3.40000    3.60000 1.4608E-02 9.2349E-04
   18.00000   75.00000    3.60000    3.80000 1.3010E-02 9.6992E-04
   18.00000   75.00000    3.80000    4.00000 1.1404E-02 8.6271E-04
   18.00000   75.00000    4.00000    4.20000 1.0106E-02 7.4212E-04
   18.00000   75.00000    4.20000    4.40000 8.6699E-03 5.9806E-04
   18.00000   75.00000    4.40000    4.60000 8.4946E-03 6.5079E-04
   18.00000   75.00000    4.60000    4.80000 7.7480E-03 6.0955E-04
   18.00000   75.00000    4.80000    5.00000 6.9887E-03 4.9442E-04
   18.00000   75.00000    5.00000    5.20000 6.2409E-03 3.8723E-04
   18.00000   75.00000    5.20000    5.40000 5.4899E-03 5.0492E-04
   18.00000   75.00000    5.40000    5.60000 6.0239E-03 5.4236E-04
   18.00000   75.00000    5.60000    5.80000 4.4996E-03 4.6716E-04
   18.00000   75.00000    5.80000    6.00000 5.0428E-03 5.0382E-04
   18.00000   75.00000    6.00000    6.20000 4.2023E-03 4.3105E-04
   18.00000   75.00000    6.20000    6.40000 4.7863E-03 4.6438E-04
   18.00000   75.00000    6.40000    6.60000 4.1104E-03 4.1288E-04
   18.00000   75.00000    6.60000    6.80000 3.4539E-03 3.9883E-04
   18.00000   75.00000    6.80000    7.00000 3.2155E-03 3.8129E-04
   18.00000   75.00000    7.00000    7.20000 3.3038E-03 4.0932E-04
   18.00000   75.00000    7.20000    7.40000 3.4650E-03 4.0459E-04
   18.00000   75.00000    7.40000    7.60000 2.8816E-03 3.6390E-04
   18.00000   75.00000    7.60000    7.80000 2.9878E-03 3.7413E-04
   18.00000   75.00000    7.80000    8.00000 2.5646E-03 3.4936E-04
   18.00000   75.00000    8.00000    8.20000 3.2575E-03 3.8192E-04
   18.00000   75.00000    8.20000    8.40000 2.6662E-03 3.4008E-04
   18.00000   75.00000    8.40000    8.60000 2.2484E-03 3.2937E-04
   18.00000   75.00000    8.60000    8.80000 1.9449E-03 2.9613E-04
   18.00000   75.00000    8.80000    9.00000 2.4350E-03 3.2702E-04
   18.00000   75.00000    9.00000    9.20000 1.4097E-03 2.7225E-04
   18.00000   75.00000    9.20000    9.40000 1.9764E-03 2.9225E-04
   18.00000   75.00000    9.40000    9.60000 1.5177E-03 3.0221E-04
   18.00000   75.00000    9.60000    9.80000 2.0032E-03 3.0937E-04
   18.00000   75.00000    9.80000   10.00000 1.8365E-03 3.0856E-04
   18.00000   75.00000   10.00000   10.20000 1.9653E-03 3.1156E-04
   18.00000   75.00000   10.20000   10.40000 1.5542E-03 3.0584E-04
   18.00000   75.00000   10.40000   10.60000 2.5837E-03 3.5942E-04
   18.00000   75.00000   10.60000   10.80000 2.0431E-03 3.3389E-04
   18.00000   75.00000   10.80000   11.00000 2.3923E-03 3.6469E-04
   18.00000   75.00000   11.00000   11.20000 2.1471E-03 3.3636E-04
   18.00000   75.00000   11.20000   11.40000 1.1859E-03 2.8026E-04
   18.00000   75.00000   11.40000   11.60000 1.4489E-03 3.0749E-04
   18.00000   75.00000   11.60000   11.80000 1.7647E-03 3.2564E-04
   18.00000   75.00000   11.80000   12.00000 1.0183E-03 3.0372E-04
   18.00000   75.00000   12.00000   12.20000 1.5557E-03 3.2936E-04
   18.00000   75.00000   12.20000   12.40000 2.0637E-03 3.3841E-04
   18.00000   75.00000   12.40000   12.60000 2.2029E-03 3.8608E-04
   18.00000   75.00000   12.60000   12.80000 2.1745E-03 3.7242E-04
   18.00000   75.00000   12.80000   13.00000 2.3919E-03 3.8520E-04
   18.00000   75.00000   13.00000   13.20000 3.1412E-03 4.2757E-04
   18.00000   75.00000   13.20000   13.40000 2.0784E-03 3.6803E-04
   18.00000   75.00000   13.40000   13.60000 2.0477E-03 3.0771E-04
   18.00000   75.00000   13.60000   13.80000 1.0760E-03 2.8886E-04
   18.00000   75.00000   13.80000   14.00000 1.2249E-03 2.9064E-04
   18.00000   75.00000   14.00000   14.20000 1.6057E-03 3.0283E-04
   18.00000   75.00000   14.20000   14.40000 1.1158E-03 2.6579E-04
   18.00000   75.00000   14.40000   14.60000 1.3171E-03 2.9009E-04
   18.00000   75.00000   14.60000   14.80000 1.3457E-03 2.8950E-04
   18.00000   75.00000   14.80000   15.00000 1.5664E-03 3.1085E-04
   18.00000   75.00000   15.00000   15.40000 7.9212E-04 3.0118E-04
   18.00000   75.00000   15.40000   15.60000 8.6447E-04 2.6144E-04
   18.00000   75.00000   15.60000   15.80000 4.2465E-04 2.8471E-04
   18.00000   75.00000   15.80000   16.00000 4.8485E-04 2.7944E-04
   18.00000   75.00000   16.00000   16.20000 2.4212E-03 3.8607E-04
   18.00000   75.00000   16.20000   16.40000 2.3369E-03 4.6635E-04
   18.00000   75.00000   16.40000   16.60000 4.6153E-03 6.0489E-04
   18.00000   75.00000   16.60000   16.80000 7.4840E-03 7.5539E-04
   18.00000   75.00000   16.80000   17.00000 1.0026E-02 9.5077E-04
   18.00000   75.00000   17.00000   17.20000 1.4764E-02 1.2395E-03
   18.00000   75.00000   17.20000   17.40000 1.9908E-02 1.5643E-03
   18.00000   75.00000   17.40000   17.60000 2.2510E-02 1.7252E-03
   18.00000   75.00000   17.60000   17.80000 2.3082E-02 1.7524E-03
   18.00000   75.00000   17.80000   18.00000 1.9065E-02 1.4760E-03
   18.00000   75.00000   18.00000   18.20000 1.1600E-02 9.8629E-04
   18.00000   75.00000   18.20000   18.40000 5.9805E-03 6.0044E-04
   18.00000   75.00000   18.40000   18.60000 2.6265E-03 3.5928E-04
   18.00000   75.00000   18.60000   18.80000 5.9527E-04 1.6064E-04
   18.00000   75.00000   18.80000   19.00000 1.4557E-04 1.1109E-04
   18.00000   90.00000    1.00000    1.20000 3.4008E-02 3.1446E-03
   18.00000   90.00000    1.20000    1.40000 3.4732E-02 2.7588E-03
   18.00000   90.00000    1.40000    1.60000 3.4144E-02 2.6954E-03
   18.00000   90.00000    1.60000    1.80000 3.4496E-02 2.2267E-03
   18.00000   90.00000    1.80000    2.00000 3.1000E-02 1.9351E-03
   18.00000   90.00000    2.00000    2.20000 2.6396E-02 1.5912E-03
   18.00000   90.00000    2.20000    2.40000 2.3783E-02 1.3748E-03
   18.00000   90.00000    2.40000    2.60000 2.3129E-02 1.2996E-03
   18.00000   90.00000    2.60000    2.80000 2.1423E-02 1.2579E-03
   18.00000   90.00000    2.80000    3.00000 1.7770E-02 1.0358E-03
   18.00000   90.00000    3.00000    3.20000 1.6524E-02 9.5343E-04
   18.00000   90.00000    3.20000    3.40000 1.5906E-02 9.1567E-04
   18.00000   90.00000    3.40000    3.60000 1.4052E-02 8.3795E-04
   18.00000   90.00000    3.60000    3.80000 1.3276E-02 8.8168E-04
   18.00000   90.00000    3.80000    4.00000 1.1768E-02 8.6735E-04
   18.00000   90.00000    4.00000    4.20000 9.4523E-03 6.1667E-04
   18.00000   90.00000    4.20000    4.40000 8.5071E-03 5.2597E-04
   18.00000   90.00000    4.40000    4.60000 8.0536E-03 7.0147E-04
   18.00000   90.00000    4.60000    4.80000 7.3881E-03 5.9034E-04
   18.00000   90.00000    4.80000    5.00000 6.7152E-03 3.9882E-04
   18.00000   90.00000    5.00000    5.20000 6.0479E-03 3.1863E-04
   18.00000   90.00000    5.20000    5.40000 5.3841E-03 4.5001E-04
   18.00000   90.00000    5.40000    5.60000 5.7469E-03 4.6088E-04
   18.00000   90.00000    5.60000    5.80000 4.0848E-03 3.9751E-04
   18.00000   90.00000    5.80000    6.00000 4.7779E-03 4.1973E-04
   18.00000   90.00000    6.00000    6.20000 4.4872E-03 4.1547E-04
   18.00000   90.00000    6.20000    6.40000 3.8640E-03 3.7765E-04
   18.00000   90.00000    6.40000    6.60000 3.8274E-03 3.6236E-04
   18.00000   90.00000    6.60000    6.80000 2.9571E-03 3.2551E-04
   18.00000   90.00000    6.80000    7.00000 3.5467E-03 3.4034E-04
   18.00000   90.00000    7.00000    7.20000 3.5944E-03 3.4800E-04
   18.00000   90.00000    7.20000    7.40000 3.6240E-03 3.6128E-04
   18.00000   90.00000    7.40000    7.60000 2.6972E-03 3.1320E-04
   18.00000   90.00000    7.60000    7.80000 2.0494E-03 2.7707E-04
   18.00000   90.00000    7.80000    8.00000 2.7876E-03 3.0938E-04
   18.00000   90.00000    8.00000    8.20000 2.0622E-03 2.9044E-04
   18.00000   90.00000    8.20000    8.40000 2.2339E-03 2.7358E-04
   18.00000   90.00000    8.40000    8.60000 1.8567E-03 2.5244E-04
   18.00000   90.00000    8.60000    8.80000 1.9280E-03 2.5470E-04
   18.00000   90.00000    8.80000    9.00000 2.4015E-03 2.8233E-04
   18.00000   90.00000    9.00000    9.20000 2.1407E-03 2.6776E-04
   18.00000   90.00000    9.20000    9.40000 1.3586E-03 2.4268E-04
   18.00000   90.00000    9.40000    9.60000 1.2059E-03 2.4665E-04
   18.00000   90.00000    9.60000    9.80000 2.3263E-03 2.8537E-04
   18.00000   90.00000    9.80000   10.00000 2.0994E-03 2.6661E-04
   18.00000   90.00000   10.00000   10.20000 1.9375E-03 2.6723E-04
   18.00000   90.00000   10.20000   10.40000 2.2052E-03 3.0440E-04
   18.00000   90.00000   10.40000   10.60000 1.4245E-03 2.4574E-04
   18.00000   90.00000   10.60000   10.80000 1.5202E-03 2.5474E-04
   18.00000   90.00000   10.80000   11.00000 1.4323E-03 2.4590E-04
   18.00000   90.00000   11.00000   11.20000 1.5279E-03 2.6908E-04
   18.00000   90.00000   11.20000   11.40000 1.2408E-03 2.4990E-04
   18.00000   90.00000   11.40000   11.60000 1.2737E-03 2.5474E-04
   18.00000   90.00000   11.60000   11.80000 1.3097E-03 2.5756E-04
   18.00000   90.00000   11.80000   12.00000 6.2557E-04 2.2410E-04
   18.00000   90.00000   12.00000   12.20000 9.4254E-04 2.3882E-04
   18.00000   90.00000   12.20000   12.40000 1.5700E-03 2.6556E-04
   18.00000   90.00000   12.40000   12.60000 1.9635E-03 3.0301E-04
   18.00000   90.00000   12.60000   12.80000 1.6599E-03 2.9570E-04
   18.00000   90.00000   12.80000   13.00000 2.1088E-03 3.0489E-04
   18.00000   90.00000   13.00000   13.20000 1.3760E-03 2.6650E-04
   18.00000   90.00000   13.20000   13.40000 1.8536E-03 2.6816E-04
   18.00000   90.00000   13.40000   13.60000 9.0774E-04 2.3749E-04
   18.00000   90.00000   13.60000   13.80000 1.3441E-03 2.6216E-04
   18.00000   90.00000   13.80000   14.00000 1.2712E-03 2.6134E-04
   18.00000   90.00000   14.00000   14.20000 1.3725E-03 2.6183E-04
   18.00000   90.00000   14.20000   14.40000 1.0771E-03 2.3897E-04
   18.00000   90.00000   14.40000   14.60000 9.9576E-04 2.6074E-04
   18.00000   90.00000   14.60000   14.80000 1.4044E-03 2.8033E-04
   18.00000   90.00000   14.80000   15.00000 1.0776E-03 2.5689E-04
   18.00000   90.00000   15.00000   15.20000 8.5808E-04 2.5443E-04
   18.00000   90.00000   15.20000   15.40000 8.0860E-04 2.2037E-04
   18.00000   90.00000   15.40000   15.60000 7.6376E-04 1.9387E-04
   18.00000   90.00000   15.60000   15.80000 6.5518E-04 2.2279E-04
   18.00000   90.00000   15.80000   16.00000 1.1267E-03 2.9596E-04
   18.00000   90.00000   16.00000   16.20000 2.3540E-03 3.6141E-04
   18.00000   90.00000   16.20000   16.40000 3.5103E-03 4.5474E-04
   18.00000   90.00000   16.40000   16.60000 6.0072E-03 5.9832E-04
   18.00000   90.00000   16.60000   16.80000 9.3036E-03 7.7853E-04
   18.00000   90.00000   16.80000   17.00000 1.3225E-02 1.0093E-03
   18.00000   90.00000   17.00000   17.20000 1.8621E-02 1.3317E-03
   18.00000   90.00000   17.20000   17.40000 1.9287E-02 1.3792E-03
   18.00000   90.00000   17.40000   17.60000 1.8786E-02 1.3491E-03
   18.00000   90.00000   17.60000   17.80000 1.3427E-02 1.0176E-03
   18.00000   90.00000   17.80000   18.00000 8.5498E-03 7.0803E-04
   18.00000   90.00000   18.00000   18.20000 3.4680E-03 3.7216E-04
   18.00000   90.00000   18.20000   18.40000 1.0613E-03 1.8739E-04
   18.00000   90.00000   18.40000   18.80000 3.3359E-04 1.2695E-04
   18.00000   90.00000   18.80000   19.20000 1.7312E-06 5.4741E-05
   18.00000   90.00000   19.20000   19.60000 5.4587E-05 6.0672E-05
   18.00000  120.00000    1.00000    1.20000 4.6051E-02 4.2828E-03
   18.00000  120.00000    1.20000    1.40000 3.4716E-02 2.8038E-03
   18.00000  120.00000    1.40000    1.60000 3.6072E-02 2.5644E-03
   18.00000  120.00000    1.60000    1.80000 2.9506E-02 1.9755E-03
   18.00000  120.00000    1.80000    2.00000 2.6900E-02 1.7274E-03
   18.00000  120.00000    2.00000    2.20000 2.3911E-02 1.4672E-03
   18.00000  120.00000    2.20000    2.40000 2.2463E-02 1.2985E-03
   18.00000  120.00000    2.40000    2.60000 2.0462E-02 1.1812E-03
   18.00000  120.00000    2.60000    2.80000 1.8396E-02 1.0803E-03
   18.00000  120.00000    2.80000    3.00000 1.6474E-02 9.5274E-04
   18.00000  120.00000    3.00000    3.20000 1.5688E-02 8.9894E-04
   18.00000  120.00000    3.20000    3.40000 1.4795E-02 8.4826E-04
   18.00000  120.00000    3.40000    3.60000 1.3210E-02 7.8166E-04
   18.00000  120.00000    3.60000    3.80000 1.2625E-02 8.7510E-04
   18.00000  120.00000    3.80000    4.00000 9.9805E-03 7.4672E-04
   18.00000  120.00000    4.00000    4.20000 8.0882E-03 5.4181E-04
   18.00000  120.00000    4.20000    4.40000 7.7910E-03 5.3365E-04
   18.00000  120.00000    4.40000    4.60000 6.5767E-03 6.0095E-04
   18.00000  120.00000    4.60000    4.80000 6.0492E-03 4.4141E-04
   18.00000  120.00000    4.80000    5.00000 5.5274E-03 2.7930E-04
   18.00000  120.00000    5.00000    5.20000 4.9986E-03 3.3597E-04
   18.00000  120.00000    5.20000    5.40000 4.4670E-03 3.6364E-04
   18.00000  120.00000    5.40000    5.60000 3.7140E-03 3.2357E-04
   18.00000  120.00000    5.60000    5.80000 4.0300E-03 3.4664E-04
   18.00000  120.00000    5.80000    6.00000 3.6428E-03 3.3791E-04
   18.00000  120.00000    6.00000    6.20000 3.3686E-03 3.0710E-04
   18.00000  120.00000    6.20000    6.40000 2.9754E-03 2.8361E-04
   18.00000  120.00000    6.40000    6.60000 2.7784E-03 2.7482E-04
   18.00000  120.00000    6.60000    6.80000 3.1430E-03 3.0363E-04
   18.00000  120.00000    6.80000    7.00000 2.7664E-03 2.7807E-04
   18.00000  120.00000    7.00000    7.20000 2.3035E-03 2.5159E-04
   18.00000  120.00000    7.20000    7.40000 2.2830E-03 2.5237E-04
   18.00000  120.00000    7.40000    7.60000 2.0450E-03 2.3425E-04
   18.00000  120.00000    7.60000    7.80000 1.8893E-03 2.3262E-04
   18.00000  120.00000    7.80000    8.00000 1.6035E-03 2.2059E-04
   18.00000  120.00000    8.00000    8.20000 1.6103E-03 2.3237E-04
   18.00000  120.00000    8.20000    8.40000 1.4737E-03 2.1937E-04
   18.00000  120.00000    8.40000    8.60000 1.5247E-03 2.1210E-04
   18.00000  120.00000    8.60000    8.80000 1.4826E-03 2.1848E-04
   18.00000  120.00000    8.80000    9.00000 1.9626E-03 2.5270E-04
   18.00000  120.00000    9.00000    9.20000 1.6660E-03 2.4664E-04
   18.00000  120.00000    9.20000    9.40000 1.2391E-03 2.0779E-04
   18.00000  120.00000    9.40000    9.60000 1.5966E-03 2.2487E-04
   18.00000  120.00000    9.60000    9.80000 1.2884E-03 2.0670E-04
   18.00000  120.00000    9.80000   10.00000 1.4626E-03 2.1419E-04
   18.00000  120.00000   10.00000   10.20000 1.0375E-03 1.8621E-04
   18.00000  120.00000   10.20000   10.40000 1.4993E-03 2.1061E-04
   18.00000  120.00000   10.40000   10.60000 8.0361E-04 1.8481E-04
   18.00000  120.00000   10.60000   10.80000 1.0225E-03 1.8335E-04
   18.00000  120.00000   10.80000   11.00000 1.4715E-03 1.9845E-04
   18.00000  120.00000   11.00000   11.20000 1.1125E-03 1.8812E-04
   18.00000  120.00000   11.20000   11.40000 9.1434E-04 1.7438E-04
   18.00000  120.00000   11.40000   11.60000 1.0324E-03 1.8455E-04
   18.00000  120.00000   11.60000   11.80000 6.9987E-04 1.6889E-04
   18.00000  120.00000   11.80000   12.00000 8.1078E-04 1.6860E-04
   18.00000  120.00000   12.00000   12.20000 9.5384E-04 1.8381E-04
   18.00000  120.00000   12.20000   12.40000 9.4201E-04 1.9694E-04
   18.00000  120.00000   12.40000   12.60000 1.6139E-03 2.1558E-04
   18.00000  120.00000   12.60000   12.80000 1.7499E-03 2.5068E-04
   18.00000  120.00000   12.80000   13.00000 1.3214E-03 2.1365E-04
   18.00000  120.00000   13.00000   13.20000 6.8648E-04 1.8887E-04
   18.00000  120.00000   13.20000   13.40000 3.9382E-04 1.8748E-04
   18.00000  120.00000   13.40000   13.60000 4.7284E-04 1.9497E-04
   18.00000  120.00000   13.60000   13.80000 1.0788E-03 2.2914E-04
   18.00000  120.00000   13.80000   14.20000 2.4445E-04 2.1718E-04
   18.00000  120.00000   14.20000   14.40000 9.0384E-04 3.2602E-04
   18.00000  120.00000   14.40000   14.60000 7.1399E-04 3.5617E-04
   18.00000  120.00000   14.60000   15.00000 6.7198E-04 3.2935E-04
   18.00000  120.00000   15.00000   15.20000 3.7911E-04 2.9492E-04
   18.00000  120.00000   15.20000   15.40000 8.3311E-04 2.7309E-04
   18.00000  120.00000   15.40000   15.60000 2.8363E-05 1.8844E-04
   18.00000  120.00000   15.60000   15.80000 5.3773E-04 2.1931E-04
   18.00000  120.00000   15.80000   16.00000 9.1352E-04 2.1856E-04
   18.00000  120.00000   16.00000   16.20000 2.5388E-03 3.0825E-04
   18.00000  120.00000   16.20000   16.40000 3.6647E-03 3.6899E-04
   18.00000  120.00000   16.40000   16.60000 4.8631E-03 4.4611E-04
   18.00000  120.00000   16.60000   16.80000 7.0223E-03 5.7996E-04
   18.00000  120.00000   16.80000   17.00000 9.0353E-03 7.2050E-04
   18.00000  120.00000   17.00000   17.20000 9.0868E-03 7.2860E-04
   18.00000  120.00000   17.20000   17.40000 8.0205E-03 6.5983E-04
   18.00000  120.00000   17.40000   17.60000 6.2646E-03 5.4308E-04
   18.00000  120.00000   17.60000   17.80000 2.8346E-03 3.1451E-04
   18.00000  120.00000   17.80000   18.00000 1.3792E-03 2.0218E-04
   18.00000  120.00000   18.00000   18.20000 2.8310E-04 1.1131E-04
   18.00000  120.00000   18.20000   18.40000 2.9952E-05 6.0786E-05
   18.00000  120.00000   18.40000   18.60000 2.3332E-05 6.9493E-05
   18.00000  120.00000   18.60000   18.80000 1.4684E-04 7.8751E-05
   18.00000  150.00000    1.00000    1.20000 2.6442E-02 2.6584E-03
   18.00000  150.00000    1.20000    1.40000 3.4661E-02 2.8559E-03
   18.00000  150.00000    1.40000    1.60000 3.8520E-02 2.7331E-03
   18.00000  150.00000    1.60000    1.80000 3.1294E-02 2.1452E-03
   18.00000  150.00000    1.80000    2.00000 2.4704E-02 1.7135E-03
   18.00000  150.00000    2.00000    2.20000 2.4723E-02 1.5192E-03
   18.00000  150.00000    2.20000    2.40000 2.2161E-02 1.2791E-03
   18.00000  150.00000    2.40000    2.60000 2.1163E-02 1.2343E-03
   18.00000  150.00000    2.60000    2.80000 1.9780E-02 1.1607E-03
   18.00000  150.00000    2.80000    3.00000 1.6773E-02 9.6751E-04
   18.00000  150.00000    3.00000    3.20000 1.4523E-02 8.5642E-04
   18.00000  150.00000    3.20000    3.40000 1.5456E-02 8.9748E-04
   18.00000  150.00000    3.40000    3.60000 1.5535E-02 9.0945E-04
   18.00000  150.00000    3.60000    3.80000 1.2467E-02 9.2043E-04
   18.00000  150.00000    3.80000    4.00000 9.1901E-03 6.9545E-04
   18.00000  150.00000    4.00000    4.20000 7.8061E-03 5.1761E-04
   18.00000  150.00000    4.20000    4.40000 9.2129E-03 6.2842E-04
   18.00000  150.00000    4.40000    4.60000 8.1048E-03 5.8311E-04
   18.00000  150.00000    4.60000    4.80000 6.9813E-03 4.1394E-04
   18.00000  150.00000    4.80000    5.00000 5.8738E-03 3.2286E-04
   18.00000  150.00000    5.00000    5.20000 4.7505E-03 4.1654E-04
   18.00000  150.00000    5.20000    5.40000 4.6305E-03 4.1049E-04
   18.00000  150.00000    5.40000    5.60000 4.4220E-03 4.2889E-04
   18.00000  150.00000    5.60000    5.80000 3.7224E-03 4.1043E-04
   18.00000  150.00000    5.80000    6.00000 3.7668E-03 3.8271E-04
   18.00000  150.00000    6.00000    6.20000 3.7903E-03 3.7103E-04
   18.00000  150.00000    6.20000    6.40000 2.7280E-03 3.0741E-04
   18.00000  150.00000    6.40000    6.60000 3.1506E-03 3.1616E-04
   18.00000  150.00000    6.60000    6.80000 2.8578E-03 3.1106E-04
   18.00000  150.00000    6.80000    7.00000 2.5100E-03 2.9433E-04
   18.00000  150.00000    7.00000    7.20000 2.4538E-03 2.9766E-04
   18.00000  150.00000    7.20000    7.40000 2.2622E-03 2.8581E-04
   18.00000  150.00000    7.40000    7.60000 2.3042E-03 3.0425E-04
   18.00000  150.00000    7.60000    7.80000 2.0284E-03 2.7125E-04
   18.00000  150.00000    7.80000    8.00000 1.6528E-03 2.4320E-04
   18.00000  150.00000    8.00000    8.20000 1.5711E-03 2.5716E-04
   18.00000  150.00000    8.20000    8.40000 2.0163E-03 2.4514E-04
   18.00000  150.00000    8.40000    8.60000 1.8561E-03 2.6357E-04
   18.00000  150.00000    8.60000    8.80000 1.6686E-03 2.6359E-04
   18.00000  150.00000    8.80000    9.00000 1.6175E-03 2.4461E-04
   18.00000  150.00000    9.00000    9.20000 1.2730E-03 2.1489E-04
   18.00000  150.00000    9.20000    9.40000 1.5188E-03 2.2018E-04
   18.00000  150.00000    9.40000    9.60000 1.2554E-03 2.2867E-04
   18.00000  150.00000    9.60000    9.80000 1.2946E-03 1.9579E-04
   18.00000  150.00000    9.80000   10.00000 1.2915E-03 2.0305E-04
   18.00000  150.00000   10.00000   10.20000 1.1453E-03 1.8601E-04
   18.00000  150.00000   10.20000   10.40000 1.1744E-03 1.8774E-04
   18.00000  150.00000   10.40000   10.60000 8.4872E-04 1.8372E-04
   18.00000  150.00000   10.60000   10.80000 1.1530E-03 1.9902E-04
   18.00000  150.00000   10.80000   11.00000 8.2369E-04 1.5847E-04
   18.00000  150.00000   11.00000   11.20000 9.2810E-04 1.7143E-04
   18.00000  150.00000   11.20000   11.40000 9.9350E-04 1.7799E-04
   18.00000  150.00000   11.40000   11.60000 8.1956E-04 1.6709E-04
   18.00000  150.00000   11.60000   11.80000 8.3279E-04 1.8140E-04
   18.00000  150.00000   11.80000   12.00000 1.3839E-03 2.1477E-04
   18.00000  150.00000   12.00000   12.20000 1.5752E-03 2.4377E-04
   18.00000  150.00000   12.20000   12.40000 1.2596E-03 2.3975E-04
   18.00000  150.00000   12.40000   12.60000 1.1299E-03 2.3676E-04
   18.00000  150.00000   12.60000   12.80000 1.4489E-03 2.6403E-04
   18.00000  150.00000   12.80000   13.00000 6.9760E-04 2.3685E-04
   18.00000  150.00000   13.00000   13.20000 1.8351E-03 3.5374E-04
   18.00000  150.00000   13.20000   13.40000 1.3885E-03 4.7341E-04
   18.00000  150.00000   13.40000   13.60000 2.0030E-03 6.0582E-04
   18.00000  150.00000   13.60000   13.80000 8.9838E-04 5.5324E-04
   18.00000  150.00000   13.80000   14.20000 7.6269E-04 4.8899E-04
   18.00000  150.00000   14.20000   14.40000 3.1497E-04 3.0266E-04
   18.00000  150.00000   14.40000   14.60000 6.1915E-04 2.5857E-04
   18.00000  150.00000   14.60000   14.80000 7.6749E-04 2.5401E-04
   18.00000  150.00000   14.80000   15.00000 2.6271E-04 1.8351E-04
   18.00000  150.00000   15.00000   15.20000 3.7995E-04 1.5707E-04
   18.00000  150.00000   15.20000   15.40000 7.9729E-04 1.8038E-04
   18.00000  150.00000   15.40000   15.60000 1.1020E-03 1.8728E-04
   18.00000  150.00000   15.60000   15.80000 1.8363E-03 2.6567E-04
   18.00000  150.00000   15.80000   16.00000 2.1827E-03 2.7115E-04
   18.00000  150.00000   16.00000   16.20000 3.5464E-03 3.6999E-04
   18.00000  150.00000   16.20000   16.40000 4.1707E-03 4.0807E-04
   18.00000  150.00000   16.40000   16.60000 5.0012E-03 4.5652E-04
   18.00000  150.00000   16.60000   16.80000 5.8518E-03 5.1009E-04
   18.00000  150.00000   16.80000   17.00000 4.4295E-03 4.2078E-04
   18.00000  150.00000   17.00000   17.20000 3.0444E-03 3.3317E-04
   18.00000  150.00000   17.20000   17.40000 1.6967E-03 2.3184E-04
   18.00000  150.00000   17.40000   17.60000 8.2551E-04 1.6460E-04
   18.00000  150.00000   17.60000   17.80000 2.1507E-04 9.7193E-05
   18.00000  150.00000   17.80000   18.20000 2.0462E-04 9.0195E-05
   18.00000  150.00000   18.20000   18.40000 9.8661E-05 8.1413E-05
   18.00000  150.00000   18.40000   18.80000 4.6713E-05 6.6284E-05
   18.00000  150.00000   18.80000   19.20000 1.4133E-04 6.9499E-05
ENDDATA            973
ENDSUBENT          984
SUBENT        22343005   20030529   20031222   20050926       0000
BIB                  4          4
REACTION   (41-NB-93(N,X)0-NN-1,,DA/DE)
SAMPLE      Metallic cylinders 3 cm diam, 5 cm height
STATUS     Data submitted on diskette by Masanobu, 1997/08/05.
HISTORY    (20030529A) Reaction corrected.
ENDBIB               4
COMMON               1          3
EN
MEV
   11.50000
ENDCOMMON            3
DATA                 5        370
ANG        E-MIN      E-MAX      DATA       ERR-S
ADEG       MEV        MEV        B/SR/MEV   B/SR/MEV
   20.00000    6.00000    6.20000 1.9904E-03 2.9757E-04
   20.00000    6.20000    6.40000 3.0791E-03 4.6676E-04
   20.00000    6.40000    6.60000 6.0324E-03 6.6400E-04
   20.00000    6.60000    6.80000 6.3975E-03 6.7507E-04
   20.00000    6.80000    7.00000 5.2034E-03 6.4458E-04
   20.00000    7.00000    7.20000 4.9556E-03 6.5462E-04
   20.00000    7.20000    7.40000 4.9262E-03 6.8808E-04
   20.00000    7.40000    7.60000 4.2486E-03 6.3383E-04
   20.00000    7.60000    7.80000 4.4722E-03 6.4898E-04
   20.00000    7.80000    8.00000 4.8581E-03 6.4750E-04
   20.00000    8.00000    8.20000 4.5932E-03 6.1317E-04
   20.00000    8.20000    8.40000 5.9110E-03 6.8933E-04
   20.00000    8.40000    8.60000 6.2866E-03 6.9288E-04
   20.00000    8.60000    8.80000 5.2809E-03 6.6182E-04
   20.00000    8.80000    9.00000 7.0699E-03 7.7876E-04
   20.00000    9.00000    9.20000 9.2885E-03 9.7297E-04
   20.00000    9.20000    9.40000 1.1606E-02 1.2251E-03
   20.00000    9.40000    9.60000 1.2449E-02 1.3533E-03
   20.00000    9.60000    9.80000 1.2720E-02 1.4256E-03
   20.00000    9.80000   10.00000 1.5718E-02 1.5783E-03
   20.00000   10.00000   10.20000 2.7488E-02 2.5387E-03
   20.00000   10.20000   10.40000 5.3887E-02 4.4032E-03
   20.00000   10.40000   10.60000 1.0260E-01 7.7385E-03
   20.00000   10.60000   10.80000 1.8384E-01 1.3700E-02
   20.00000   10.80000   11.00000 4.0730E-01 2.9470E-02
   20.00000   11.00000   11.20000 1.0965E+00 8.1049E-02
   20.00000   11.20000   11.40000 2.1827E+00 1.6060E-01
   20.00000   11.40000   11.60000 2.6125E+00 1.9906E-01
   20.00000   11.60000   11.80000 2.0588E+00 1.5702E-01
   20.00000   11.80000   12.00000 1.0030E+00 7.7000E-02
   20.00000   12.00000   12.20000 2.5704E-01 2.0274E-02
   20.00000   12.20000   12.40000 5.7928E-02 5.1201E-03
   20.00000   12.40000   12.60000 2.5768E-02 2.6482E-03
   30.00000    6.00000    6.20000 4.2747E-03 4.6793E-04
   30.00000    6.20000    6.40000 3.7885E-03 5.3419E-04
   30.00000    6.40000    6.60000 3.6896E-03 5.4326E-04
   30.00000    6.60000    6.80000 6.0650E-03 6.8621E-04
   30.00000    6.80000    7.00000 4.5208E-03 5.7516E-04
   30.00000    7.00000    7.20000 4.9755E-03 6.4882E-04
   30.00000    7.20000    7.40000 4.4586E-03 6.3819E-04
   30.00000    7.40000    7.60000 4.3777E-03 5.9105E-04
   30.00000    7.60000    7.80000 4.3377E-03 6.0511E-04
   30.00000    7.80000    8.00000 4.2691E-03 5.7778E-04
   30.00000    8.00000    8.20000 4.0795E-03 5.5422E-04
   30.00000    8.20000    8.40000 3.8118E-03 5.3651E-04
   30.00000    8.40000    8.60000 6.0839E-03 6.6931E-04
   30.00000    8.60000    8.80000 5.1846E-03 6.6125E-04
   30.00000    8.80000    9.00000 5.4554E-03 6.7358E-04
   30.00000    9.00000    9.20000 6.9251E-03 7.6802E-04
   30.00000    9.20000    9.40000 7.7663E-03 9.0061E-04
   30.00000    9.40000    9.60000 6.0219E-03 8.3586E-04
   30.00000    9.60000    9.80000 7.4038E-03 8.6934E-04
   30.00000    9.80000   10.00000 7.9484E-03 9.7346E-04
   30.00000   10.00000   10.20000 1.1519E-02 1.2310E-03
   30.00000   10.20000   10.40000 1.6204E-02 1.5132E-03
   30.00000   10.40000   10.60000 3.2202E-02 2.4952E-03
   30.00000   10.60000   10.80000 4.5690E-02 3.3457E-03
   30.00000   10.80000   11.00000 9.8456E-02 6.4439E-03
   30.00000   11.00000   11.20000 2.6966E-01 1.6674E-02
   30.00000   11.20000   11.40000 5.3906E-01 3.2669E-02
   30.00000   11.40000   11.60000 6.6842E-01 4.1878E-02
   30.00000   11.60000   11.80000 5.2321E-01 3.2907E-02
   30.00000   11.80000   12.00000 2.6546E-01 1.7015E-02
   30.00000   12.00000   12.20000 7.8430E-02 5.4356E-03
   30.00000   12.20000   12.40000 1.7978E-02 1.6090E-03
   30.00000   12.40000   12.60000 7.3498E-03 8.8037E-04
   37.50000    6.00000    6.20000 4.7231E-03 5.5012E-04
   37.50000    6.20000    6.40000 4.6411E-03 5.6282E-04
   37.50000    6.40000    6.60000 4.5227E-03 5.7502E-04
   37.50000    6.60000    6.80000 5.3820E-03 6.1255E-04
   37.50000    6.80000    7.00000 4.8194E-03 5.9529E-04
   37.50000    7.00000    7.20000 4.5720E-03 5.9995E-04
   37.50000    7.20000    7.40000 5.1590E-03 6.3539E-04
   37.50000    7.40000    7.60000 4.3804E-03 5.7698E-04
   37.50000    7.60000    7.80000 4.9799E-03 5.8608E-04
   37.50000    7.80000    8.00000 4.6017E-03 5.5989E-04
   37.50000    8.00000    8.20000 5.5798E-03 5.9917E-04
   37.50000    8.20000    8.40000 5.7157E-03 6.5863E-04
   37.50000    8.40000    8.60000 5.9949E-03 6.5439E-04
   37.50000    8.60000    8.80000 6.2957E-03 6.8064E-04
   37.50000    8.80000    9.00000 6.1002E-03 6.8672E-04
   37.50000    9.00000    9.20000 7.1169E-03 7.5797E-04
   37.50000    9.20000    9.40000 7.0815E-03 7.8501E-04
   37.50000    9.40000    9.60000 6.6457E-03 7.5797E-04
   37.50000    9.60000    9.80000 5.7070E-03 6.9679E-04
   37.50000    9.80000   10.00000 5.5305E-03 7.2327E-04
   37.50000   10.00000   10.20000 6.5001E-03 7.3974E-04
   37.50000   10.20000   10.40000 8.5445E-03 8.4660E-04
   37.50000   10.40000   10.60000 1.0778E-02 1.0346E-03
   37.50000   10.60000   10.80000 1.1479E-02 1.0642E-03
   37.50000   10.80000   11.00000 2.1571E-02 1.6915E-03
   37.50000   11.00000   11.20000 6.2805E-02 3.6910E-03
   37.50000   11.20000   11.40000 1.1471E-01 6.2551E-03
   37.50000   11.40000   11.60000 1.2984E-01 7.0341E-03
   37.50000   11.60000   11.80000 9.5248E-02 5.2799E-03
   37.50000   11.80000   12.00000 5.0648E-02 3.0251E-03
   37.50000   12.00000   12.20000 1.9184E-02 1.4282E-03
   37.50000   12.20000   12.40000 1.1363E-02 1.0143E-03
   37.50000   12.40000   12.60000 6.3942E-03 7.0595E-04
   45.00000    6.00000    6.20000 3.7445E-03 5.7124E-04
   45.00000    6.20000    6.40000 4.9946E-03 6.8751E-04
   45.00000    6.40000    6.60000 3.9993E-03 6.5574E-04
   45.00000    6.60000    6.80000 4.2562E-03 7.4528E-04
   45.00000    6.80000    7.00000 3.7337E-03 6.6031E-04
   45.00000    7.00000    7.20000 4.6275E-03 6.0808E-04
   45.00000    7.20000    7.40000 2.6029E-03 5.1108E-04
   45.00000    7.40000    7.60000 4.3432E-03 5.9556E-04
   45.00000    7.60000    7.80000 3.5099E-03 5.4702E-04
   45.00000    7.80000    8.00000 2.9088E-03 4.8859E-04
   45.00000    8.00000    8.20000 3.0015E-03 4.9331E-04
   45.00000    8.20000    8.40000 6.0751E-03 7.2252E-04
   45.00000    8.40000    8.60000 5.4445E-03 7.0148E-04
   45.00000    8.60000    8.80000 6.6360E-03 7.5861E-04
   45.00000    8.80000    9.00000 4.6238E-03 6.3190E-04
   45.00000    9.00000    9.20000 6.7298E-03 8.1722E-04
   45.00000    9.20000    9.40000 7.8074E-03 8.7625E-04
   45.00000    9.40000    9.60000 6.0114E-03 7.5983E-04
   45.00000    9.60000    9.80000 4.5606E-03 6.7275E-04
   45.00000    9.80000   10.00000 3.5359E-03 6.2073E-04
   45.00000   10.00000   10.20000 3.4867E-03 5.8975E-04
   45.00000   10.20000   10.40000 6.1775E-03 8.1064E-04
   45.00000   10.40000   10.60000 7.8229E-03 9.1240E-04
   45.00000   10.60000   10.80000 1.1078E-02 1.1103E-03
   45.00000   10.80000   11.00000 1.6603E-02 1.5106E-03
   45.00000   11.00000   11.20000 3.4631E-02 2.4081E-03
   45.00000   11.20000   11.40000 4.9030E-02 3.1772E-03
   45.00000   11.40000   11.60000 4.9620E-02 3.1773E-03
   45.00000   11.60000   11.80000 2.7771E-02 2.1038E-03
   45.00000   11.80000   12.00000 1.1191E-02 1.1346E-03
   45.00000   12.00000   12.20000 2.0067E-03 4.5409E-04
   45.00000   12.20000   12.40000 7.3564E-04 2.5162E-04
   45.00000   12.40000   12.60000 5.1485E-04 2.4377E-04
   52.50000    6.00000    6.20000 4.6427E-03 5.0678E-04
   52.50000    6.20000    6.40000 4.5317E-03 5.0970E-04
   52.50000    6.40000    6.60000 3.4304E-03 4.7118E-04
   52.50000    6.60000    6.80000 4.0857E-03 5.1145E-04
   52.50000    6.80000    7.00000 2.6091E-03 4.6303E-04
   52.50000    7.00000    7.20000 3.5167E-03 4.5224E-04
   52.50000    7.20000    7.40000 2.8687E-03 4.0447E-04
   52.50000    7.40000    7.60000 3.4648E-03 4.5993E-04
   52.50000    7.60000    7.80000 3.1243E-03 4.3580E-04
   52.50000    7.80000    8.00000 2.2216E-03 3.7984E-04
   52.50000    8.00000    8.20000 3.0981E-03 4.3179E-04
   52.50000    8.20000    8.40000 4.0238E-03 4.9836E-04
   52.50000    8.40000    8.60000 4.4940E-03 5.7850E-04
   52.50000    8.60000    8.80000 4.8557E-03 5.5196E-04
   52.50000    8.80000    9.00000 4.1275E-03 5.5141E-04
   52.50000    9.00000    9.20000 6.0326E-03 6.4349E-04
   52.50000    9.20000    9.40000 7.0266E-03 7.2083E-04
   52.50000    9.40000    9.60000 4.8100E-03 5.7332E-04
   52.50000    9.60000    9.80000 3.5429E-03 5.4469E-04
   52.50000    9.80000   10.00000 3.3925E-03 5.1020E-04
   52.50000   10.00000   10.20000 5.2951E-03 7.1563E-04
   52.50000   10.20000   10.40000 5.5656E-03 6.9201E-04
   52.50000   10.40000   10.60000 8.2633E-03 8.3832E-04
   52.50000   10.60000   10.80000 1.0205E-02 1.0240E-03
   52.50000   10.80000   11.00000 2.0629E-02 1.6938E-03
   52.50000   11.00000   11.20000 5.2445E-02 3.5795E-03
   52.50000   11.20000   11.40000 7.6094E-02 4.9029E-03
   52.50000   11.40000   11.60000 7.5343E-02 4.8011E-03
   52.50000   11.60000   11.80000 4.9729E-02 3.3534E-03
   52.50000   11.80000   12.00000 2.2234E-02 1.7090E-03
   52.50000   12.00000   12.20000 7.5371E-03 7.6099E-04
   52.50000   12.20000   12.40000 3.4664E-03 5.0560E-04
   52.50000   12.40000   12.60000 2.7233E-03 3.9885E-04
   60.00000    6.00000    6.20000 2.9846E-03 4.2641E-04
   60.00000    6.20000    6.40000 3.1833E-03 4.1035E-04
   60.00000    6.40000    6.60000 3.8572E-03 4.3337E-04
   60.00000    6.60000    6.80000 3.3242E-03 4.3922E-04
   60.00000    6.80000    7.00000 3.9461E-03 4.7123E-04
   60.00000    7.00000    7.20000 2.5817E-03 3.8575E-04
   60.00000    7.20000    7.40000 2.8306E-03 4.3193E-04
   60.00000    7.40000    7.60000 2.9892E-03 4.3455E-04
   60.00000    7.60000    7.80000 1.9044E-03 3.7152E-04
   60.00000    7.80000    8.00000 2.1346E-03 3.8280E-04
   60.00000    8.00000    8.20000 3.4289E-03 4.4855E-04
   60.00000    8.20000    8.40000 3.5779E-03 4.5908E-04
   60.00000    8.40000    8.60000 4.3877E-03 5.1391E-04
   60.00000    8.60000    8.80000 3.7696E-03 4.7226E-04
   60.00000    8.80000    9.00000 4.6601E-03 5.3815E-04
   60.00000    9.00000    9.20000 5.0482E-03 5.8207E-04
   60.00000    9.20000    9.40000 5.0627E-03 6.3474E-04
   60.00000    9.40000    9.60000 4.5948E-03 6.1115E-04
   60.00000    9.60000    9.80000 1.7629E-03 4.2579E-04
   60.00000    9.80000   10.00000 3.3827E-03 5.2072E-04
   60.00000   10.00000   10.20000 4.6847E-03 6.6657E-04
   60.00000   10.20000   10.40000 5.9784E-03 7.4023E-04
   60.00000   10.40000   10.60000 9.1961E-03 9.6801E-04
   60.00000   10.60000   10.80000 1.2514E-02 1.2696E-03
   60.00000   10.80000   11.00000 2.3528E-02 2.0103E-03
   60.00000   11.00000   11.20000 5.9925E-02 4.2435E-03
   60.00000   11.20000   11.40000 8.4710E-02 5.7599E-03
   60.00000   11.40000   11.60000 7.6225E-02 5.2472E-03
   60.00000   11.60000   11.80000 4.6412E-02 3.3685E-03
   60.00000   11.80000   12.00000 1.4812E-02 1.3161E-03
   60.00000   12.00000   12.20000 3.0477E-03 4.6978E-04
   60.00000   12.20000   12.40000 8.1484E-04 2.3620E-04
   60.00000   12.40000   12.60000 7.4181E-06 2.1536E-04
   75.00000    6.00000    6.20000 2.8840E-03 3.5261E-04
   75.00000    6.20000    6.40000 2.5415E-03 4.1724E-04
   75.00000    6.40000    6.60000 2.6087E-03 4.0388E-04
   75.00000    6.60000    6.80000 2.8827E-03 3.7659E-04
   75.00000    6.80000    7.00000 2.2682E-03 3.5450E-04
   75.00000    7.00000    7.20000 2.6043E-03 3.8295E-04
   75.00000    7.20000    7.40000 1.8101E-03 3.4994E-04
   75.00000    7.40000    7.60000 2.1132E-03 3.9441E-04
   75.00000    7.60000    7.80000 2.7118E-03 3.9762E-04
   75.00000    7.80000    8.00000 2.5677E-03 3.9544E-04
   75.00000    8.00000    8.20000 2.9287E-03 4.2124E-04
   75.00000    8.20000    8.40000 4.1390E-03 4.7738E-04
   75.00000    8.40000    8.60000 3.8025E-03 4.8534E-04
   75.00000    8.60000    8.80000 3.4534E-03 4.5611E-04
   75.00000    8.80000    9.00000 2.9150E-03 4.1477E-04
   75.00000    9.00000    9.20000 5.4297E-03 6.0253E-04
   75.00000    9.20000    9.40000 3.1834E-03 5.0956E-04
   75.00000    9.40000    9.60000 3.6010E-03 4.9137E-04
   75.00000    9.60000    9.80000 1.6417E-03 4.1848E-04
   75.00000    9.80000   10.00000 2.6850E-03 4.2416E-04
   75.00000   10.00000   10.20000 2.6865E-03 4.3673E-04
   75.00000   10.20000   10.40000 5.2644E-03 6.8956E-04
   75.00000   10.40000   10.60000 5.3780E-03 7.1814E-04
   75.00000   10.60000   10.80000 5.9683E-03 6.9483E-04
   75.00000   10.80000   11.00000 1.1227E-02 1.1172E-03
   75.00000   11.00000   11.20000 2.4823E-02 1.8884E-03
   75.00000   11.20000   11.40000 3.1135E-02 2.2478E-03
   75.00000   11.40000   11.60000 2.8889E-02 2.0519E-03
   75.00000   11.60000   11.80000 1.5644E-02 1.2595E-03
   75.00000   11.80000   12.00000 5.8692E-03 6.3657E-04
   75.00000   12.00000   12.20000 1.5163E-03 3.1152E-04
   75.00000   12.20000   12.40000 7.2107E-04 2.4055E-04
   90.00000     .60000    1.00000 7.8172E-02 1.2588E-02
   90.00000    1.00000    1.40000 4.9207E-02 6.8250E-03
   90.00000    1.40000    1.80000 4.3918E-02 5.9547E-03
   90.00000    1.80000    2.20000 2.9456E-02 4.0806E-03
   90.00000    2.20000    2.60000 2.3302E-02 3.2730E-03
   90.00000    2.60000    3.00000 1.6662E-02 2.4166E-03
   90.00000    3.00000    3.40000 1.2326E-02 1.8602E-03
   90.00000    3.40000    3.80000 9.9254E-03 1.5532E-03
   90.00000    3.80000    4.20000 7.8350E-03 1.2897E-03
   90.00000    4.20000    4.60000 6.3508E-03 1.1063E-03
   90.00000    4.60000    5.00000 4.5406E-03 9.2247E-04
   90.00000    5.00000    5.40000 3.9366E-03 8.2940E-04
   90.00000    5.40000    5.80000 3.8002E-03 8.1349E-04
   90.00000    5.80000    6.00000 2.5873E-03 6.7998E-04
   90.00000    6.00000    6.20000 2.5925E-03 3.5894E-04
   90.00000    6.20000    6.40000 1.9922E-03 3.3814E-04
   90.00000    6.40000    6.60000 2.1980E-03 3.3988E-04
   90.00000    6.60000    6.80000 2.0526E-03 3.1697E-04
   90.00000    6.80000    7.00000 2.3200E-03 3.2318E-04
   90.00000    7.00000    7.20000 3.2897E-03 4.0075E-04
   90.00000    7.20000    7.40000 2.1249E-03 3.5805E-04
   90.00000    7.40000    7.60000 1.9627E-03 3.4794E-04
   90.00000    7.60000    7.80000 3.3441E-03 4.1097E-04
   90.00000    7.80000    8.00000 2.0119E-03 3.5607E-04
   90.00000    8.00000    8.20000 3.3718E-03 4.1427E-04
   90.00000    8.20000    8.40000 2.3030E-03 3.9587E-04
   90.00000    8.40000    8.60000 2.9621E-03 4.1159E-04
   90.00000    8.60000    8.80000 3.7622E-03 4.5706E-04
   90.00000    8.80000    9.00000 2.9671E-03 4.7329E-04
   90.00000    9.00000    9.20000 3.7434E-03 4.9778E-04
   90.00000    9.20000    9.40000 2.2109E-03 4.1292E-04
   90.00000    9.40000    9.60000 2.0279E-03 3.5149E-04
   90.00000    9.60000    9.80000 1.9417E-03 3.8962E-04
   90.00000    9.80000   10.00000 2.2482E-03 3.8262E-04
   90.00000   10.00000   10.20000 2.5255E-03 4.2680E-04
   90.00000   10.20000   10.40000 2.2235E-03 4.4621E-04
   90.00000   10.40000   10.60000 3.2991E-03 5.1008E-04
   90.00000   10.60000   10.80000 3.6369E-03 4.7480E-04
   90.00000   10.80000   11.00000 5.2462E-03 6.3507E-04
   90.00000   11.00000   11.20000 9.5622E-03 8.5921E-04
   90.00000   11.20000   11.40000 9.8715E-03 8.8012E-04
   90.00000   11.40000   11.60000 6.6987E-03 6.5836E-04
   90.00000   11.60000   11.80000 2.6195E-03 4.0572E-04
   90.00000   11.80000   12.00000 4.6774E-04 2.0102E-04
   90.00000   12.00000   12.20000 1.3011E-04
   90.00000   12.20000   12.40000 5.7535E-05
  105.00000    6.00000    6.20000 1.6723E-03 3.0453E-04
  105.00000    6.20000    6.40000 2.5256E-03 3.6510E-04
  105.00000    6.40000    6.60000 2.2260E-03 3.8386E-04
  105.00000    6.60000    6.80000 2.9685E-03 3.8926E-04
  105.00000    6.80000    7.00000 1.9101E-03 3.3083E-04
  105.00000    7.00000    7.20000 1.9156E-03 3.2979E-04
  105.00000    7.20000    7.40000 1.6383E-03 3.0512E-04
  105.00000    7.40000    7.60000 1.5694E-03 2.9145E-04
  105.00000    7.60000    7.80000 1.5381E-03 3.1581E-04
  105.00000    7.80000    8.00000 2.2781E-03 3.4268E-04
  105.00000    8.00000    8.20000 1.4023E-03 3.1410E-04
  105.00000    8.20000    8.40000 3.3573E-03 4.0896E-04
  105.00000    8.40000    8.60000 2.1504E-03 3.5253E-04
  105.00000    8.60000    8.80000 2.3537E-03 4.0814E-04
  105.00000    8.80000    9.00000 3.2261E-03 4.7619E-04
  105.00000    9.00000    9.20000 3.2407E-03 4.6336E-04
  105.00000    9.20000    9.40000 1.2958E-03 3.7220E-04
  105.00000    9.40000    9.60000 1.1667E-03 3.4396E-04
  105.00000    9.60000    9.80000 1.0515E-03 3.4808E-04
  105.00000    9.80000   10.00000 1.1085E-03 3.1667E-04
  105.00000   10.00000   10.20000 2.8739E-03 4.7946E-04
  105.00000   10.20000   10.40000 1.3347E-03 3.6322E-04
  105.00000   10.40000   10.60000 3.6180E-03 5.3906E-04
  105.00000   10.60000   10.80000 5.9453E-03 6.8548E-04
  105.00000   10.80000   11.00000 1.3208E-02 1.0588E-03
  105.00000   11.00000   11.20000 1.6461E-02 1.3313E-03
  105.00000   11.20000   11.40000 1.3317E-02 1.1469E-03
  105.00000   11.40000   11.60000 6.1281E-03 6.7433E-04
  105.00000   11.60000   11.80000 3.0636E-03 4.2025E-04
  105.00000   11.80000   12.00000 1.0317E-03 2.5221E-04
  105.00000   12.00000   12.20000 3.0718E-04 1.9172E-04
  105.00000   12.20000   12.40000 1.9625E-07 2.2278E-07
  135.00000    6.00000    6.20000 1.9248E-03 2.9535E-04
  135.00000    6.20000    6.40000 2.3825E-03 3.0128E-04
  135.00000    6.40000    6.60000 2.1038E-03 2.8072E-04
  135.00000    6.60000    6.80000 1.6172E-03 2.3468E-04
  135.00000    6.80000    7.00000 1.6590E-03 2.2885E-04
  135.00000    7.00000    7.20000 1.6735E-03 2.6962E-04
  135.00000    7.20000    7.40000 1.9230E-03 2.6698E-04
  135.00000    7.40000    7.60000 1.8495E-03 2.4651E-04
  135.00000    7.60000    7.80000 1.8177E-03 2.5669E-04
  135.00000    7.80000    8.00000 2.1729E-03 2.9677E-04
  135.00000    8.00000    8.20000 2.3603E-03 3.0513E-04
  135.00000    8.20000    8.40000 1.7540E-03 2.7059E-04
  135.00000    8.40000    8.60000 1.9358E-03 2.6708E-04
  135.00000    8.60000    8.80000 2.3635E-03 2.9973E-04
  135.00000    8.80000    9.00000 3.0201E-03 3.3542E-04
  135.00000    9.00000    9.20000 2.3195E-03 3.1972E-04
  135.00000    9.20000    9.40000 2.1248E-03 2.9122E-04
  135.00000    9.40000    9.60000 7.5311E-04 2.1241E-04
  135.00000    9.60000    9.80000 6.8097E-04 2.1718E-04
  135.00000    9.80000   10.00000 1.7711E-03 3.4150E-04
  135.00000   10.00000   10.20000 2.6852E-03 3.6743E-04
  135.00000   10.20000   10.40000 2.2456E-03 2.7775E-04
  135.00000   10.40000   10.60000 1.9614E-03 3.0281E-04
  135.00000   10.60000   10.80000 4.5180E-03 4.5949E-04
  135.00000   10.80000   11.00000 7.2602E-03 6.0931E-04
  135.00000   11.00000   11.20000 1.0842E-02 8.4856E-04
  135.00000   11.20000   11.40000 8.3884E-03 6.9343E-04
  135.00000   11.40000   11.60000 4.0707E-03 4.3013E-04
  135.00000   11.60000   11.80000 1.5273E-03 2.3772E-04
  135.00000   11.80000   12.00000 3.6510E-04 1.5088E-04
  135.00000   12.00000   12.20000 3.7910E-04 1.4522E-04
  135.00000   12.20000   12.40000 8.7066E-05 4.6282E-05
  150.00000    6.00000    6.20000 2.2337E-03 2.7144E-04
  150.00000    6.20000    6.40000 2.0498E-03 2.7688E-04
  150.00000    6.40000    6.60000 1.3661E-03 2.2457E-04
  150.00000    6.60000    6.80000 8.3429E-04 1.9309E-04
  150.00000    6.80000    7.00000 1.2365E-03 2.0570E-04
  150.00000    7.00000    7.20000 9.6194E-04 2.0312E-04
  150.00000    7.20000    7.40000 6.1346E-04 1.8459E-04
  150.00000    7.40000    7.60000 1.0778E-03 2.0970E-04
  150.00000    7.60000    7.80000 1.1483E-03 2.3572E-04
  150.00000    7.80000    8.00000 9.3142E-04 2.1753E-04
  150.00000    8.00000    8.20000 1.3568E-03 2.2427E-04
  150.00000    8.20000    8.40000 1.4613E-03 2.7820E-04
  150.00000    8.40000    8.60000 2.0820E-03 3.0504E-04
  150.00000    8.60000    8.80000 1.6586E-03 2.7465E-04
  150.00000    8.80000    9.00000 1.7219E-03 2.7130E-04
  150.00000    9.00000    9.20000 1.1335E-03 2.2629E-04
  150.00000    9.20000    9.40000 1.7366E-03 2.4757E-04
  150.00000    9.40000    9.60000 6.1371E-04 1.8233E-04
  150.00000    9.60000    9.80000 7.7399E-04 2.0925E-04
  150.00000    9.80000   10.00000 1.0763E-03 2.5013E-04
  150.00000   10.00000   10.20000 1.6311E-03 2.4204E-04
  150.00000   10.20000   10.40000 1.2416E-03 2.6283E-04
  150.00000   10.40000   10.60000 1.8637E-03 3.3043E-04
  150.00000   10.60000   10.80000 3.3039E-03 4.2929E-04
  150.00000   10.80000   11.00000 6.1803E-03 5.9690E-04
  150.00000   11.00000   11.20000 7.3327E-03 6.5819E-04
  150.00000   11.20000   11.40000 5.3937E-03 5.3055E-04
  150.00000   11.40000   11.60000 2.4752E-03 3.2880E-04
  150.00000   11.60000   12.00000 4.9230E-04 1.4705E-04
  150.00000   12.00000   12.40000 1.5771E-04 9.4636E-05
ENDDATA            372
ENDSUBENT          385
SUBENT        22343006   20030529   20031222   20050926       0000
BIB                  4          4
REACTION   (73-TA-181(N,X)0-NN-1,,DA/DE)
SAMPLE      Metallic cylinders 3 cm diam, 5 cm height
STATUS     Data submitted on diskette by Masanobu, 1997/08/05.
HISTORY    (20030529A) Reaction corrected.
ENDBIB               4
COMMON               1          3
EN
MEV
   11.50000
ENDCOMMON            3
DATA                 5        271
ANG        E-MIN      E-MAX      DATA       ERR-S
ADEG       MEV        MEV        B/SR/MEV   B/SR/MEV
   30.00000    6.20000    6.40000 5.0492E-03 5.9715E-04
   30.00000    6.40000    6.60000 4.3965E-03 5.2345E-04
   30.00000    6.60000    6.80000 8.4456E-03 9.8168E-04
   30.00000    6.80000    7.00000 9.5026E-03 1.0307E-03
   30.00000    7.00000    7.20000 1.2074E-02 1.2878E-03
   30.00000    7.20000    7.40000 1.1905E-02 1.2941E-03
   30.00000    7.40000    7.60000 1.1112E-02 1.3042E-03
   30.00000    7.60000    7.80000 1.1466E-02 1.3445E-03
   30.00000    7.80000    8.00000 1.1049E-02 1.2880E-03
   30.00000    8.00000    8.20000 8.9676E-03 1.1480E-03
   30.00000    8.20000    8.40000 6.6958E-03 8.9514E-04
   30.00000    8.40000    8.60000 5.9052E-03 8.4281E-04
   30.00000    8.60000    8.80000 6.2137E-03 9.3720E-04
   30.00000    8.80000    9.00000 6.1086E-03 9.3900E-04
   30.00000    9.00000    9.20000 5.3599E-03 8.6018E-04
   30.00000    9.20000    9.40000 5.9219E-03 8.6808E-04
   30.00000    9.40000    9.60000 7.8710E-03 9.8568E-04
   30.00000    9.60000    9.80000 7.5246E-03 9.4979E-04
   30.00000    9.80000   10.00000 7.8609E-03 1.0979E-03
   30.00000   10.00000   10.20000 1.0043E-02 1.2419E-03
   30.00000   10.20000   10.40000 9.6182E-03 1.1474E-03
   30.00000   10.40000   10.60000 1.2175E-02 1.3880E-03
   30.00000   10.60000   10.80000 2.2966E-02 1.8130E-03
   30.00000   10.80000   11.00000 4.8192E-02 3.1800E-03
   30.00000   11.00000   11.20000 1.1699E-01 6.7250E-03
   30.00000   11.20000   11.40000 2.2606E-01 1.2278E-02
   30.00000   11.40000   11.60000 2.7568E-01 1.5679E-02
   30.00000   11.60000   11.80000 1.6256E-01 9.5464E-03
   30.00000   11.80000   12.00000 6.3850E-02 4.1549E-03
   30.00000   12.00000   12.20000 1.3790E-02 1.3143E-03
   30.00000   12.20000   12.40000 5.3306E-03 7.2634E-04
   30.00000   12.40000   12.60000 2.5093E-03 5.1873E-04
   37.50000    6.20000    6.40000 6.3467E-03 7.8521E-04
   37.50000    6.40000    6.60000 5.1991E-03 6.6844E-04
   37.50000    6.60000    6.80000 9.1852E-03 1.0877E-03
   37.50000    6.80000    7.00000 6.7069E-03 9.5188E-04
   37.50000    7.00000    7.20000 8.2817E-03 1.0493E-03
   37.50000    7.20000    7.40000 7.2656E-03 1.0250E-03
   37.50000    7.40000    7.60000 7.1731E-03 1.0288E-03
   37.50000    7.60000    7.80000 7.3288E-03 1.0331E-03
   37.50000    7.80000    8.00000 6.8481E-03 9.4484E-04
   37.50000    8.00000    8.20000 7.4896E-03 9.6878E-04
   37.50000    8.20000    8.40000 6.0474E-03 8.6324E-04
   37.50000    8.40000    8.60000 5.0900E-03 7.5478E-04
   37.50000    8.60000    8.80000 3.7147E-03 7.0280E-04
   37.50000    8.80000    9.00000 6.2152E-03 9.0716E-04
   37.50000    9.00000    9.20000 3.8086E-03 7.2457E-04
   37.50000    9.20000    9.40000 5.7414E-03 9.0776E-04
   37.50000    9.40000    9.60000 6.5535E-03 9.1610E-04
   37.50000    9.60000    9.80000 6.4296E-03 9.4805E-04
   37.50000    9.80000   10.00000 6.3989E-03 1.0151E-03
   37.50000   10.00000   10.20000 6.1228E-03 9.5640E-04
   37.50000   10.20000   10.40000 9.1361E-03 1.2300E-03
   37.50000   10.40000   10.60000 8.1570E-03 1.1929E-03
   37.50000   10.60000   10.80000 1.7370E-02 1.8752E-03
   37.50000   10.80000   11.00000 4.4291E-02 3.9063E-03
   37.50000   11.00000   11.20000 1.3977E-01 1.1074E-02
   37.50000   11.20000   11.40000 3.2587E-01 2.4789E-02
   37.50000   11.40000   11.60000 4.1995E-01 3.5646E-02
   37.50000   11.60000   11.80000 2.9823E-01 2.5503E-02
   37.50000   11.80000   12.00000 1.2609E-01 1.1207E-02
   37.50000   12.00000   12.20000 2.5693E-02 2.7256E-03
   37.50000   12.20000   12.40000 5.9953E-03 9.7157E-04
   37.50000   12.40000   12.60000 3.1120E-03 6.9952E-04
   45.00000    6.20000    6.40000 5.4108E-03 5.9808E-04
   45.00000    6.40000    6.60000 5.7639E-03 6.4749E-04
   45.00000    6.60000    6.80000 5.3071E-03 7.0242E-04
   45.00000    6.80000    7.00000 6.9214E-03 8.0602E-04
   45.00000    7.00000    7.20000 7.3748E-03 8.2937E-04
   45.00000    7.20000    7.40000 7.0081E-03 8.1454E-04
   45.00000    7.40000    7.60000 7.7693E-03 8.3008E-04
   45.00000    7.60000    7.80000 6.5754E-03 7.8456E-04
   45.00000    7.80000    8.00000 6.0551E-03 7.4348E-04
   45.00000    8.00000    8.20000 6.6392E-03 8.0017E-04
   45.00000    8.20000    8.40000 6.0292E-03 7.1636E-04
   45.00000    8.40000    8.60000 5.7309E-03 7.2120E-04
   45.00000    8.60000    8.80000 6.2758E-03 7.5511E-04
   45.00000    8.80000    9.00000 5.8042E-03 7.6269E-04
   45.00000    9.00000    9.20000 5.3487E-03 6.6676E-04
   45.00000    9.20000    9.40000 5.0889E-03 7.0078E-04
   45.00000    9.40000    9.60000 5.7917E-03 7.4656E-04
   45.00000    9.60000    9.80000 6.5285E-03 8.2445E-04
   45.00000    9.80000   10.00000 7.5693E-03 9.1250E-04
   45.00000   10.00000   10.20000 8.4489E-03 1.0039E-03
   45.00000   10.20000   10.40000 1.2728E-02 1.3264E-03
   45.00000   10.40000   10.60000 1.6450E-02 1.6213E-03
   45.00000   10.60000   10.80000 2.9647E-02 2.7173E-03
   45.00000   10.80000   11.00000 6.4873E-02 5.4375E-03
   45.00000   11.00000   11.20000 1.9468E-01 1.5807E-02
   45.00000   11.20000   11.40000 3.9390E-01 3.1537E-02
   45.00000   11.40000   11.60000 4.3489E-01 3.7128E-02
   45.00000   11.60000   11.80000 2.7801E-01 2.3870E-02
   45.00000   11.80000   12.00000 9.2376E-02 8.2181E-03
   45.00000   12.00000   12.20000 1.7345E-02 1.8290E-03
   45.00000   12.20000   12.40000 5.5287E-03 7.8675E-04
   45.00000   12.40000   12.60000 2.5675E-03 4.9441E-04
   60.00000    6.20000    6.40000 4.7656E-03 5.8791E-04
   60.00000    6.40000    6.60000 6.3653E-03 6.7477E-04
   60.00000    6.60000    6.80000 4.1766E-03 5.9627E-04
   60.00000    6.80000    7.00000 5.6073E-03 6.8146E-04
   60.00000    7.00000    7.20000 5.8089E-03 6.7522E-04
   60.00000    7.20000    7.40000 6.0343E-03 6.6816E-04
   60.00000    7.40000    7.60000 6.1495E-03 6.7406E-04
   60.00000    7.60000    7.80000 6.2228E-03 6.7983E-04
   60.00000    7.80000    8.00000 5.0875E-03 6.0473E-04
   60.00000    8.00000    8.20000 4.4047E-03 5.7558E-04
   60.00000    8.20000    8.40000 3.6122E-03 5.0785E-04
   60.00000    8.40000    8.60000 5.5129E-03 6.2856E-04
   60.00000    8.60000    8.80000 4.7253E-03 5.4127E-04
   60.00000    8.80000    9.00000 3.7980E-03 5.3047E-04
   60.00000    9.00000    9.20000 4.0670E-03 5.4312E-04
   60.00000    9.20000    9.40000 4.5195E-03 5.7984E-04
   60.00000    9.40000    9.60000 3.8168E-03 5.0157E-04
   60.00000    9.60000    9.80000 3.3919E-03 5.1635E-04
   60.00000    9.80000   10.00000 3.5591E-03 5.3509E-04
   60.00000   10.00000   10.20000 4.6398E-03 5.4071E-04
   60.00000   10.20000   10.40000 3.9698E-03 5.4803E-04
   60.00000   10.40000   10.60000 4.1172E-03 5.5577E-04
   60.00000   10.60000   10.80000 4.5030E-03 6.1357E-04
   60.00000   10.80000   11.00000 1.1539E-02 1.0369E-03
   60.00000   11.00000   11.20000 3.1875E-02 2.1366E-03
   60.00000   11.20000   11.40000 6.7859E-02 4.0755E-03
   60.00000   11.40000   11.60000 9.5891E-02 5.7728E-03
   60.00000   11.60000   11.80000 7.3602E-02 4.5053E-03
   60.00000   11.80000   12.00000 3.4961E-02 2.3141E-03
   60.00000   12.00000   12.20000 8.5304E-03 7.6542E-04
   60.00000   12.20000   12.40000 2.1996E-03 3.5505E-04
   60.00000   12.40000   12.60000 1.0231E-03 2.5653E-04
   75.00000    6.20000    6.40000 4.7283E-03 5.3287E-04
   75.00000    6.40000    6.60000 3.5180E-03 4.6142E-04
   75.00000    6.60000    6.80000 4.6486E-03 5.2483E-04
   75.00000    6.80000    7.00000 5.1237E-03 5.5621E-04
   75.00000    7.00000    7.20000 5.0023E-03 5.7664E-04
   75.00000    7.20000    7.40000 4.6009E-03 5.3518E-04
   75.00000    7.40000    7.60000 4.9703E-03 5.6748E-04
   75.00000    7.60000    7.80000 3.7890E-03 4.9718E-04
   75.00000    7.80000    8.00000 4.1466E-03 4.9450E-04
   75.00000    8.00000    8.20000 3.2428E-03 4.3758E-04
   75.00000    8.20000    8.40000 4.0024E-03 5.1077E-04
   75.00000    8.40000    8.60000 3.7347E-03 4.7867E-04
   75.00000    8.60000    8.80000 2.5743E-03 4.1104E-04
   75.00000    8.80000    9.00000 3.3112E-03 4.7463E-04
   75.00000    9.00000    9.20000 2.8635E-03 4.3596E-04
   75.00000    9.20000    9.40000 2.6785E-03 4.4825E-04
   75.00000    9.40000    9.60000 3.0151E-03 4.6925E-04
   75.00000    9.60000    9.80000 2.5640E-03 4.4440E-04
   75.00000    9.80000   10.00000 3.2289E-03 5.1552E-04
   75.00000   10.00000   10.20000 3.1251E-03 5.4180E-04
   75.00000   10.20000   10.40000 5.1483E-03 7.0738E-04
   75.00000   10.40000   10.60000 5.8884E-03 7.3677E-04
   75.00000   10.60000   10.80000 8.8449E-03 9.9337E-04
   75.00000   10.80000   11.00000 1.7906E-02 1.6576E-03
   75.00000   11.00000   11.20000 4.1198E-02 3.3178E-03
   75.00000   11.20000   11.40000 7.9359E-02 6.0307E-03
   75.00000   11.40000   11.60000 8.4630E-02 6.5247E-03
   75.00000   11.60000   11.80000 5.7175E-02 4.5045E-03
   75.00000   11.80000   12.00000 2.1260E-02 1.8778E-03
   75.00000   12.00000   12.20000 4.4141E-03 5.8061E-04
   75.00000   12.20000   12.40000 1.2106E-03 2.9086E-04
   75.00000   12.40000   12.60000 7.2815E-04 2.3515E-04
   90.00000     .60000    1.00000 2.4339E-01 3.1520E-02
   90.00000    1.00000    1.40000 1.0139E-01 1.1024E-02
   90.00000    1.40000    1.80000 5.8189E-02 6.4501E-03
   90.00000    1.80000    2.20000 3.4946E-02 3.9974E-03
   90.00000    2.20000    2.60000 2.2188E-02 2.6573E-03
   90.00000    2.60000    3.00000 1.5525E-02 1.9607E-03
   90.00000    3.00000    3.40000 1.1800E-02 1.5830E-03
   90.00000    3.40000    3.80000 8.6632E-03 1.2569E-03
   90.00000    3.80000    4.20000 7.1714E-03 1.0997E-03
   90.00000    4.20000    4.60000 6.1707E-03 9.9409E-04
   90.00000    4.60000    5.00000 3.7089E-03 8.0083E-04
   90.00000    5.00000    5.40000 4.3373E-03 8.1929E-04
   90.00000    5.40000    5.80000 3.7633E-03 7.7251E-04
   90.00000    5.80000    6.00000 4.5819E-03 8.3213E-04
   90.00000    6.00000    6.20000 2.7535E-03 2.3871E-04
   90.00000    6.20000    6.40000 2.9846E-03 2.8800E-04
   90.00000    6.40000    6.60000 2.3469E-03 2.6141E-04
   90.00000    6.60000    6.80000 3.2959E-03 3.1779E-04
   90.00000    6.80000    7.00000 4.0752E-03 3.5146E-04
   90.00000    7.00000    7.20000 3.0613E-03 3.0502E-04
   90.00000    7.20000    7.40000 3.1716E-03 3.1803E-04
   90.00000    7.40000    7.60000 3.9122E-03 3.8035E-04
   90.00000    7.60000    7.80000 3.6502E-03 3.6483E-04
   90.00000    7.80000    8.00000 3.3593E-03 3.5468E-04
   90.00000    8.00000    8.20000 3.4262E-03 3.5421E-04
   90.00000    8.20000    8.40000 2.3431E-03 2.9561E-04
   90.00000    8.40000    8.60000 2.8283E-03 3.2507E-04
   90.00000    8.60000    8.80000 2.1387E-03 2.6104E-04
   90.00000    8.80000    9.00000 1.9860E-03 2.7038E-04
   90.00000    9.00000    9.20000 2.8942E-03 3.3254E-04
   90.00000    9.20000    9.40000 2.4445E-03 3.0857E-04
   90.00000    9.40000    9.60000 2.8189E-03 3.3637E-04
   90.00000    9.60000    9.80000 2.2471E-03 3.3082E-04
   90.00000    9.80000   10.00000 1.9300E-03 2.9865E-04
   90.00000   10.00000   10.20000 2.3743E-03 2.9853E-04
   90.00000   10.20000   10.40000 3.0861E-03 3.7781E-04
   90.00000   10.40000   10.60000 3.1037E-03 3.9125E-04
   90.00000   10.60000   10.80000 4.2269E-03 4.5366E-04
   90.00000   10.80000   11.00000 9.1395E-03 7.2206E-04
   90.00000   11.00000   11.20000 2.1115E-02 1.4135E-03
   90.00000   11.20000   11.40000 3.7712E-02 2.3724E-03
   90.00000   11.40000   11.60000 4.1294E-02 2.5549E-03
   90.00000   11.60000   11.80000 2.8426E-02 1.8035E-03
   90.00000   11.80000   12.00000 1.1984E-02 8.4300E-04
   90.00000   12.00000   12.20000 2.2459E-03 2.4832E-04
   90.00000   12.20000   12.40000 7.5766E-04 1.4649E-04
   90.00000   12.40000   12.60000 4.6134E-04 1.1851E-04
  120.00000    6.20000    6.40000 2.8348E-03 3.0117E-04
  120.00000    6.40000    6.60000 2.3925E-03 2.8852E-04
  120.00000    6.60000    6.80000 2.4839E-03 2.8935E-04
  120.00000    6.80000    7.00000 1.7700E-03 2.6925E-04
  120.00000    7.00000    7.20000 3.5213E-03 3.6136E-04
  120.00000    7.20000    7.40000 2.3626E-03 3.1064E-04
  120.00000    7.40000    7.60000 2.8178E-03 3.3886E-04
  120.00000    7.60000    7.80000 2.5959E-03 3.2561E-04
  120.00000    7.80000    8.00000 1.8270E-03 2.7762E-04
  120.00000    8.00000    8.20000 2.4401E-03 3.2048E-04
  120.00000    8.20000    8.40000 2.0089E-03 2.6087E-04
  120.00000    8.40000    8.60000 2.0829E-03 2.7472E-04
  120.00000    8.60000    8.80000 2.4289E-03 2.8742E-04
  120.00000    8.80000    9.00000 1.7098E-03 2.6566E-04
  120.00000    9.00000    9.20000 1.7701E-03 2.8426E-04
  120.00000    9.20000    9.40000 1.2998E-03 2.7564E-04
  120.00000    9.40000    9.60000 1.0444E-03 2.4946E-04
  120.00000    9.60000    9.80000 9.5733E-04 2.4049E-04
  120.00000    9.80000   10.00000 6.6789E-04 2.5037E-04
  120.00000   10.00000   10.20000 9.9521E-04 2.2176E-04
  120.00000   10.20000   10.40000 1.6619E-03 3.2434E-04
  120.00000   10.40000   10.60000 3.0475E-03 4.1168E-04
  120.00000   10.60000   10.80000 5.8692E-03 6.2616E-04
  120.00000   10.80000   11.00000 1.2137E-02 1.0499E-03
  120.00000   11.00000   11.20000 2.2016E-02 1.6454E-03
  120.00000   11.20000   11.40000 2.5405E-02 1.8489E-03
  120.00000   11.40000   11.60000 1.8322E-02 1.3469E-03
  120.00000   11.60000   11.80000 7.8804E-03 6.8348E-04
  120.00000   11.80000   12.00000 1.5604E-03 2.4732E-04
  120.00000   12.00000   12.20000 6.1252E-04 1.4779E-04
  120.00000   12.20000   12.40000 1.3379E-04 1.1509E-04
  120.00000   12.40000   12.60000 8.8493E-05 1.1793E-04
  150.00000    6.20000    6.40000 2.4853E-03 2.6781E-04
  150.00000    6.40000    6.60000 2.0913E-03 2.6805E-04
  150.00000    6.60000    6.80000 2.1268E-03 3.0991E-04
  150.00000    6.80000    7.00000 2.4266E-03 3.1694E-04
  150.00000    7.00000    7.20000 2.3383E-03 3.3234E-04
  150.00000    7.20000    7.40000 2.2856E-03 3.0577E-04
  150.00000    7.40000    7.60000 1.7415E-03 2.8552E-04
  150.00000    7.60000    7.80000 1.3291E-03 2.6076E-04
  150.00000    7.80000    8.00000 1.4239E-03 2.4082E-04
  150.00000    8.00000    8.20000 1.3017E-03 2.2932E-04
  150.00000    8.20000    8.40000 1.0587E-03 2.1808E-04
  150.00000    8.40000    8.60000 8.3944E-04 2.2510E-04
  150.00000    8.60000    8.80000 1.0149E-03 2.2781E-04
  150.00000    8.80000    9.00000 1.4010E-03 2.4544E-04
  150.00000    9.00000    9.20000 5.5161E-04 2.0447E-04
  150.00000    9.20000    9.40000 6.2245E-04 2.1242E-04
  150.00000    9.40000    9.60000 1.0026E-03 2.2916E-04
  150.00000    9.60000    9.80000 9.1278E-04 2.3557E-04
  150.00000    9.80000   10.00000 1.2322E-03 2.4421E-04
  150.00000   10.00000   10.20000 1.1561E-03 2.5834E-04
  150.00000   10.20000   10.40000 1.0420E-03 3.2131E-04
  150.00000   10.40000   10.60000 1.9039E-03 3.6120E-04
  150.00000   10.60000   10.80000 4.4047E-03 5.7134E-04
  150.00000   10.80000   11.00000 9.2044E-03 8.3181E-04
  150.00000   11.00000   11.20000 1.6087E-02 1.2225E-03
  150.00000   11.20000   11.40000 1.6212E-02 1.1884E-03
  150.00000   11.40000   11.60000 1.0342E-02 8.1165E-04
  150.00000   11.60000   11.80000 4.0610E-03 4.2638E-04
  150.00000   11.80000   12.00000 1.1019E-03 1.9596E-04
  150.00000   12.00000   12.20000 5.9309E-04 1.5423E-04
  150.00000   12.20000   12.40000 2.2891E-04 9.2350E-05
  150.00000   12.40000   12.60000 5.8844E-05 7.1675E-05
ENDDATA            273
ENDSUBENT          286
SUBENT        22343007   20030529   20031222   20050926       0000
BIB                  1          1
REACTION   (26-FE-0(N,X)0-NN-1,,DE)
ENDBIB               1
COMMON               1          3
EN
MEV
   18.00000
ENDCOMMON            3
DATA                 4         95
E-CM-MIN   E-CM-MAX   DATA-CM    ERR-S
MEV        MEV        B/MEV      B/MEV
    1.00000    1.20000 4.1102E-01 2.7093E-02
    1.20000    1.40000 4.8469E-01 2.9289E-02
    1.40000    1.60000 4.5059E-01 2.6068E-02
    1.60000    1.80000 4.2870E-01 2.4124E-02
    1.80000    2.00000 3.8400E-01 2.0237E-02
    2.00000    2.20000 3.4252E-01 1.7420E-02
    2.20000    2.40000 3.0926E-01 1.5478E-02
    2.40000    2.60000 2.8541E-01 1.4728E-02
    2.60000    2.80000 2.6641E-01 1.4268E-02
    2.80000    3.00000 2.4400E-01 1.2551E-02
    3.00000    3.20000 2.2476E-01 1.1626E-02
    3.20000    3.40000 2.0604E-01 1.0807E-02
    3.40000    3.60000 1.8910E-01 9.5984E-03
    3.60000    3.80000 1.7179E-01 9.3815E-03
    3.80000    4.00000 1.5107E-01 8.0205E-03
    4.00000    4.20000 1.2602E-01 6.3580E-03
    4.20000    4.40000 1.0922E-01 5.5175E-03
    4.40000    4.60000 1.0331E-01 5.3009E-03
    4.60000    4.80000 9.4387E-02 5.2264E-03
    4.80000    5.00000 8.5737E-02 4.7138E-03
    5.00000    5.20000 7.6520E-02 3.9731E-03
    5.20000    5.40000 6.9318E-02 3.5188E-03
    5.40000    5.60000 6.5824E-02 3.9092E-03
    5.60000    5.80000 5.8124E-02 2.9258E-03
    5.80000    6.00000 5.7926E-02 3.1562E-03
    6.00000    6.20000 5.3367E-02 3.4047E-03
    6.20000    6.40000 5.1015E-02 3.0680E-03
    6.40000    6.60000 4.6878E-02 2.8235E-03
    6.60000    6.80000 4.2150E-02 2.7233E-03
    6.80000    7.00000 4.5403E-02 2.4668E-03
    7.00000    7.20000 4.1051E-02 3.3950E-03
    7.20000    7.40000 3.9058E-02 2.9024E-03
    7.40000    7.60000 3.5038E-02 2.0009E-03
    7.60000    7.80000 3.0625E-02 2.0836E-03
    7.80000    8.00000 3.2761E-02 2.0190E-03
    8.00000    8.20000 2.8259E-02 2.9222E-03
    8.20000    8.40000 2.6635E-02 2.6167E-03
    8.40000    8.60000 2.5693E-02 1.7037E-03
    8.60000    8.80000 2.6946E-02 1.3903E-03
    8.80000    9.00000 2.8088E-02 2.4169E-03
    9.00000    9.20000 2.7511E-02 1.9049E-03
    9.20000    9.40000 2.5179E-02 1.5612E-03
    9.40000    9.60000 2.3583E-02 2.1431E-03
    9.60000    9.80000 2.6834E-02 1.9143E-03
    9.80000   10.00000 2.4116E-02 1.5947E-03
   10.00000   10.20000 2.4508E-02 1.6843E-03
   10.20000   10.40000 2.5422E-02 2.8394E-03
   10.40000   10.60000 2.4467E-02 2.4129E-03
   10.60000   10.80000 2.3242E-02 1.5563E-03
   10.80000   11.00000 2.1961E-02 1.4224E-03
   11.00000   11.20000 2.1650E-02 1.1152E-03
   11.20000   11.40000 1.9589E-02 1.0911E-03
   11.40000   11.60000 1.8418E-02 1.3621E-03
   11.60000   11.80000 1.8765E-02 1.2346E-03
   11.80000   12.00000 1.5994E-02 1.7742E-03
   12.00000   12.20000 1.9563E-02 1.7515E-03
   12.20000   12.40000 2.3340E-02 1.7431E-03
   12.40000   12.60000 2.6618E-02 2.1093E-03
   12.60000   12.80000 2.9558E-02 2.8917E-03
   12.80000   13.00000 3.3212E-02 2.7662E-03
   13.00000   13.20000 2.9846E-02 1.9295E-03
   13.20000   13.40000 2.3129E-02 1.4774E-03
   13.40000   13.60000 1.7217E-02 1.5817E-03
   13.60000   13.80000 1.6735E-02 2.1225E-03
   13.80000   14.00000 1.8696E-02 1.5696E-03
   14.00000   14.20000 1.7053E-02 1.7398E-03
   14.20000   14.40000 1.4293E-02 1.4731E-03
   14.40000   14.60000 1.4965E-02 2.0199E-03
   14.60000   14.80000 1.5109E-02 2.5574E-03
   14.80000   15.00000 1.2167E-02 2.1697E-03
   15.00000   15.20000 8.6595E-03 1.5327E-03
   15.20000   15.40000 8.1135E-03 1.8984E-03
   15.40000   15.60000 1.0250E-02 7.7878E-04
   15.60000   15.80000 1.1496E-02 1.4044E-03
   15.80000   16.00000 1.7582E-02 3.4550E-03
   16.00000   16.20000 3.3894E-02 4.4654E-03
   16.20000   16.40000 5.5999E-02 6.2970E-03
   16.40000   16.60000 8.7791E-02 8.9860E-03
   16.60000   16.80000 1.2590E-01 1.5138E-02
   16.80000   17.00000 1.8016E-01 2.5940E-02
   17.00000   17.20000 2.5114E-01 3.5514E-02
   17.20000   17.40000 2.9153E-01 3.7625E-02
   17.40000   17.60000 2.7593E-01 4.1648E-02
   17.60000   17.80000 2.2263E-01 3.8161E-02
   17.80000   18.00000 1.4814E-01 2.8004E-02
   18.00000   18.20000 7.5776E-02 1.7380E-02
   18.20000   18.40000 3.2781E-02 7.6783E-03
   18.40000   18.60000 1.3139E-02 2.9512E-03
   18.60000   18.80000 5.4588E-03 1.2156E-03
   18.80000   19.00000 2.5207E-03 1.7721E-04
   19.00000   19.20000 4.6171E-06 4.1911E-05
   19.20000   19.40000 3.1601E-04 1.1677E-04
   19.40000   19.60000 2.4157E-05 3.4847E-05
   19.60000   19.80000 8.1178E-04 2.3061E-04
   19.80000   20.00000 4.1680E-05 1.2758E-05
ENDDATA             97
ENDSUBENT          107
SUBENT        22343008   20030529   20031222   20050926       0000
BIB                  3          3
REACTION   (14-SI-0(N,X)0-NN-1,,DA/DE)
STATUS     Data obtained by email, Masanobu, 1997/09.
HISTORY    (20030529A) Reaction corrected.
ENDBIB               3
COMMON               1          3
EN
MEV
   18.00000
ENDCOMMON            3
DATA                 5        516
ANG        E-MIN      E-MAX      DATA       ERR-S
ADEG       MEV        MEV        B/SR/MEV   B/SR/MEV
   45.00000    1.00000    1.20000 1.9438E-03 1.7827E-03
   45.00000    1.20000    1.40000 1.6825E-02 1.6562E-03
   45.00000    1.40000    1.60000 1.4884E-02 1.9612E-03
   45.00000    1.60000    1.80000 1.3159E-02 6.7158E-04
   45.00000    1.80000    2.00000 1.2281E-02 8.6963E-04
   45.00000    2.00000    2.20000 1.1549E-02 8.4292E-04
   45.00000    2.20000    2.40000 1.0810E-02 7.9140E-04
   45.00000    2.40000    2.60000 9.9408E-03 7.5005E-04
   45.00000    2.60000    2.80000 9.0665E-03 8.2602E-04
   45.00000    2.80000    3.00000 8.1880E-03 1.0321E-03
   45.00000    3.00000    3.20000 7.3132E-03 9.1653E-04
   45.00000    3.20000    3.40000 6.7094E-03 6.0292E-04
   45.00000    3.40000    3.60000 6.0733E-03 5.2002E-04
   45.00000    3.60000    3.80000 6.0242E-03 4.9936E-04
   45.00000    3.80000    4.00000 5.9609E-03 5.1554E-04
   45.00000    4.00000    4.20000 5.6481E-03 5.0260E-04
   45.00000    4.20000    4.40000 5.2410E-03 4.9479E-04
   45.00000    4.40000    4.60000 4.9347E-03 4.5099E-04
   45.00000    4.60000    4.80000 4.6292E-03 4.2325E-04
   45.00000    4.80000    5.00000 4.3221E-03 3.6103E-04
   45.00000    5.00000    5.20000 4.0166E-03 2.6269E-04
   45.00000    5.20000    5.40000 3.7084E-03 2.8358E-04
   45.00000    5.40000    5.60000 3.4108E-03 3.1847E-04
   45.00000    5.60000    5.80000 3.1002E-03 3.4753E-04
   45.00000    5.80000    6.00000 2.7901E-03 3.3287E-04
   45.00000    6.00000    6.20000 3.3227E-03 3.0856E-04
   45.00000    6.20000    6.40000 3.0875E-03 3.1127E-04
   45.00000    6.40000    6.60000 3.0699E-03 3.1581E-04
   45.00000    6.60000    6.80000 3.4299E-03 3.2469E-04
   45.00000    6.80000    7.00000 2.7944E-03 3.2430E-04
   45.00000    7.00000    7.20000 3.0856E-03 3.3520E-04
   45.00000    7.20000    7.40000 2.9697E-03 3.3121E-04
   45.00000    7.40000    7.60000 2.6707E-03 2.9939E-04
   45.00000    7.60000    7.80000 2.9802E-03 3.2671E-04
   45.00000    7.80000    8.00000 2.8748E-03 3.1640E-04
   45.00000    8.00000    8.20000 3.0829E-03 3.3978E-04
   45.00000    8.20000    8.40000 2.2777E-03 2.8127E-04
   45.00000    8.40000    8.60000 2.3990E-03 2.6023E-04
   45.00000    8.60000    8.80000 2.0671E-03 2.4390E-04
   45.00000    8.80000    9.00000 1.9656E-03 2.3054E-04
   45.00000    9.00000    9.20000 1.1904E-03 2.1199E-04
   45.00000    9.20000    9.40000 1.0163E-03 2.3469E-04
   45.00000    9.40000    9.60000 1.1380E-03 2.0571E-04
   45.00000    9.60000    9.80000 1.1951E-03 2.0834E-04
   45.00000    9.80000   10.00000 8.0810E-04 1.6510E-04
   45.00000   10.00000   10.20000 1.0414E-03 1.7284E-04
   45.00000   10.20000   10.40000 2.6420E-03 3.0293E-04
   45.00000   10.40000   10.60000 4.6887E-03 4.3176E-04
   45.00000   10.60000   10.80000 5.2066E-03 4.8321E-04
   45.00000   10.80000   11.00000 4.7180E-03 4.4785E-04
   45.00000   11.00000   11.20000 2.3847E-03 3.2397E-04
   45.00000   11.20000   11.40000 1.9301E-03 2.6771E-04
   45.00000   11.40000   11.60000 7.8961E-04 1.9830E-04
   45.00000   11.60000   11.80000 4.1602E-04 1.7311E-04
   45.00000   11.80000   12.00000 1.9603E-04 1.3382E-04
   45.00000   12.00000   12.20000 3.9207E-04 1.2611E-04
   45.00000   12.20000   12.40000 7.2779E-04 1.6441E-04
   45.00000   12.40000   12.60000 9.5565E-04 1.9321E-04
   45.00000   12.60000   12.80000 1.5960E-03 2.7909E-04
   45.00000   12.80000   13.00000 2.3177E-03 3.1604E-04
   45.00000   13.00000   13.20000 2.7302E-03 3.2633E-04
   45.00000   13.20000   13.40000 2.7461E-03 3.5106E-04
   45.00000   13.40000   13.60000 1.5029E-03 2.7141E-04
   45.00000   13.60000   13.80000 8.6236E-04 2.0873E-04
   45.00000   13.80000   14.00000 4.1449E-04 1.8117E-04
   45.00000   14.00000   14.20000 3.8603E-04 1.4261E-04
   45.00000   14.20000   14.40000 6.5055E-04 1.4715E-04
   45.00000   14.40000   14.60000 5.1820E-04 1.4079E-04
   45.00000   14.60000   14.80000 5.7611E-04 1.8672E-04
   45.00000   14.80000   15.00000 7.0960E-04 2.1351E-04
   45.00000   15.00000   15.20000 2.1597E-03 3.3125E-04
   45.00000   15.20000   15.40000 4.7993E-03 4.6852E-04
   45.00000   15.40000   15.60000 7.6926E-03 6.5411E-04
   45.00000   15.60000   15.80000 1.1517E-02 8.6810E-04
   45.00000   15.80000   16.00000 1.2186E-02 9.2009E-04
   45.00000   16.00000   16.20000 1.2144E-02 9.1882E-04
   45.00000   16.20000   16.40000 8.6431E-03 7.5952E-04
   45.00000   16.40000   16.60000 4.8009E-03 5.7554E-04
   45.00000   16.60000   16.80000 6.0750E-03 6.9385E-04
   45.00000   16.80000   17.00000 8.5547E-03 8.2283E-04
   45.00000   17.00000   17.20000 1.5020E-02 1.2534E-03
   45.00000   17.20000   17.40000 2.5589E-02 1.7844E-03
   45.00000   17.40000   17.60000 3.1066E-02 2.0987E-03
   45.00000   17.60000   17.80000 3.2636E-02 2.1830E-03
   45.00000   17.80000   18.00000 3.1813E-02 2.0656E-03
   45.00000   18.00000   18.20000 2.1048E-02 1.4692E-03
   45.00000   18.20000   18.40000 1.2632E-02 9.4854E-04
   45.00000   18.40000   18.60000 5.8652E-03 5.2945E-04
   45.00000   18.60000   18.80000 1.7555E-03 2.5075E-04
   45.00000   18.80000   19.00000 4.8946E-04 1.2972E-04
   45.00000   19.00000   19.20000 8.4751E-05 8.2263E-05
   45.00000   19.20000   19.40000 4.3376E-06 7.9812E-05
   60.00000    1.00000    1.20000 1.6988E-02 4.6692E-03
   60.00000    1.20000    1.40000 1.6951E-02 1.7233E-03
   60.00000    1.40000    1.60000 1.6184E-02 1.5159E-03
   60.00000    1.60000    1.80000 1.2574E-02 7.0307E-04
   60.00000    1.80000    2.00000 1.0322E-02 8.3383E-04
   60.00000    2.00000    2.20000 9.1665E-03 7.3739E-04
   60.00000    2.20000    2.40000 9.8442E-03 7.3583E-04
   60.00000    2.40000    2.60000 8.9391E-03 6.8190E-04
   60.00000    2.60000    2.80000 9.4838E-03 7.6379E-04
   60.00000    2.80000    3.00000 9.2562E-03 8.7592E-04
   60.00000    3.00000    3.20000 7.6669E-03 7.4507E-04
   60.00000    3.20000    3.40000 7.2714E-03 4.3945E-04
   60.00000    3.40000    3.60000 6.6641E-03 5.2371E-04
   60.00000    3.60000    3.80000 6.7526E-03 5.2921E-04
   60.00000    3.80000    4.00000 5.5667E-03 4.6847E-04
   60.00000    4.00000    4.20000 4.8385E-03 4.2859E-04
   60.00000    4.20000    4.40000 4.2916E-03 4.0378E-04
   60.00000    4.40000    4.60000 4.2808E-03 4.4775E-04
   60.00000    4.60000    4.80000 4.0956E-03 3.5310E-04
   60.00000    4.80000    5.00000 3.9098E-03 2.4186E-04
   60.00000    5.00000    5.20000 3.7153E-03 2.0076E-04
   60.00000    5.20000    5.40000 3.5390E-03 3.8746E-04
   60.00000    5.40000    5.60000 3.2831E-03 3.8782E-04
   60.00000    5.60000    5.80000 2.8361E-03 3.6440E-04
   60.00000    5.80000    6.00000 2.4448E-03 3.4152E-04
   60.00000    6.00000    6.20000 1.8031E-03 2.6391E-04
   60.00000    6.20000    6.40000 1.6375E-03 2.4465E-04
   60.00000    6.40000    6.60000 2.0323E-03 2.5800E-04
   60.00000    6.60000    6.80000 1.9433E-03 2.6564E-04
   60.00000    6.80000    7.00000 1.8622E-03 2.8638E-04
   60.00000    7.00000    7.20000 2.9155E-03 3.4260E-04
   60.00000    7.20000    7.40000 2.0706E-03 3.1253E-04
   60.00000    7.40000    7.60000 2.3755E-03 3.3599E-04
   60.00000    7.60000    7.80000 2.5869E-03 3.4041E-04
   60.00000    7.80000    8.00000 2.8415E-03 3.3481E-04
   60.00000    8.00000    8.20000 1.8502E-03 2.7396E-04
   60.00000    8.20000    8.40000 1.6167E-03 2.3636E-04
   60.00000    8.40000    8.60000 1.5021E-03 2.3094E-04
   60.00000    8.60000    8.80000 1.4272E-03 2.1549E-04
   60.00000    8.80000    9.00000 1.4711E-03 2.3030E-04
   60.00000    9.00000    9.20000 1.4107E-03 2.2649E-04
   60.00000    9.20000    9.40000 1.0915E-03 2.1393E-04
   60.00000    9.40000    9.60000 7.1757E-04 1.8225E-04
   60.00000    9.60000    9.80000 1.0047E-03 1.5567E-04
   60.00000    9.80000   10.00000 1.1043E-03 2.1684E-04
   60.00000   10.00000   10.20000 2.0290E-03 2.6761E-04
   60.00000   10.20000   10.40000 3.7720E-03 4.2630E-04
   60.00000   10.40000   10.60000 3.7971E-03 4.6684E-04
   60.00000   10.60000   10.80000 3.5065E-03 4.3194E-04
   60.00000   10.80000   11.00000 1.8068E-03 3.2506E-04
   60.00000   11.00000   11.20000 1.5996E-03 2.9568E-04
   60.00000   11.20000   11.40000 6.2276E-04 1.9908E-04
   60.00000   11.40000   11.60000 9.9499E-04 2.0022E-04
   60.00000   11.60000   11.80000 1.7260E-04 1.0774E-04
   60.00000   11.80000   12.00000 3.1991E-04 1.4376E-04
   60.00000   12.00000   12.20000 5.3794E-04 1.7561E-04
   60.00000   12.20000   12.40000 1.3452E-03 2.7367E-04
   60.00000   12.40000   12.60000 1.8220E-03 3.1666E-04
   60.00000   12.60000   12.80000 1.6768E-03 3.3671E-04
   60.00000   12.80000   13.00000 2.1040E-03 3.5155E-04
   60.00000   13.00000   13.20000 1.4856E-03 3.2907E-04
   60.00000   13.20000   13.40000 6.6142E-04 2.3405E-04
   60.00000   13.40000   13.60000 3.7918E-04 1.9456E-04
   60.00000   13.60000   13.80000 7.3075E-04 1.5808E-04
   60.00000   13.80000   14.00000 5.2377E-04 1.2520E-04
   60.00000   14.00000   14.20000 5.9167E-04 1.1404E-04
   60.00000   14.20000   14.40000 7.5655E-04 1.3181E-04
   60.00000   14.40000   14.60000 8.3827E-04 1.5441E-04
   60.00000   14.60000   14.80000 1.4983E-03 2.2649E-04
   60.00000   14.80000   15.00000 1.9036E-03 2.7986E-04
   60.00000   15.00000   15.20000 3.8900E-03 4.3763E-04
   60.00000   15.20000   15.40000 6.1547E-03 5.9560E-04
   60.00000   15.40000   15.60000 9.7609E-03 8.1422E-04
   60.00000   15.60000   15.80000 1.0162E-02 8.6431E-04
   60.00000   15.80000   16.00000 8.3588E-03 7.7526E-04
   60.00000   16.00000   16.20000 5.9021E-03 6.2791E-04
   60.00000   16.20000   16.40000 6.2667E-03 7.0948E-04
   60.00000   16.40000   16.60000 8.3656E-03 8.7530E-04
   60.00000   16.60000   16.80000 1.7087E-02 1.4163E-03
   60.00000   16.80000   17.00000 3.1653E-02 2.2149E-03
   60.00000   17.00000   17.20000 4.4574E-02 2.9279E-03
   60.00000   17.20000   17.40000 5.2675E-02 3.3743E-03
   60.00000   17.40000   17.60000 4.7306E-02 3.0459E-03
   60.00000   17.60000   17.80000 3.3429E-02 2.2348E-03
   60.00000   17.80000   18.00000 1.9204E-02 1.4195E-03
   60.00000   18.00000   18.20000 8.2311E-03 7.6271E-04
   60.00000   18.20000   18.40000 3.7474E-03 4.5467E-04
   60.00000   18.40000   18.60000 2.0332E-03 3.2197E-04
   60.00000   18.60000   18.80000 1.0541E-03 2.2294E-04
   60.00000   18.80000   19.00000 5.7411E-04 1.6072E-04
   60.00000   19.00000   19.20000 2.2127E-04 1.3145E-04
   60.00000   19.20000   19.40000 1.3982E-04 1.1031E-04
   75.00000    1.00000    1.20000 1.5335E-02 2.1907E-03
   75.00000    1.20000    1.40000 1.4465E-02 1.7764E-03
   75.00000    1.40000    1.60000 1.3452E-02 1.4604E-03
   75.00000    1.60000    1.80000 1.1613E-02 8.0958E-04
   75.00000    1.80000    2.00000 1.0623E-02 8.5741E-04
   75.00000    2.00000    2.20000 1.0331E-02 7.0793E-04
   75.00000    2.20000    2.40000 1.0132E-02 7.6607E-04
   75.00000    2.40000    2.60000 9.3396E-03 7.3478E-04
   75.00000    2.60000    2.80000 8.5203E-03 9.5674E-04
   75.00000    2.80000    3.00000 7.7275E-03 8.3891E-04
   75.00000    3.00000    3.20000 6.9224E-03 6.6219E-04
   75.00000    3.20000    3.40000 6.1234E-03 4.4113E-04
   75.00000    3.40000    3.60000 5.3219E-03 4.6825E-04
   75.00000    3.60000    3.80000 5.3403E-03 4.5647E-04
   75.00000    3.80000    4.00000 4.5012E-03 4.1277E-04
   75.00000    4.00000    4.20000 4.6463E-03 4.1763E-04
   75.00000    4.20000    4.40000 4.2432E-03 4.0660E-04
   75.00000    4.40000    4.60000 4.0187E-03 4.1658E-04
   75.00000    4.60000    4.80000 3.7998E-03 2.8096E-04
   75.00000    4.80000    5.00000 3.5613E-03 1.6858E-04
   75.00000    5.00000    5.20000 3.3451E-03 2.7863E-04
   75.00000    5.20000    5.40000 3.1244E-03 3.6889E-04
   75.00000    5.40000    5.60000 2.8961E-03 3.7102E-04
   75.00000    5.60000    5.80000 2.7298E-03 3.7980E-04
   75.00000    5.80000    6.00000 2.7817E-03 3.7717E-04
   75.00000    6.00000    6.20000 2.8582E-03 3.5054E-04
   75.00000    6.20000    6.40000 2.5429E-03 3.1585E-04
   75.00000    6.40000    6.60000 2.7073E-03 3.2937E-04
   75.00000    6.60000    6.80000 2.0384E-03 3.1753E-04
   75.00000    6.80000    7.00000 2.2283E-03 3.3214E-04
   75.00000    7.00000    7.20000 2.3393E-03 3.1881E-04
   75.00000    7.20000    7.40000 2.9409E-03 3.5144E-04
   75.00000    7.40000    7.60000 2.7548E-03 3.5671E-04
   75.00000    7.60000    7.80000 2.6177E-03 3.4700E-04
   75.00000    7.80000    8.00000 2.0802E-03 2.9875E-04
   75.00000    8.00000    8.20000 2.2457E-03 3.0683E-04
   75.00000    8.20000    8.40000 1.7295E-03 2.8742E-04
   75.00000    8.40000    8.60000 1.6239E-03 2.6804E-04
   75.00000    8.60000    8.80000 1.6130E-03 2.5973E-04
   75.00000    8.80000    9.00000 8.4051E-04 2.5137E-04
   75.00000    9.00000    9.20000 6.9737E-04 2.1897E-04
   75.00000    9.20000    9.40000 8.4552E-04 2.1946E-04
   75.00000    9.40000    9.60000 9.2067E-04 2.1234E-04
   75.00000    9.60000    9.80000 1.3368E-03 2.3288E-04
   75.00000    9.80000   10.00000 2.9284E-03 3.6007E-04
   75.00000   10.00000   10.20000 3.0140E-03 4.0940E-04
   75.00000   10.20000   10.40000 4.5043E-03 5.0964E-04
   75.00000   10.40000   10.60000 3.0117E-03 4.1077E-04
   75.00000   10.60000   10.80000 1.8131E-03 3.2001E-04
   75.00000   10.80000   11.00000 6.4548E-04 2.4854E-04
   75.00000   11.00000   11.40000 8.3571E-04 2.4209E-04
   75.00000   11.40000   11.80000 2.9444E-04 1.5984E-04
   75.00000   11.80000   12.00000 3.5092E-04 2.1266E-04
   75.00000   12.00000   12.20000 1.1680E-03 2.4830E-04
   75.00000   12.20000   12.40000 1.4902E-03 3.1264E-04
   75.00000   12.40000   12.60000 1.1913E-03 3.1972E-04
   75.00000   12.60000   12.80000 3.2619E-04 2.8061E-04
   75.00000   12.80000   13.00000 5.5189E-04 2.5381E-04
   75.00000   13.00000   13.20000 5.9059E-04 2.3228E-04
   75.00000   13.20000   13.40000 4.5335E-04 1.7858E-04
   75.00000   13.40000   13.60000 4.0891E-04 1.6703E-04
   75.00000   13.60000   13.80000 4.3134E-05 1.2537E-04
   75.00000   13.80000   14.00000 9.1533E-04 1.6028E-04
   75.00000   14.00000   14.20000 3.8253E-04 1.3712E-04
   75.00000   14.20000   14.40000 1.0757E-04 1.5580E-04
   75.00000   14.40000   14.60000 1.6843E-03 2.8039E-04
   75.00000   14.60000   14.80000 3.0969E-03 4.1975E-04
   75.00000   14.80000   15.00000 4.1874E-03 4.9627E-04
   75.00000   15.00000   15.20000 5.6613E-03 6.3752E-04
   75.00000   15.20000   15.40000 7.3541E-03 7.0987E-04
   75.00000   15.40000   15.60000 5.7300E-03 6.3070E-04
   75.00000   15.60000   15.80000 4.6589E-03 5.7607E-04
   75.00000   15.80000   16.00000 3.5727E-03 4.9172E-04
   75.00000   16.00000   16.20000 2.1475E-03 4.5201E-04
   75.00000   16.20000   16.40000 4.7093E-03 5.7904E-04
   75.00000   16.40000   16.60000 1.0730E-02 8.8728E-04
   75.00000   16.60000   16.80000 1.6633E-02 1.2485E-03
   75.00000   16.80000   17.00000 1.9877E-02 1.4277E-03
   75.00000   17.00000   17.20000 2.2749E-02 1.5533E-03
   75.00000   17.20000   17.40000 2.0485E-02 1.4094E-03
   75.00000   17.40000   17.60000 1.3094E-02 9.9007E-04
   75.00000   17.60000   17.80000 7.0923E-03 6.1749E-04
   75.00000   17.80000   18.00000 3.0102E-03 3.6668E-04
   75.00000   18.00000   18.20000 1.2103E-03 2.1258E-04
   75.00000   18.20000   18.40000 3.5313E-04 1.3929E-04
   75.00000   18.40000   18.60000 1.4050E-04 9.6710E-05
   75.00000   18.60000   18.80000 4.6012E-05 1.0333E-04
   90.00000    1.00000    1.20000 7.9195E-03 2.0596E-03
   90.00000    1.20000    1.40000 1.0724E-02 1.5007E-03
   90.00000    1.40000    1.60000 9.8332E-03 1.1361E-03
   90.00000    1.60000    1.80000 9.6732E-03 8.3551E-04
   90.00000    1.80000    2.00000 9.4186E-03 7.1818E-04
   90.00000    2.00000    2.20000 9.1692E-03 6.8767E-04
   90.00000    2.20000    2.40000 8.5704E-03 6.6262E-04
   90.00000    2.40000    2.60000 7.9198E-03 7.3633E-04
   90.00000    2.60000    2.80000 7.3505E-03 9.7816E-04
   90.00000    2.80000    3.00000 6.7434E-03 7.8858E-04
   90.00000    3.00000    3.20000 6.1280E-03 4.3422E-04
   90.00000    3.20000    3.40000 5.5258E-03 4.4333E-04
   90.00000    3.40000    3.60000 5.3593E-03 4.4149E-04
   90.00000    3.60000    3.80000 4.6983E-03 4.0368E-04
   90.00000    3.80000    4.00000 4.4929E-03 4.2729E-04
   90.00000    4.00000    4.20000 4.1109E-03 3.6433E-04
   90.00000    4.20000    4.40000 3.9459E-03 4.2479E-04
   90.00000    4.40000    4.60000 3.7775E-03 3.2250E-04
   90.00000    4.60000    4.80000 3.6485E-03 2.2366E-04
   90.00000    4.80000    5.00000 3.4424E-03 1.9147E-04
   90.00000    5.00000    5.20000 3.2732E-03 2.8294E-04
   90.00000    5.20000    5.40000 3.1080E-03 2.8791E-04
   90.00000    5.40000    5.60000 2.9435E-03 3.3288E-04
   90.00000    5.60000    5.80000 2.3636E-03 3.3349E-04
   90.00000    5.80000    6.00000 2.6174E-03 3.1421E-04
   90.00000    6.00000    6.20000 2.4832E-03 2.8507E-04
   90.00000    6.20000    6.40000 1.8784E-03 2.5526E-04
   90.00000    6.40000    6.60000 2.7718E-03 2.9534E-04
   90.00000    6.60000    6.80000 2.9301E-03 3.1957E-04
   90.00000    6.80000    7.00000 2.8779E-03 3.0003E-04
   90.00000    7.00000    7.20000 2.7171E-03 3.0689E-04
   90.00000    7.20000    7.40000 3.0364E-03 3.2228E-04
   90.00000    7.40000    7.60000 1.8201E-03 2.6090E-04
   90.00000    7.60000    7.80000 1.5492E-03 2.4257E-04
   90.00000    7.80000    8.00000 1.5583E-03 2.4668E-04
   90.00000    8.00000    8.20000 1.2065E-03 2.4314E-04
   90.00000    8.20000    8.40000 1.9832E-03 2.5190E-04
   90.00000    8.40000    8.60000 1.4313E-03 2.2130E-04
   90.00000    8.60000    8.80000 1.6425E-03 2.2389E-04
   90.00000    8.80000    9.00000 9.4639E-04 1.8575E-04
   90.00000    9.00000    9.20000 9.1924E-04 1.7961E-04
   90.00000    9.20000    9.40000 7.6308E-04 1.6862E-04
   90.00000    9.40000    9.60000 1.3503E-03 2.2871E-04
   90.00000    9.60000    9.80000 2.6895E-03 2.9524E-04
   90.00000    9.80000   10.00000 3.3568E-03 3.6529E-04
   90.00000   10.00000   10.20000 3.6475E-03 3.9272E-04
   90.00000   10.20000   10.40000 2.0895E-03 3.0745E-04
   90.00000   10.40000   10.60000 1.2703E-03 2.4211E-04
   90.00000   10.60000   10.80000 7.2157E-04 2.2403E-04
   90.00000   10.80000   11.20000 3.7695E-04 1.6673E-04
   90.00000   11.20000   11.40000 1.9939E-04 1.0245E-04
   90.00000   11.40000   11.60000 6.3410E-04 1.5933E-04
   90.00000   11.60000   11.80000 2.8389E-04 1.7446E-04
   90.00000   11.80000   12.00000 6.6029E-04 2.3442E-04
   90.00000   12.00000   12.20000 6.9525E-04 2.4024E-04
   90.00000   12.20000   12.40000 7.1193E-04 2.4632E-04
   90.00000   12.40000   12.60000 7.4150E-04 2.3563E-04
   90.00000   12.60000   12.80000 2.0097E-04 1.9765E-04
   90.00000   12.80000   13.00000 3.0757E-04 1.6677E-04
   90.00000   13.00000   13.20000 1.5504E-04 1.3956E-04
   90.00000   13.20000   13.60000 3.2758E-04 1.0167E-04
   90.00000   13.60000   13.80000 1.2138E-04 8.6420E-05
   90.00000   13.80000   14.00000 2.0602E-04 1.3248E-04
   90.00000   14.00000   14.20000 3.8917E-04 1.5338E-04
   90.00000   14.20000   14.40000 1.1023E-03 2.6676E-04
   90.00000   14.40000   14.60000 2.1491E-03 3.5360E-04
   90.00000   14.60000   14.80000 3.9931E-03 4.7479E-04
   90.00000   14.80000   15.00000 5.1434E-03 5.3444E-04
   90.00000   15.00000   15.20000 3.5869E-03 4.5216E-04
   90.00000   15.20000   15.40000 3.2973E-03 4.0730E-04
   90.00000   15.40000   15.60000 2.2445E-03 3.2130E-04
   90.00000   15.60000   15.80000 1.2043E-03 2.9514E-04
   90.00000   15.80000   16.00000 1.7973E-03 3.3319E-04
   90.00000   16.00000   16.20000 4.3937E-03 4.6720E-04
   90.00000   16.20000   16.40000 7.4340E-03 6.7582E-04
   90.00000   16.40000   16.60000 9.9942E-03 7.9803E-04
   90.00000   16.60000   16.80000 1.0908E-02 8.2211E-04
   90.00000   16.80000   17.00000 8.4958E-03 6.8116E-04
   90.00000   17.00000   17.20000 6.2108E-03 5.3032E-04
   90.00000   17.20000   17.40000 3.4885E-03 3.6508E-04
   90.00000   17.40000   17.60000 9.3079E-04 1.7357E-04
   90.00000   17.60000   18.00000 2.3568E-04 1.0103E-04
   90.00000   18.00000   18.40000 1.4262E-05 5.4015E-05
   90.00000   18.40000   18.80000 4.5658E-05 7.9701E-05
  120.00000    1.00000    1.20000 1.4611E-02 3.6230E-03
  120.00000    1.20000    1.40000 1.3400E-02 1.7941E-03
  120.00000    1.40000    1.60000 1.2253E-02 1.0782E-03
  120.00000    1.60000    1.80000 1.1886E-02 9.9616E-04
  120.00000    1.80000    2.00000 8.1612E-03 6.5433E-04
  120.00000    2.00000    2.20000 8.3544E-03 6.2208E-04
  120.00000    2.20000    2.40000 8.1308E-03 6.1161E-04
  120.00000    2.40000    2.60000 7.7994E-03 8.7511E-04
  120.00000    2.60000    2.80000 7.2676E-03 7.0525E-04
  120.00000    2.80000    3.00000 6.1830E-03 5.9202E-04
  120.00000    3.00000    3.20000 6.2277E-03 3.6764E-04
  120.00000    3.20000    3.40000 6.3694E-03 4.7920E-04
  120.00000    3.40000    3.60000 5.0451E-03 4.0537E-04
  120.00000    3.60000    3.80000 4.5895E-03 3.7890E-04
  120.00000    3.80000    4.00000 4.6183E-03 3.6965E-04
  120.00000    4.00000    4.20000 4.3877E-03 4.5078E-04
  120.00000    4.20000    4.40000 4.1596E-03 4.1831E-04
  120.00000    4.40000    4.60000 3.9314E-03 3.4036E-04
  120.00000    4.60000    4.80000 3.6993E-03 2.4406E-04
  120.00000    4.80000    5.00000 3.5067E-03 2.9047E-04
  120.00000    5.00000    5.20000 3.2429E-03 3.2826E-04
  120.00000    5.20000    5.40000 2.7645E-03 2.9991E-04
  120.00000    5.40000    5.60000 2.1646E-03 2.6548E-04
  120.00000    5.60000    5.80000 2.1773E-03 2.6496E-04
  120.00000    5.80000    6.00000 2.2289E-03 2.6390E-04
  120.00000    6.00000    6.20000 2.3717E-03 2.4652E-04
  120.00000    6.20000    6.40000 1.5072E-03 2.0695E-04
  120.00000    6.40000    6.60000 1.5572E-03 2.0451E-04
  120.00000    6.60000    6.80000 2.5752E-03 2.6935E-04
  120.00000    6.80000    7.00000 2.3258E-03 2.6408E-04
  120.00000    7.00000    7.20000 1.8038E-03 2.3878E-04
  120.00000    7.20000    7.40000 1.4922E-03 2.1297E-04
  120.00000    7.40000    7.60000 1.1613E-03 1.8426E-04
  120.00000    7.60000    7.80000 9.7433E-04 1.8774E-04
  120.00000    7.80000    8.00000 1.1972E-03 2.0070E-04
  120.00000    8.00000    8.20000 1.0516E-03 1.8698E-04
  120.00000    8.20000    8.40000 1.0873E-03 1.8891E-04
  120.00000    8.40000    8.60000 1.1417E-03 1.8159E-04
  120.00000    8.60000    8.80000 7.5210E-04 1.5361E-04
  120.00000    8.80000    9.00000 7.2695E-04 1.3947E-04
  120.00000    9.00000    9.20000 1.0499E-03 1.7758E-04
  120.00000    9.20000    9.40000 1.4948E-03 2.2331E-04
  120.00000    9.40000    9.60000 2.8038E-03 3.0168E-04
  120.00000    9.60000    9.80000 2.2627E-03 2.8951E-04
  120.00000    9.80000   10.00000 1.1856E-03 2.2968E-04
  120.00000   10.00000   10.20000 9.4255E-04 2.0732E-04
  120.00000   10.20000   10.40000 4.4376E-04 1.5135E-04
  120.00000   10.40000   10.60000 7.7701E-05 1.1714E-04
  120.00000   10.60000   10.80000 2.6575E-04 1.1143E-04
  120.00000   10.80000   11.00000 2.1521E-04 1.0241E-04
  120.00000   11.00000   11.20000 5.0144E-04 1.3650E-04
  120.00000   11.20000   11.40000 6.1510E-04 1.5736E-04
  120.00000   11.40000   11.60000 8.2728E-04 1.9785E-04
  120.00000   11.60000   11.80000 1.1020E-03 1.9810E-04
  120.00000   11.80000   12.00000 4.0542E-04 1.7221E-04
  120.00000   12.00000   12.20000 4.0061E-04 1.5281E-04
  120.00000   12.20000   12.40000 2.7763E-04 1.2040E-04
  120.00000   12.40000   12.60000 2.3384E-04 8.4243E-05
  120.00000   12.60000   12.80000 1.0494E-04 6.6235E-05
  120.00000   12.80000   13.00000 1.2296E-04 4.3511E-05
  120.00000   13.00000   13.40000 1.4277E-05 3.8336E-05
  120.00000   13.40000   13.60000 2.6213E-04 9.1521E-05
  120.00000   13.60000   13.80000 2.7653E-04 1.1573E-04
  120.00000   13.80000   14.00000 7.7588E-04 2.4820E-04
  120.00000   14.00000   14.20000 1.6300E-03 3.5562E-04
  120.00000   14.20000   14.40000 3.0662E-03 4.8635E-04
  120.00000   14.40000   14.60000 3.6144E-03 5.5585E-04
  120.00000   14.60000   15.00000 2.2534E-03 5.2271E-04
  120.00000   15.00000   15.20000 1.1573E-03 3.8308E-04
  120.00000   15.20000   15.40000 1.1515E-03 3.0992E-04
  120.00000   15.40000   15.60000 2.1834E-03 3.5492E-04
  120.00000   15.60000   15.80000 3.9564E-03 4.2553E-04
  120.00000   15.80000   16.00000 5.9602E-03 5.2750E-04
  120.00000   16.00000   16.20000 7.1768E-03 5.7635E-04
  120.00000   16.20000   16.40000 6.9620E-03 5.5449E-04
  120.00000   16.40000   16.60000 4.5577E-03 4.0814E-04
  120.00000   16.60000   16.80000 2.5145E-03 2.8563E-04
  120.00000   16.80000   17.00000 1.1099E-03 1.6866E-04
  120.00000   17.00000   17.20000 4.8405E-04 1.2155E-04
  120.00000   17.20000   17.40000 1.5274E-04 7.2421E-05
  120.00000   17.40000   17.60000 6.4481E-05 5.3164E-05
  120.00000   17.60000   17.80000 6.2636E-05 5.3826E-05
  120.00000   17.80000   18.00000 4.7765E-07 5.9945E-05
  150.00000    1.00000    1.20000 1.3010E-02 2.2510E-03
  150.00000    1.20000    1.40000 1.2405E-02 3.0408E-03
  150.00000    1.40000    1.60000 1.0579E-02 1.0189E-03
  150.00000    1.60000    1.80000 1.1204E-02 9.1888E-04
  150.00000    1.80000    2.00000 1.0252E-02 9.6105E-04
  150.00000    2.00000    2.20000 9.6116E-03 6.6594E-04
  150.00000    2.20000    2.40000 9.5180E-03 7.3061E-04
  150.00000    2.40000    2.60000 8.7650E-03 1.2234E-03
  150.00000    2.60000    2.80000 8.0033E-03 8.9512E-04
  150.00000    2.80000    3.00000 7.2389E-03 4.7836E-04
  150.00000    3.00000    3.20000 6.4912E-03 4.9907E-04
  150.00000    3.20000    3.40000 5.8114E-03 4.6404E-04
  150.00000    3.40000    3.60000 5.4829E-03 4.3629E-04
  150.00000    3.60000    3.80000 5.2687E-03 4.3407E-04
  150.00000    3.80000    4.00000 4.8368E-03 4.8259E-04
  150.00000    4.00000    4.20000 4.5151E-03 6.4486E-04
  150.00000    4.20000    4.40000 4.1885E-03 4.5676E-04
  150.00000    4.40000    4.60000 3.8786E-03 2.1577E-04
  150.00000    4.60000    4.80000 3.5467E-03 2.3263E-04
  150.00000    4.80000    5.00000 3.2142E-03 3.3514E-04
  150.00000    5.00000    5.20000 2.7941E-03 3.2634E-04
  150.00000    5.20000    5.40000 2.4141E-03 2.8982E-04
  150.00000    5.40000    5.60000 2.1167E-03 2.9366E-04
  150.00000    5.60000    5.80000 2.2984E-03 3.2875E-04
  150.00000    5.80000    6.00000 1.7395E-03 2.8010E-04
  150.00000    6.00000    6.20000 2.6645E-03 2.9611E-04
  150.00000    6.20000    6.40000 2.1053E-03 2.6979E-04
  150.00000    6.40000    6.60000 2.3414E-03 2.7457E-04
  150.00000    6.60000    6.80000 2.3771E-03 2.8858E-04
  150.00000    6.80000    7.00000 1.8739E-03 2.5057E-04
  150.00000    7.00000    7.20000 1.2328E-03 2.4221E-04
  150.00000    7.20000    7.40000 1.5877E-03 2.4447E-04
  150.00000    7.40000    7.60000 1.5266E-03 2.4996E-04
  150.00000    7.60000    7.80000 1.5405E-03 2.3360E-04
  150.00000    7.80000    8.00000 1.8684E-03 2.6308E-04
  150.00000    8.00000    8.20000 1.0921E-03 2.2023E-04
  150.00000    8.20000    8.40000 1.4191E-03 2.2402E-04
  150.00000    8.40000    8.60000 1.1122E-03 2.1044E-04
  150.00000    8.60000    8.80000 9.5297E-04 2.1220E-04
  150.00000    8.80000    9.00000 1.3655E-03 2.0474E-04
  150.00000    9.00000    9.20000 1.8926E-03 2.5809E-04
  150.00000    9.20000    9.40000 2.3732E-03 2.7471E-04
  150.00000    9.40000    9.60000 1.6306E-03 2.4475E-04
  150.00000    9.60000    9.80000 1.2167E-03 2.0659E-04
  150.00000    9.80000   10.00000 1.4954E-04 1.3702E-04
  150.00000   10.00000   10.20000 3.1224E-04 1.3482E-04
  150.00000   10.20000   10.40000 2.4370E-04 1.1831E-04
  150.00000   10.40000   10.60000 1.1279E-04 1.0997E-04
  150.00000   10.60000   10.80000 4.6596E-04 1.3005E-04
  150.00000   10.80000   11.00000 8.0136E-04 1.5581E-04
  150.00000   11.00000   11.20000 1.0899E-03 1.9006E-04
  150.00000   11.20000   11.40000 1.3971E-03 2.1860E-04
  150.00000   11.40000   11.60000 1.0107E-03 1.8801E-04
  150.00000   11.60000   11.80000 4.5851E-04 1.5194E-04
  150.00000   11.80000   12.20000 1.6355E-04 1.1556E-04
  150.00000   12.20000   12.60000 2.6966E-04 1.0778E-04
  150.00000   12.60000   12.80000 1.9472E-04 9.8324E-05
  150.00000   12.80000   13.20000 1.9772E-04 1.3505E-04
  150.00000   13.20000   13.40000 1.9311E-04 3.7456E-04
  150.00000   13.40000   13.60000 9.4597E-04 5.6080E-04
  150.00000   13.60000   13.80000 3.8472E-03 7.0071E-04
  150.00000   13.80000   14.00000 3.9107E-03 6.6822E-04
  150.00000   14.00000   14.20000 4.0562E-03 6.0511E-04
  150.00000   14.20000   14.40000 2.7159E-03 4.4470E-04
  150.00000   14.40000   14.60000 2.3190E-03 3.6398E-04
  150.00000   14.60000   14.80000 5.4681E-04 2.3938E-04
  150.00000   14.80000   15.00000 7.5504E-04 2.0268E-04
  150.00000   15.00000   15.20000 5.2972E-04 1.7926E-04
  150.00000   15.20000   15.40000 1.8906E-03 2.4479E-04
  150.00000   15.40000   15.60000 2.1592E-03 2.6820E-04
  150.00000   15.60000   15.80000 3.1946E-03 3.5833E-04
  150.00000   15.80000   16.00000 3.6974E-03 3.6629E-04
  150.00000   16.00000   16.20000 2.3169E-03 2.7735E-04
  150.00000   16.20000   16.40000 9.7804E-04 1.7241E-04
  150.00000   16.40000   16.60000 3.2658E-04 1.0830E-04
  150.00000   16.60000   16.80000 1.4978E-04 9.2008E-05
  150.00000   16.80000   17.60000 1.2673E-04 7.2458E-05
  150.00000   17.60000   18.40000 1.6201E-04 8.6463E-05
ENDDATA            518
ENDSUBENT          530
ENDENTRY             8
