ENTRY            D0375   20131124   20140228   20140211       D092
SUBENT        D0375001   20131124   20140228   20140211       D092
BIB                 10         40
TITLE      92Mo(a,a)92Mo scattering, the 92Mo-alpha optical
            potential, and the 96Ru(gamma,alpha)92Mo reaction
            rate at astrophysically relevant energies
AUTHOR     (Zs.Fulop, Gy.Gyurky, Z.Mate, E.Somorjai, L.Zolnai,
            D.Galaviz, M.Babilon, P.Mohr, A.Zilges, T.Rauscher,
            H.Oberhummer, G.Staudt)
INSTITUTE  (3HUNDEB,2GERTHD,2SWTBAS,2AUSATI,2GERTUE)
REFERENCE  (J,PR/C,64,065805,2001)
           (J,AND,99,651,2013)    revised data tabulated
           (J,NP/A,688,424C,2001) preliminary publication
FACILITY   (CYCLO,3HUNDEB) Cyclotron Laboratory at ATOMKI
SAMPLE     (42-MO-92,ENR=0.9733)
           Produced by evaporation of on a thin (20 ug/cm2)
            carbon backing.
           Thickness of the target was about 200 ug/cm2.
DETECTOR   (SIBAR) Four silicon surface-barrier detectors
            with an active area A=50 mm2 and thicknesses between
            300 um and 1500 um.
           The detectors were mounted on an upper and a lower
            turntable, which can be moved independently.
           On each turntable two detectors were mounted at an
            angular distance of 10 deg.
           Additionally, two detectors were mounted at the wall
            of the scattering chamber at a distance of 351.3 mm
            and at a fixed angle of 15.deg. (left and right sides
            relative to the beam direction).
           These detectors were used as monitor detectors to
            normalize the measured angular distribution and to
            determine the precise position of the beam spot on
            the target.
ERR-ANALYS (DATA-ERR) Both statistical and systematic (angular
            uncertainty) error sources are included.
           At forward angles, the uncertainty in the angle is the
            major source of error, whereas at backward angles the
            uncertainty is dominated by the lower statistics.
           (ANG-ERR) Scale error
STATUS     (APRVD) Entry approved by Dr.D.Galaviz
           (APRVD) Revised entry approved by P.Mohr (2013-11-24)
HISTORY    (20051214C) SD
           (20131124U) On. REFERENCE: AND added
ENDBIB              40
COMMON               1          3
ANG-ERR
ADEG
 0.1
ENDCOMMON            3
ENDSUBENT           47
SUBENT        D0375002   20131124   20140228   20140211       D092
BIB                  3          4
REACTION   (42-MO-92(A,EL)42-MO-92,,DA,,RTH)
STATUS     (TABLE) Data received from Dr. Marilena Avrigeanu
           (SPSDD,D0375003)
HISTORY    (20131124A) On. Superseded, DATA-CM -> DATA
ENDBIB               4
NOCOMMON             0          0
DATA                 4        445
EN         ANG-CM     DATA       DATA-ERR
MEV        ADEG       NO-DIM     NO-DIM
  13.83     20.145495   0.949904   0.021681
  13.83     21.185328   0.950140   0.020799
  13.83     22.226230   0.955512   0.020114
  13.83     23.270248   0.969422   0.019671
  13.83     24.311178   0.967357   0.018967
  13.83     25.333740   0.966423   0.018359
  13.83     26.374198   0.977129   0.018008
  13.83     27.416357   0.980184   0.017553
  13.83     28.469105   0.977385   0.017034
  13.83     29.474275   0.988105   0.016733
  13.83     30.507962   0.991880   0.016380
  13.83     30.571244   0.984028   0.016318
  13.83     31.609324   0.983828   0.015954
  13.83     32.648276   0.991681   0.015747
  13.83     33.689942   0.980803   0.015268
  13.83     34.728650   0.984095   0.015037
  13.83     35.750623   0.981050   0.014735
  13.83     36.788707   0.982302   0.014511
  13.83     37.828172   0.986546   0.014344
  13.83     38.876950   0.986078   0.014125
  13.83     39.883239   0.996872   0.013946
  13.83     40.910749   0.979513   0.013535
  13.83     40.914873   0.981787   0.013515
  13.83     41.961857   0.984530   0.013428
  13.83     43.001758   0.994404   0.013397
  13.83     44.042803   0.992920   0.013223
  13.83     45.083339   0.997312   0.013137
  13.83     46.118788   0.996726   0.012998
  13.83     47.150177   1.005499   0.012965
  13.83     48.189555   1.002874   0.012835
  13.83     49.222660   1.010967   0.012797
  13.83     50.259103   1.016192   0.012773
  13.83     51.281510   1.018151   0.012715
  13.83     51.287063   1.011571   0.012410
  13.83     52.326245   1.027001   0.012737
  13.83     53.361400   1.029602   0.012687
  13.83     54.397298   1.040764   0.012745
  13.83     55.432553   1.044264   0.012716
  13.83     56.463466   1.055025   0.012781
  13.83     57.490937   1.048143   0.012601
  13.83     58.524652   1.053800   0.012651
  13.83     59.553168   1.066906   0.012693
  13.83     60.584128   1.054373   0.012530
  13.83     61.608267   1.070444   0.012278
  13.83     61.641025   1.048393   0.012226
  13.83     62.666827   1.057564   0.012282
  13.83     63.692381   1.052112   0.012179
  13.83     64.714457   1.055078   0.012173
  13.83     65.747489   1.053934   0.012126
  13.83     66.774261   1.052365   0.012077
  13.83     67.798740   1.041528   0.011930
  13.83     68.819192   1.053225   0.012036
  13.83     69.848226   1.039124   0.011860
  13.83     70.874500   1.032363   0.011768
  13.83     71.893291   1.024081   0.011648
  13.83     71.896266   1.040625   0.011805
  13.83     72.913406   1.023560   0.011629
  13.83     73.933132   1.025277   0.011640
  13.83     74.950377   1.024974   0.011629
  13.83     75.974373   1.005996   0.011425
  13.83     76.993993   1.019095   0.011563
  13.83     78.011888   0.993173   0.011289
  13.83     79.027130   0.996293   0.011329
  13.83     80.046955   0.972846   0.011088
  13.83     81.064712   0.947165   0.010827
  13.83     82.079615   0.958693   0.010902
  13.83     82.081006   0.958089   0.010727
  13.83     83.097981   0.949203   0.010777
  13.83     84.107309   0.930015   0.010061
  13.83     85.118979   0.929545   0.010189
  13.83     86.132088   0.916806   0.009890
  13.83     87.143667   0.897804   0.009676
  13.83     88.153696   0.890038   0.009614
  13.83     89.163450   0.880604   0.009256
  13.83     90.173286   0.868062   0.009101
  13.83     91.182031   0.858192   0.009431
  13.83     92.189696   0.842400   0.009636
  13.83     92.189736   0.846992   0.008854
  13.83     93.196171   0.833993   0.009758
  13.83     94.202585   0.818069   0.008905
  13.83     95.208359   0.813524   0.009055
  13.83     96.212634   0.800872   0.008713
  13.83     97.216371   0.791794   0.008608
  13.83     98.220286   0.786406   0.008590
  13.83     99.223423   0.768322   0.008068
  13.83    100.223905   0.754276   0.007904
  13.83    101.223328   0.746270   0.008403
  13.83    102.220403   0.731366   0.007654
  13.83    102.222706   0.732303   0.007790
  13.83    103.722162   0.711283   0.008912
  13.83    105.212726   0.698341   0.007539
  13.83    106.708589   0.686667   0.007486
  13.83    108.201091   0.673202   0.007231
  13.83    109.691791   0.665139   0.007302
  13.83    111.181568   0.646974   0.007014
  13.83    112.178005   0.643262   0.006959
  13.83    112.669026   0.637031   0.006969
  13.83    113.666905   0.611415   0.008241
  13.83    114.160323   0.604584   0.006759
  13.83    114.160323   0.624816   0.006986
  13.83    115.141388   0.625601   0.006900
  13.83    115.652469   0.595226   0.006499
  13.83    115.652469   0.615145   0.006716
  13.83    116.626879   0.599444   0.006722
  13.83    117.145641   0.575807   0.006203
  13.83    117.145641   0.595076   0.006410
  13.83    118.107895   0.572521   0.006313
  13.83    119.587151   0.573484   0.006504
  13.83    121.065958   0.557136   0.006215
  13.83    122.542234   0.552134   0.006228
  13.83    124.024699   0.539441   0.006262
  13.83    125.508737   0.527945   0.005948
  13.83    126.994453   0.514149   0.005687
  13.83    127.161552   0.512466   0.005986
  13.83    128.611640   0.511719   0.007834
  13.83    130.080398   0.501379   0.006007
  13.83    131.527964   0.483776   0.005917
  13.83    132.978694   0.475045   0.005657
  13.83    134.428441   0.460439   0.005712
  13.83    135.875391   0.462339   0.005581
  13.83    136.830995   0.452455   0.005462
  13.83    137.322584   0.454067   0.005564
  13.83    138.272939   0.442648   0.007348
  13.83    138.758224   0.448206   0.005676
  13.83    139.737830   0.426514   0.005339
  13.83    140.189033   0.447958   0.005444
  13.83    141.177622   0.428172   0.005449
  13.83    141.615120   0.436933   0.005187
  13.83    142.621657   0.421793   0.005195
  13.83    144.064975   0.412058   0.005313
  13.83    145.505460   0.412250   0.005150
  13.83    146.946641   0.407855   0.005173
  13.83    148.375032   0.406705   0.005340
  13.83    149.798501   0.406424   0.005090
  13.83    151.200502   0.401479   0.004619
  13.83    151.217256   0.401479   0.004882
  13.83    153.155103   0.399474   0.004327
  13.83    155.087057   0.404249   0.004572
  13.83    156.990935   0.394904   0.004450
  13.83    158.908678   0.397256   0.004939
  13.83    160.774672   0.384109   0.004347
  13.83    160.841256   0.384109   0.004642
  13.83    162.728426   0.377988   0.004119
  13.83    164.658018   0.375647   0.004299
  13.83    166.558171   0.369258   0.004204
  13.83    168.473677   0.365996   0.004641
  13.83    170.405215   0.375293   0.004444
  16.42     19.687156   0.961742   0.022109
  16.42     20.729807   0.975601   0.021481
  16.42     21.768183   0.981745   0.020766
  16.42     22.817432   0.976648   0.019885
  16.42     23.850294   0.974273   0.019157
  16.42     24.902725   0.959504   0.018247
  16.42     25.962044   0.956839   0.017631
  16.42     26.998348   0.944952   0.016914
  16.42     28.046457   0.952225   0.016581
  16.42     29.089522   0.957301   0.016245
  16.42     30.144322   0.961570   0.015884
  16.42     30.148132   0.976692   0.016171
  16.42     31.190443   0.977042   0.015813
  16.42     32.228711   0.990327   0.015688
  16.42     33.276833   1.000672   0.015525
  16.42     34.309868   1.008954   0.015367
  16.42     35.360595   1.008613   0.015088
  16.42     36.417348   1.039662   0.015287
  16.42     37.453162   1.045668   0.015135
  16.42     38.499458   1.053882   0.015029
  16.42     39.541108   1.073709   0.015098
  16.42     40.593016   1.066949   0.014730
  16.42     40.601431   1.075375   0.014748
  16.42     41.645195   1.084312   0.014677
  16.42     42.676522   1.087287   0.014541
  16.42     43.722042   1.085519   0.014297
  16.42     44.770539   1.089945   0.014251
  16.42     45.811902   1.087046   0.014072
  16.42     46.851871   1.082350   0.013881
  16.42     47.896630   1.090979   0.013866
  16.42     48.944678   1.102507   0.013895
  16.42     49.975161   1.084653   0.013572
  16.42     51.014951   1.071520   0.013019
  16.42     51.022058   1.070533   0.013297
  16.42     52.062327   1.063120   0.013121
  16.42     53.092107   1.051060   0.012903
  16.42     54.133522   1.035294   0.012544
  16.42     55.177142   1.016477   0.012364
  16.42     56.214730   1.006202   0.012193
  16.42     57.251001   0.975978   0.011799
  16.42     58.290917   0.965153   0.011637
  16.42     59.333203   0.944415   0.011371
  16.42     60.361407   0.938391   0.011278
  16.42     61.396790   0.898128   0.010276
  16.42     61.401829   0.913349   0.010586
  16.42     62.433414   0.890395   0.010300
  16.42     63.469166   0.858103   0.009634
  16.42     64.505937   0.827744   0.009310
  16.42     65.535428   0.809418   0.009110
  16.42     66.568284   0.793150   0.008881
  16.42     67.603124   0.758473   0.008499
  16.42     68.630914   0.738470   0.008252
  16.42     69.669402   0.724229   0.008084
  16.42     70.700901   0.711489   0.007885
  16.42     71.729633   0.679515   0.007903
  16.42     71.729633   0.691143   0.007690
  16.42     72.756590   0.671744   0.007834
  16.42     72.759918   0.669388   0.007905
  16.42     73.786079   0.661341   0.007315
  16.42     74.815921   0.634047   0.007098
  16.42     75.840784   0.624852   0.007070
  16.42     76.867532   0.607273   0.006866
  16.42     77.895154   0.594337   0.006678
  16.42     78.918269   0.576731   0.006478
  16.42     79.947168   0.561164   0.006326
  16.42     80.971647   0.545196   0.006099
  16.42     81.993443   0.521151   0.005775
  16.42     81.994269   0.528804   0.005986
  16.42     83.017312   0.505502   0.006404
  16.42     84.038988   0.493471   0.005496
  16.42     84.039340   0.504646   0.005700
  16.42     85.060424   0.479356   0.005340
  16.42     85.061269   0.485573   0.005460
  16.42     86.080018   0.467507   0.005232
  16.42     86.080551   0.459941   0.005134
  16.42     87.099659   0.448372   0.004905
  16.42     87.099970   0.448529   0.005028
  16.42     88.117196   0.431614   0.004741
  16.42     88.119293   0.436987   0.004864
  16.42     89.136472   0.416907   0.004593
  16.42     89.137414   0.421708   0.004699
  16.42     90.154012   0.395964   0.004362
  16.42     90.154643   0.412989   0.004567
  16.42     91.171131   0.399344   0.004323
  16.42     91.171261   0.397253   0.004388
  16.42     92.187076   0.389078   0.004202
  16.42     92.187116   0.372801   0.004133
  16.42     92.187116   0.386087   0.004280
  16.42     92.187146   0.386374   0.004489
  16.42     93.202338   0.358135   0.003964
  16.42     93.202338   0.370899   0.004106
  16.42     94.216447   0.372475   0.004488
  16.42     94.216527   0.368843   0.004333
  16.42     94.216627   0.350346   0.003931
  16.42     94.216627   0.362833   0.004071
  16.42     95.229595   0.355251   0.004260
  16.42     95.229904   0.351562   0.004149
  16.42     96.242709   0.341839   0.004046
  16.42     96.243018   0.345478   0.004110
  16.42     97.254832   0.330447   0.003948
  16.42     97.255101   0.330906   0.003796
  16.42     98.265507   0.319179   0.003779
  16.42    102.309914   0.298553   0.003284
  16.42    103.818501   0.291591   0.003199
  16.42    105.329198   0.278741   0.003073
  16.42    106.834119   0.266997   0.002918
  16.42    108.338348   0.260462   0.002964
  16.42    109.840195   0.248840   0.002893
  16.42    111.340416   0.236940   0.002761
  16.42    112.351001   0.229847   0.002674
  16.42    112.841606   0.229500   0.002657
  16.42    113.844731   0.222406   0.002583
  16.42    114.340013   0.216997   0.002520
  16.42    115.344099   0.214657   0.002507
  16.42    115.832898   0.210950   0.002424
  16.42    116.834843   0.204919   0.002365
  16.42    117.324473   0.204169   0.002371
  16.42    118.325958   0.199922   0.002443
  16.42    119.814559   0.189605   0.002389
  16.42    121.301835   0.189755   0.002372
  16.42    122.791453   0.183876   0.002278
  16.42    124.277838   0.176660   0.002189
  16.42    125.757341   0.173240   0.002112
  16.42    126.880735   0.157622   0.002119
  16.42    127.235950   0.168797   0.002082
  16.42    128.332462   0.153512   0.002053
  16.42    129.771444   0.144873   0.001961
  16.42    131.219542   0.139840   0.001854
  16.42    132.663220   0.134385   0.001934
  16.42    134.106816   0.132438   0.001961
  16.42    135.548715   0.130592   0.001918
  16.42    136.486885   0.128778   0.001885
  16.42    136.984113   0.128061   0.001850
  16.42    137.934426   0.125279   0.001821
  16.42    138.420703   0.123351   0.001777
  16.42    139.366907   0.122421   0.001786
  16.42    139.863164   0.123948   0.001736
  16.42    140.810776   0.117123   0.001670
  16.42    141.303623   0.118619   0.001691
  16.42    142.249733   0.111871   0.001755
  16.42    143.688967   0.114322   0.001829
  16.42    145.126581   0.111805   0.001775
  16.42    146.557055   0.106972   0.001677
  16.42    147.989342   0.104959   0.001629
  16.42    149.428711   0.101169   0.001537
  16.42    150.866118   0.105406   0.001519
  16.42    150.867591   0.105406   0.001836
  16.42    152.775933   0.110904   0.001387
  16.42    154.691064   0.112189   0.001426
  19.5      20.388101   0.924615   0.021743
  19.5      21.419506   0.940393   0.021243
  19.5      22.467370   0.954794   0.020769
  19.5      23.497884   0.975956   0.020503
  19.5      24.560690   1.003289   0.020366
  19.5      25.573168   1.021053   0.020145
  19.5      26.633714   1.047390   0.020095
  19.5      27.624614   1.051159   0.019643
  19.5      28.702062   1.071125   0.019527
  19.5      29.738061   1.070785   0.019116
  19.5      30.789787   1.100414   0.019077
  19.5      30.794758   1.092353   0.019067
  19.5      31.824250   1.114988   0.019032
  19.5      32.868721   1.121884   0.018779
  19.5      33.897209   1.120587   0.018409
  19.5      34.954890   1.111238   0.017890
  19.5      35.966860   1.093700   0.017407
  19.5      37.022081   1.089287   0.017140
  19.5      38.014687   1.057844   0.016398
  19.5      39.084640   1.034012   0.015891
  19.5      40.117371   1.005002   0.015362
  19.5      41.163874   0.965938   0.014379
  19.5      41.168059   0.964897   0.014322
  19.5      41.474229   0.970807   0.014424
  19.5      42.488791   0.943870   0.013728
  19.5      43.574418   0.919025   0.013274
  19.5      44.586772   0.882307   0.012669
  19.5      45.624918   0.849267   0.012131
  19.5      46.640038   0.827529   0.011633
  19.5      47.699221   0.813758   0.011700
  19.5      48.721232   0.781519   0.010948
  19.5      49.746155   0.759658   0.010468
  19.5      50.782535   0.721897   0.010065
  19.5      51.496991   0.688346   0.009827
  19.5      51.753003   0.703575   0.010135
  19.5      51.795697   0.695321   0.009887
  19.5      52.764404   0.661131   0.009203
  19.5      53.834413   0.642489   0.009035
  19.5      54.843586   0.596712   0.008475
  19.5      55.873754   0.570803   0.008177
  19.5      56.885017   0.539641   0.007582
  19.5      57.931563   0.517081   0.007886
  19.5      58.947958   0.488279   0.007110
  19.5      59.966500   0.471790   0.006668
  19.5      60.993802   0.443583   0.006617
  19.5      61.742607   0.432161   0.006458
  19.5      62.002772   0.427445   0.006750
  19.5      62.749662   0.423218   0.005304
  19.5      62.766075   0.424188   0.005557
  19.5      63.764741   0.412595   0.005146
  19.5      64.773549   0.398444   0.004962
  19.5      65.799284   0.382608   0.004766
  19.5      66.784367   0.365485   0.004552
  19.5      67.826908   0.355604   0.004436
  19.5      68.831959   0.332189   0.004154
  19.5      69.862774   0.325052   0.004070
  19.5      70.883785   0.307733   0.003868
  19.5      71.903088   0.299839   0.003758
  19.5      71.962719   0.269518   0.004943
  19.5      72.969019   0.274180   0.003508
  19.5      72.980025   0.278190   0.003923
  19.5      73.980768   0.266265   0.003395
  19.5      74.988467   0.254253   0.003258
  19.5      76.006979   0.243155   0.003140
  19.5      77.000193   0.233080   0.003024
  19.5      78.028688   0.219274   0.002882
  19.5      79.034503   0.211444   0.002797
  19.5      80.055070   0.204954   0.002739
  19.5      81.069684   0.194786   0.002632
  19.5      82.083102   0.187780   0.002532
  19.5      82.086287   0.190017   0.002572
  19.5      84.106756   0.179000   0.002496
  19.5      85.126571   0.172623   0.002481
  19.5      86.130300   0.161878   0.002364
  19.5      87.148717   0.159188   0.002319
  19.5      88.157459   0.150059   0.002138
  19.5      89.165334   0.148321   0.002139
  19.5      90.172435   0.142309   0.002061
  19.5      91.180670   0.138969   0.001974
  19.5      92.189366   0.136261   0.002005
  19.5      92.189846   0.131121   0.002023
  19.5      94.202695   0.123701   0.001994
  19.5      95.205565   0.118527   0.002011
  19.5      96.213672   0.114598   0.001958
  19.5      97.211927   0.110789   0.001915
  19.5      98.215348   0.105201   0.001739
  19.5      99.219623   0.102090   0.001734
  19.5     100.226729   0.100703   0.001702
  19.5     101.232348   0.096008   0.001594
  19.5     102.189135   0.086738   0.001460
  19.5     102.232215   0.091493   0.001610
  19.5     103.685853   0.081052   0.001432
  19.5     105.173329   0.077314   0.001377
  19.5     106.650014   0.073050   0.001376
  19.5     108.148304   0.065895   0.001253
  19.5     109.613150   0.066667   0.001245
  19.5     111.101377   0.060652   0.001166
  19.5     112.111372   0.061726   0.001255
  19.5     112.580512   0.059952   0.001234
  19.5     113.599833   0.059764   0.001265
  19.5     114.078360   0.058127   0.001164
  19.5     114.078360   0.060314   0.001208
  19.5     115.072775   0.058131   0.001231
  19.5     115.606181   0.053581   0.001092
  19.5     115.606181   0.055598   0.001133
  19.5     116.529760   0.055285   0.001244
  19.5     117.108032   0.054990   0.000919
  19.5     117.108032   0.057059   0.000953
  19.5     118.023947   0.055565   0.001216
  19.5     119.466518   0.054784   0.001174
  19.5     120.946772   0.054450   0.001160
  19.5     122.414279   0.051253   0.001199
  19.5     123.909116   0.051134   0.001166
  19.5     125.444904   0.046840   0.001086
  19.5     126.943611   0.045473   0.000859
  19.5     127.272070   0.045473   0.001157
  19.5     128.719094   0.044197   0.001199
  19.5     130.187158   0.044552   0.001188
  19.5     131.675138   0.039503   0.001138
  19.5     133.102581   0.036343   0.001063
  19.5     134.602734   0.034541   0.001013
  19.5     136.043855   0.033012   0.000966
  19.5     136.966242   0.030696   0.001006
  19.5     137.499938   0.030696   0.000982
  19.5     138.403060   0.031633   0.001042
  19.5     138.915232   0.029888   0.000952
  19.5     139.865825   0.029136   0.000980
  19.5     140.273950   0.030924   0.000945
  19.5     141.352399   0.029659   0.001040
  19.5     141.681558   0.031523   0.000739
  19.5     142.767504   0.031072   0.001017
  19.5     144.268399   0.028559   0.000960
  19.5     145.700523   0.028855   0.000950
  19.5     147.150422   0.033196   0.001087
  19.5     148.554152   0.030879   0.001008
  19.5     149.894743   0.033584   0.001037
  19.5     151.292058   0.032277   0.000780
  19.5     151.787179   0.030814   0.001212
  19.5     153.364523   0.028331   0.001684
  19.5     155.178458   0.032693   0.000697
  19.5     157.027147   0.029227   0.000670
  19.5     158.786152   0.033342   0.000879
  19.5     160.829152   0.028059   0.000610
  19.5     161.408706   0.025841   0.001149
  19.5     162.953397   0.022644   0.001513
  19.5     164.755562   0.025657   0.000619
  19.5     166.596579   0.027017   0.000650
  19.5     168.344512   0.019540   0.002981
  19.5     170.392541   0.023102   0.000550
ENDDATA            447
ENDSUBENT          456
SUBENT        D0375003   20131124   20140228   20140211       D092
BIB                  3          4
REACTION   (42-MO-92(A,EL)42-MO-92,,DA,,RTH)
STATUS     (TABLE) Data tabulated by Peter Mohr
HISTORY    (20131123R) On. Data received from Peter Mohr
           (20131124C) On
ENDBIB               4
NOCOMMON             0          0
DATA                 4        454
EN-CM      ANG-CM     DATA       DATA-ERR
MEV        ADEG       NO-DIM     NO-DIM
 13.20       20.146    9.4990E-01 2.1680E-02
 13.20       21.185    9.5014E-01 2.0800E-02
 13.20       22.226    9.5551E-01 2.0110E-02
 13.20       23.270    9.6942E-01 1.9670E-02
 13.20       24.311    9.6736E-01 1.8970E-02
 13.20       25.334    9.6642E-01 1.8360E-02
 13.20       26.374    9.7713E-01 1.8010E-02
 13.20       27.416    9.8018E-01 1.7550E-02
 13.20       28.469    9.7738E-01 1.7030E-02
 13.20       29.474    9.8811E-01 1.6730E-02
 13.20       30.508    9.9188E-01 1.6380E-02
 13.20       30.571    9.8403E-01 1.6320E-02
 13.20       31.609    9.8383E-01 1.5950E-02
 13.20       32.648    9.9168E-01 1.5750E-02
 13.20       33.690    9.8080E-01 1.5270E-02
 13.20       34.729    9.8410E-01 1.5040E-02
 13.20       35.751    9.8105E-01 1.4740E-02
 13.20       36.789    9.8230E-01 1.4510E-02
 13.20       37.828    9.8655E-01 1.4340E-02
 13.20       38.877    9.8608E-01 1.4130E-02
 13.20       39.883    9.9687E-01 1.3950E-02
 13.20       40.911    9.7951E-01 1.3540E-02
 13.20       40.915    9.8179E-01 1.3510E-02
 13.20       41.962    9.8453E-01 1.3430E-02
 13.20       43.002    9.9440E-01 1.3400E-02
 13.20       44.043    9.9292E-01 1.3220E-02
 13.20       45.083    9.9731E-01 1.3140E-02
 13.20       46.119    9.9673E-01 1.3000E-02
 13.20       47.150    1.0055E+00 1.2970E-02
 13.20       48.190    1.0029E+00 1.2830E-02
 13.20       49.223    1.0110E+00 1.2800E-02
 13.20       50.259    1.0162E+00 1.2770E-02
 13.20       51.282    1.0182E+00 1.2720E-02
 13.20       51.287    1.0116E+00 1.2410E-02
 13.20       52.326    1.0270E+00 1.2740E-02
 13.20       53.361    1.0296E+00 1.2690E-02
 13.20       54.397    1.0408E+00 1.2740E-02
 13.20       55.433    1.0443E+00 1.2720E-02
 13.20       56.463    1.0550E+00 1.2780E-02
 13.20       57.491    1.0481E+00 1.2600E-02
 13.20       58.525    1.0538E+00 1.2650E-02
 13.20       59.553    1.0669E+00 1.2690E-02
 13.20       60.584    1.0544E+00 1.2530E-02
 13.20       61.608    1.0704E+00 1.2280E-02
 13.20       61.641    1.0484E+00 1.2230E-02
 13.20       62.667    1.0576E+00 1.2280E-02
 13.20       63.692    1.0521E+00 1.2180E-02
 13.20       64.714    1.0551E+00 1.2170E-02
 13.20       65.747    1.0539E+00 1.2130E-02
 13.20       66.774    1.0524E+00 1.2080E-02
 13.20       67.799    1.0415E+00 1.1930E-02
 13.20       68.819    1.0532E+00 1.2040E-02
 13.20       69.848    1.0391E+00 1.1860E-02
 13.20       70.875    1.0324E+00 1.1770E-02
 13.20       71.893    1.0241E+00 1.1650E-02
 13.20       71.896    1.0406E+00 1.1810E-02
 13.20       72.913    1.0236E+00 1.1630E-02
 13.20       73.933    1.0253E+00 1.1640E-02
 13.20       74.950    1.0250E+00 1.1630E-02
 13.20       75.974    1.0060E+00 1.1420E-02
 13.20       76.994    1.0191E+00 1.1560E-02
 13.20       78.012    9.9317E-01 1.1290E-02
 13.20       79.027    9.9629E-01 1.1330E-02
 13.20       80.047    9.7285E-01 1.1090E-02
 13.20       81.065    9.4717E-01 1.0830E-02
 13.20       82.080    9.5869E-01 1.0900E-02
 13.20       82.081    9.5809E-01 1.0730E-02
 13.20       83.098    9.4920E-01 1.0780E-02
 13.20       84.107    9.3002E-01 1.0060E-02
 13.20       85.119    9.2954E-01 1.0190E-02
 13.20       86.132    9.1681E-01 9.8900E-03
 13.20       87.144    8.9780E-01 9.6800E-03
 13.20       88.154    8.9004E-01 9.6100E-03
 13.20       89.163    8.8060E-01 9.2600E-03
 13.20       90.173    8.6806E-01 9.1000E-03
 13.20       91.182    8.5819E-01 9.4300E-03
 13.20       92.190    8.4240E-01 9.6400E-03
 13.20       92.190    8.4699E-01 8.8500E-03
 13.20       93.196    8.3399E-01 9.7600E-03
 13.20       94.203    8.1807E-01 8.9000E-03
 13.20       95.208    8.1352E-01 9.0600E-03
 13.20       96.213    8.0087E-01 8.7100E-03
 13.20       97.216    7.9179E-01 8.6100E-03
 13.20       98.220    7.8641E-01 8.5900E-03
 13.20       99.223    7.6832E-01 8.0700E-03
 13.20      100.224    7.5428E-01 7.9000E-03
 13.20      101.223    7.4627E-01 8.4000E-03
 13.20      102.220    7.3137E-01 7.6500E-03
 13.20      102.223    7.3230E-01 7.7900E-03
 13.20      103.722    7.1128E-01 8.9100E-03
 13.20      105.213    6.9834E-01 7.5400E-03
 13.20      106.709    6.8667E-01 7.4900E-03
 13.20      108.201    6.7320E-01 7.2300E-03
 13.20      109.692    6.6514E-01 7.3000E-03
 13.20      111.182    6.4697E-01 7.0100E-03
 13.20      112.178    6.4326E-01 6.9600E-03
 13.20      112.669    6.3703E-01 6.9700E-03
 13.20      113.667    6.1142E-01 8.2400E-03
 13.20      114.160    6.0458E-01 6.7600E-03
 13.20      114.160    6.2482E-01 6.9900E-03
 13.20      114.160    6.2482E-01 6.9900E-03
 13.20      115.141    6.2560E-01 6.9000E-03
 13.20      115.652    5.9523E-01 6.5000E-03
 13.20      115.652    6.1515E-01 6.7200E-03
 13.20      115.652    6.1515E-01 6.7200E-03
 13.20      116.627    5.9944E-01 6.7200E-03
 13.20      117.146    5.7581E-01 6.2000E-03
 13.20      117.146    5.9508E-01 6.4100E-03
 13.20      117.146    5.9508E-01 6.4100E-03
 13.20      118.108    5.7252E-01 6.3100E-03
 13.20      119.587    5.7348E-01 6.5000E-03
 13.20      121.066    5.5714E-01 6.2200E-03
 13.20      122.542    5.5213E-01 6.2300E-03
 13.20      124.025    5.3944E-01 6.2600E-03
 13.20      125.509    5.2795E-01 5.9500E-03
 13.20      126.994    5.1415E-01 5.6900E-03
 13.20      127.162    5.1247E-01 5.9900E-03
 13.20      128.612    5.1172E-01 7.8300E-03
 13.20      130.080    5.0138E-01 6.0100E-03
 13.20      131.528    4.8378E-01 5.9200E-03
 13.20      132.979    4.7505E-01 5.6600E-03
 13.20      134.428    4.6044E-01 5.7100E-03
 13.20      135.875    4.6234E-01 5.5800E-03
 13.20      136.831    4.5246E-01 5.4600E-03
 13.20      137.323    4.5407E-01 5.5600E-03
 13.20      138.273    4.4265E-01 7.3500E-03
 13.20      138.758    4.4821E-01 5.6800E-03
 13.20      139.738    4.2651E-01 5.3400E-03
 13.20      140.189    4.4796E-01 5.4400E-03
 13.20      141.178    4.2817E-01 5.4500E-03
 13.20      141.615    4.3693E-01 5.1900E-03
 13.20      142.622    4.2179E-01 5.2000E-03
 13.20      144.065    4.1206E-01 5.3100E-03
 13.20      145.505    4.1225E-01 5.1500E-03
 13.20      146.947    4.0786E-01 5.1700E-03
 13.20      148.375    4.0670E-01 5.3400E-03
 13.20      149.799    4.0642E-01 5.0900E-03
 13.20      151.201    4.0148E-01 4.6200E-03
 13.20      151.217    4.0148E-01 4.8800E-03
 13.20      153.155    3.9947E-01 4.3300E-03
 13.20      155.087    4.0425E-01 4.5700E-03
 13.20      156.991    3.9490E-01 4.4500E-03
 13.20      158.909    3.9726E-01 4.9400E-03
 13.20      160.775    3.8411E-01 4.3500E-03
 13.20      160.841    3.8411E-01 4.6400E-03
 13.20      162.728    3.7799E-01 4.1200E-03
 13.20      164.658    3.7565E-01 4.3000E-03
 13.20      166.558    3.6926E-01 4.2000E-03
 13.20      168.474    3.6600E-01 4.6400E-03
 13.20      170.405    3.7529E-01 4.4400E-03
 15.69       19.687    9.6174E-01 2.2110E-02
 15.69       20.730    9.7560E-01 2.1480E-02
 15.69       21.768    9.8174E-01 2.0770E-02
 15.69       22.817    9.7665E-01 1.9890E-02
 15.69       23.850    9.7427E-01 1.9160E-02
 15.69       24.903    9.5950E-01 1.8250E-02
 15.69       25.962    9.5684E-01 1.7630E-02
 15.69       26.998    9.4495E-01 1.6910E-02
 15.69       28.046    9.5222E-01 1.6580E-02
 15.69       29.090    9.5730E-01 1.6240E-02
 15.69       30.144    9.6157E-01 1.5880E-02
 15.69       30.148    9.7669E-01 1.6170E-02
 15.69       31.190    9.7704E-01 1.5810E-02
 15.69       32.229    9.9033E-01 1.5690E-02
 15.69       33.277    1.0007E+00 1.5530E-02
 15.69       34.310    1.0090E+00 1.5370E-02
 15.69       35.361    1.0086E+00 1.5090E-02
 15.69       36.417    1.0397E+00 1.5290E-02
 15.69       37.453    1.0457E+00 1.5130E-02
 15.69       38.499    1.0539E+00 1.5030E-02
 15.69       39.541    1.0737E+00 1.5100E-02
 15.69       40.593    1.0670E+00 1.4730E-02
 15.69       40.601    1.0754E+00 1.4750E-02
 15.69       41.645    1.0843E+00 1.4680E-02
 15.69       42.677    1.0873E+00 1.4540E-02
 15.69       43.722    1.0855E+00 1.4300E-02
 15.69       44.771    1.0899E+00 1.4250E-02
 15.69       45.812    1.0871E+00 1.4070E-02
 15.69       46.852    1.0824E+00 1.3880E-02
 15.69       47.897    1.0910E+00 1.3870E-02
 15.69       48.945    1.1025E+00 1.3890E-02
 15.69       49.975    1.0847E+00 1.3570E-02
 15.69       51.015    1.0715E+00 1.3020E-02
 15.69       51.022    1.0705E+00 1.3300E-02
 15.69       52.062    1.0631E+00 1.3120E-02
 15.69       53.092    1.0511E+00 1.2900E-02
 15.69       54.134    1.0353E+00 1.2540E-02
 15.69       55.177    1.0165E+00 1.2360E-02
 15.69       56.215    1.0062E+00 1.2190E-02
 15.69       57.251    9.7598E-01 1.1800E-02
 15.69       58.291    9.6515E-01 1.1640E-02
 15.69       59.333    9.4442E-01 1.1370E-02
 15.69       60.361    9.3839E-01 1.1280E-02
 15.69       61.397    8.9813E-01 1.0280E-02
 15.69       61.402    9.1335E-01 1.0590E-02
 15.69       62.433    8.9040E-01 1.0300E-02
 15.69       63.469    8.5810E-01 9.6300E-03
 15.69       64.506    8.2774E-01 9.3100E-03
 15.69       65.535    8.0942E-01 9.1100E-03
 15.69       66.568    7.9315E-01 8.8800E-03
 15.69       67.603    7.5847E-01 8.5000E-03
 15.69       68.631    7.3847E-01 8.2500E-03
 15.69       69.669    7.2423E-01 8.0800E-03
 15.69       70.701    7.1149E-01 7.8800E-03
 15.69       71.730    6.7951E-01 7.9000E-03
 15.69       71.730    6.9114E-01 7.6900E-03
 15.69       72.757    6.7174E-01 7.8300E-03
 15.69       72.760    6.6939E-01 7.9100E-03
 15.69       73.786    6.6134E-01 7.3200E-03
 15.69       74.816    6.3405E-01 7.1000E-03
 15.69       75.841    6.2485E-01 7.0700E-03
 15.69       76.868    6.0727E-01 6.8700E-03
 15.69       77.895    5.9434E-01 6.6800E-03
 15.69       78.918    5.7673E-01 6.4800E-03
 15.69       79.947    5.6116E-01 6.3300E-03
 15.69       80.972    5.4520E-01 6.1000E-03
 15.69       81.993    5.2115E-01 5.7700E-03
 15.69       81.994    5.2880E-01 5.9900E-03
 15.69       83.017    5.0550E-01 6.4000E-03
 15.69       84.039    4.9347E-01 5.5000E-03
 15.69       84.039    5.0465E-01 5.7000E-03
 15.69       85.060    4.7936E-01 5.3400E-03
 15.69       85.061    4.8557E-01 5.4600E-03
 15.69       86.080    4.6751E-01 5.2300E-03
 15.69       86.081    4.5994E-01 5.1300E-03
 15.69       87.100    4.4837E-01 4.9000E-03
 15.69       87.100    4.4853E-01 5.0300E-03
 15.69       88.117    4.3161E-01 4.7400E-03
 15.69       88.119    4.3699E-01 4.8600E-03
 15.69       89.136    4.1691E-01 4.5900E-03
 15.69       89.137    4.2171E-01 4.7000E-03
 15.69       90.154    3.9596E-01 4.3600E-03
 15.69       90.155    4.1299E-01 4.5700E-03
 15.69       91.171    3.9934E-01 4.3200E-03
 15.69       91.171    3.9725E-01 4.3900E-03
 15.69       92.187    3.8908E-01 4.2000E-03
 15.69       92.187    3.7280E-01 4.1300E-03
 15.69       92.187    3.8609E-01 4.2800E-03
 15.69       92.187    3.8609E-01 4.2800E-03
 15.69       92.187    3.8637E-01 4.4900E-03
 15.69       93.202    3.5813E-01 3.9600E-03
 15.69       93.202    3.7090E-01 4.1100E-03
 15.69       93.202    3.7090E-01 4.1100E-03
 15.69       94.216    3.7248E-01 4.4900E-03
 15.69       94.217    3.6884E-01 4.3300E-03
 15.69       94.217    3.5035E-01 3.9300E-03
 15.69       94.217    3.6283E-01 4.0700E-03
 15.69       94.217    3.6283E-01 4.0700E-03
 15.69       95.230    3.5525E-01 4.2600E-03
 15.69       95.230    3.5156E-01 4.1500E-03
 15.69       96.243    3.4184E-01 4.0500E-03
 15.69       96.243    3.4548E-01 4.1100E-03
 15.69       97.255    3.3045E-01 3.9500E-03
 15.69       97.255    3.3091E-01 3.8000E-03
 15.69       98.266    3.1918E-01 3.7800E-03
 15.69      102.310    2.9855E-01 3.2800E-03
 15.69      103.819    2.9159E-01 3.2000E-03
 15.69      105.329    2.7874E-01 3.0700E-03
 15.69      106.834    2.6700E-01 2.9200E-03
 15.69      108.338    2.6046E-01 2.9600E-03
 15.69      109.840    2.4884E-01 2.8900E-03
 15.69      111.340    2.3694E-01 2.7600E-03
 15.69      112.351    2.2985E-01 2.6700E-03
 15.69      112.842    2.2950E-01 2.6600E-03
 15.69      113.845    2.2241E-01 2.5800E-03
 15.69      114.340    2.1700E-01 2.5200E-03
 15.69      115.344    2.1466E-01 2.5100E-03
 15.69      115.833    2.1095E-01 2.4200E-03
 15.69      116.835    2.0492E-01 2.3600E-03
 15.69      117.324    2.0417E-01 2.3700E-03
 15.69      118.326    1.9992E-01 2.4400E-03
 15.69      119.815    1.8961E-01 2.3900E-03
 15.69      121.302    1.8976E-01 2.3700E-03
 15.69      122.791    1.8388E-01 2.2800E-03
 15.69      124.278    1.7666E-01 2.1900E-03
 15.69      125.757    1.7324E-01 2.1100E-03
 15.69      126.881    1.5762E-01 2.1200E-03
 15.69      127.236    1.6880E-01 2.0800E-03
 15.69      128.332    1.5351E-01 2.0500E-03
 15.69      129.771    1.4487E-01 1.9600E-03
 15.69      131.220    1.3984E-01 1.8500E-03
 15.69      132.663    1.3439E-01 1.9300E-03
 15.69      134.107    1.3244E-01 1.9600E-03
 15.69      135.549    1.3059E-01 1.9200E-03
 15.69      136.487    1.2878E-01 1.8900E-03
 15.69      136.984    1.2806E-01 1.8500E-03
 15.69      137.934    1.2528E-01 1.8200E-03
 15.69      138.421    1.2335E-01 1.7800E-03
 15.69      139.367    1.2242E-01 1.7900E-03
 15.69      139.863    1.2395E-01 1.7400E-03
 15.69      140.811    1.1712E-01 1.6700E-03
 15.69      141.304    1.1862E-01 1.6900E-03
 15.69      142.250    1.1187E-01 1.7600E-03
 15.69      143.689    1.1432E-01 1.8300E-03
 15.69      145.127    1.1181E-01 1.7800E-03
 15.69      146.557    1.0697E-01 1.6800E-03
 15.69      147.989    1.0496E-01 1.6300E-03
 15.69      149.429    1.0117E-01 1.5400E-03
 15.69      150.866    1.0541E-01 1.5200E-03
 15.69      150.868    1.0541E-01 1.8400E-03
 15.69      152.776    1.1090E-01 1.3900E-03
 15.69      154.691    1.1219E-01 1.4300E-03
 18.70       20.388    9.2461E-01 2.1740E-02
 18.70       21.420    9.4039E-01 2.1240E-02
 18.70       22.467    9.5479E-01 2.0770E-02
 18.70       23.498    9.7596E-01 2.0500E-02
 18.70       24.561    1.0033E+00 2.0370E-02
 18.70       25.573    1.0211E+00 2.0150E-02
 18.70       26.634    1.0474E+00 2.0090E-02
 18.70       27.625    1.0512E+00 1.9640E-02
 18.70       28.702    1.0711E+00 1.9530E-02
 18.70       29.738    1.0708E+00 1.9120E-02
 18.70       30.790    1.1004E+00 1.9080E-02
 18.70       30.795    1.0924E+00 1.9070E-02
 18.70       31.824    1.1150E+00 1.9030E-02
 18.70       32.869    1.1219E+00 1.8780E-02
 18.70       33.897    1.1206E+00 1.8410E-02
 18.70       34.955    1.1112E+00 1.7890E-02
 18.70       35.967    1.0937E+00 1.7410E-02
 18.70       37.022    1.0893E+00 1.7140E-02
 18.70       38.015    1.0578E+00 1.6400E-02
 18.70       39.085    1.0340E+00 1.5890E-02
 18.70       40.117    1.0050E+00 1.5360E-02
 18.70       41.164    9.6594E-01 1.4380E-02
 18.70       41.168    9.6490E-01 1.4320E-02
 18.70       41.474    9.7081E-01 1.4420E-02
 18.70       42.489    9.4387E-01 1.3730E-02
 18.70       43.574    9.1902E-01 1.3270E-02
 18.70       44.587    8.8231E-01 1.2670E-02
 18.70       45.625    8.4927E-01 1.2130E-02
 18.70       46.640    8.2753E-01 1.1630E-02
 18.70       47.699    8.1376E-01 1.1700E-02
 18.70       48.721    7.8152E-01 1.0950E-02
 18.70       49.746    7.5966E-01 1.0470E-02
 18.70       50.783    7.2190E-01 1.0060E-02
 18.70       51.497    6.8835E-01 9.8300E-03
 18.70       51.753    7.0357E-01 1.0140E-02
 18.70       51.796    6.9532E-01 9.8900E-03
 18.70       52.764    6.6113E-01 9.2000E-03
 18.70       53.834    6.4249E-01 9.0300E-03
 18.70       54.844    5.9671E-01 8.4700E-03
 18.70       55.874    5.7080E-01 8.1800E-03
 18.70       56.885    5.3964E-01 7.5800E-03
 18.70       57.932    5.1708E-01 7.8900E-03
 18.70       58.948    4.8828E-01 7.1100E-03
 18.70       59.967    4.7179E-01 6.6700E-03
 18.70       60.994    4.4358E-01 6.6200E-03
 18.70       61.743    4.3216E-01 6.4600E-03
 18.70       62.003    4.2745E-01 6.7500E-03
 18.70       62.750    4.2322E-01 5.3000E-03
 18.70       62.766    4.2419E-01 5.5600E-03
 18.70       63.765    4.1259E-01 5.1500E-03
 18.70       64.774    3.9844E-01 4.9600E-03
 18.70       65.799    3.8261E-01 4.7700E-03
 18.70       66.784    3.6549E-01 4.5500E-03
 18.70       67.827    3.5560E-01 4.4400E-03
 18.70       68.832    3.3219E-01 4.1500E-03
 18.70       69.863    3.2505E-01 4.0700E-03
 18.70       70.884    3.0773E-01 3.8700E-03
 18.70       71.903    2.9984E-01 3.7600E-03
 18.70       71.963    2.6952E-01 4.9400E-03
 18.70       72.969    2.7418E-01 3.5100E-03
 18.70       72.980    2.7819E-01 3.9200E-03
 18.70       73.981    2.6626E-01 3.4000E-03
 18.70       74.988    2.5425E-01 3.2600E-03
 18.70       76.007    2.4316E-01 3.1400E-03
 18.70       77.000    2.3308E-01 3.0200E-03
 18.70       78.029    2.1927E-01 2.8800E-03
 18.70       79.035    2.1144E-01 2.8000E-03
 18.70       80.055    2.0495E-01 2.7400E-03
 18.70       81.070    1.9479E-01 2.6300E-03
 18.70       82.083    1.8778E-01 2.5300E-03
 18.70       82.086    1.9002E-01 2.5700E-03
 18.70       84.107    1.7900E-01 2.5000E-03
 18.70       85.127    1.7262E-01 2.4800E-03
 18.70       86.130    1.6188E-01 2.3600E-03
 18.70       87.149    1.5919E-01 2.3200E-03
 18.70       88.157    1.5006E-01 2.1400E-03
 18.70       89.165    1.4832E-01 2.1400E-03
 18.70       90.172    1.4231E-01 2.0600E-03
 18.70       91.181    1.3897E-01 1.9700E-03
 18.70       92.189    1.3626E-01 2.0000E-03
 18.70       92.190    1.3112E-01 2.0200E-03
 18.70       94.203    1.2370E-01 1.9900E-03
 18.70       95.206    1.1853E-01 2.0100E-03
 18.70       96.214    1.1460E-01 1.9600E-03
 18.70       97.212    1.1079E-01 1.9200E-03
 18.70       98.215    1.0520E-01 1.7400E-03
 18.70       99.220    1.0209E-01 1.7300E-03
 18.70      100.227    1.0070E-01 1.7000E-03
 18.70      101.232    9.6010E-02 1.5900E-03
 18.70      102.189    8.6740E-02 1.4600E-03
 18.70      102.232    9.1490E-02 1.6100E-03
 18.70      103.686    8.1050E-02 1.4300E-03
 18.70      105.173    7.7310E-02 1.3800E-03
 18.70      106.650    7.3050E-02 1.3800E-03
 18.70      108.148    6.5890E-02 1.2500E-03
 18.70      109.613    6.6670E-02 1.2500E-03
 18.70      111.101    6.0650E-02 1.1700E-03
 18.70      112.111    6.1730E-02 1.2600E-03
 18.70      112.581    5.9950E-02 1.2300E-03
 18.70      113.600    5.9760E-02 1.2700E-03
 18.70      114.078    5.8130E-02 1.1600E-03
 18.70      114.078    6.0310E-02 1.2100E-03
 18.70      114.078    6.0310E-02 1.2100E-03
 18.70      115.073    5.8130E-02 1.2300E-03
 18.70      115.606    5.3580E-02 1.0900E-03
 18.70      115.606    5.5600E-02 1.1300E-03
 18.70      115.606    5.5600E-02 1.1300E-03
 18.70      116.530    5.5290E-02 1.2400E-03
 18.70      117.108    5.4990E-02 9.1900E-04
 18.70      117.108    5.7060E-02 9.5300E-04
 18.70      117.108    5.7060E-02 9.5300E-04
 18.70      118.024    5.5570E-02 1.2200E-03
 18.70      119.467    5.4780E-02 1.1700E-03
 18.70      120.947    5.4450E-02 1.1600E-03
 18.70      122.414    5.1250E-02 1.2000E-03
 18.70      123.909    5.1130E-02 1.1700E-03
 18.70      125.445    4.6840E-02 1.0900E-03
 18.70      126.944    4.5470E-02 8.5900E-04
 18.70      127.272    4.5470E-02 1.1600E-03
 18.70      128.719    4.4200E-02 1.2000E-03
 18.70      130.187    4.4550E-02 1.1900E-03
 18.70      131.675    3.9500E-02 1.1400E-03
 18.70      133.103    3.6340E-02 1.0600E-03
 18.70      134.603    3.4540E-02 1.0100E-03
 18.70      136.044    3.3010E-02 9.6600E-04
 18.70      136.966    3.0700E-02 1.0100E-03
 18.70      137.500    3.0700E-02 9.8200E-04
 18.70      138.403    3.1630E-02 1.0400E-03
 18.70      138.915    2.9890E-02 9.5200E-04
 18.70      139.866    2.9140E-02 9.8000E-04
 18.70      140.274    3.0920E-02 9.4500E-04
 18.70      141.352    2.9660E-02 1.0400E-03
 18.70      141.682    3.1520E-02 7.3900E-04
 18.70      142.768    3.1070E-02 1.0200E-03
 18.70      144.268    2.8560E-02 9.6000E-04
 18.70      145.701    2.8850E-02 9.5000E-04
 18.70      147.150    3.3200E-02 1.0900E-03
 18.70      148.554    3.0880E-02 1.0100E-03
 18.70      149.895    3.3580E-02 1.0400E-03
 18.70      151.292    3.2280E-02 7.8000E-04
 18.70      151.787    3.0810E-02 1.2100E-03
 18.70      153.365    2.8330E-02 1.6800E-03
 18.70      155.178    3.2690E-02 6.9700E-04
 18.70      157.027    2.9230E-02 6.7000E-04
 18.70      158.786    3.3340E-02 8.7900E-04
 18.70      160.829    2.8060E-02 6.1000E-04
 18.70      161.409    2.5840E-02 1.1500E-03
 18.70      162.953    2.2640E-02 1.5100E-03
 18.70      164.756    2.5660E-02 6.1900E-04
 18.70      166.597    2.7020E-02 6.5000E-04
 18.70      168.345    1.9540E-02 2.9800E-03
 18.70      170.393    2.3100E-02 5.5000E-04
ENDDATA            456
ENDSUBENT          465
ENDENTRY             3
