ENTRY            D0390   20060307   20060720   20060609       D046
SUBENT        D0390001   20060307   20060720   20060609       D046
BIB                 10         42
TITLE      16O + d Reactions at Ed < 2 MeV
AUTHOR     (S.Cavallaro,A.Cunsolo,R.Potenza,A.Rubbino)
INSTITUTE  (2ITYCAT,2ITYSIC,2ITYLNS)
REFERENCE  (J,NC/A,14,692,1973)
FACILITY   (VDG,2ITYCAT)
METHOD     (BCINT) The intensity of the beam was measured by a
           Faraday cup, 25 cm long, kept under vacuum and
           separated from the gas chamber by a thin nickel foil.
SAMPLE     A gas target was used to make absolute measurements of
           the cross-section at various angles and energies of the
           incident particles. The pressure of the gas in the
           scattering chamber was regulated by a differential
           pumping system.
           The 160 gas used as a target was  approx. 99% pure.
DETECTOR   (SOLST)Four solid-state movable detectors were placed
           inside the scattering chamber at intervals of 10 degr.
           from one another
ERR-ANALYS (ERR-DIG) Digitizing error
           (ERR-T) Total error on the absolute values of the
           cross-sections. In the cross-section evaluation,
           corrections were made to take into account the 14N
           contamination. These corrections, in the case of the
           elastic scattering were always less than 1 %.
              * The Faraday-cup efficiency was estimated to be
                 better than 99.0 %.
              * The accuracy of the charge integrator introduces a
                0.8 % uncertainty in the charge absolute value.
              * The error in the geometrical factor was estimated
                to introduce a 3.5 % error in the absolute value
                of the cross-section.
              * The errors in the temperature, pressure and charge
                were taken into account.
              * very small uncertainty in the measurement
                of the angle of the detectors.
           The statistical error is negligible for the elastic
           scattering, while for (d, p) and (d, ao) reactions it
           is of the order of a few per cent
           (EN-ERR) Energy spread. Since the target length, as
           seen by the detectors through their collimators, was
           always smaller than 3 cm, an energy spread smaller
           than 15 keV at Ed. = 1.5 MeV
HISTORY    (20060307C) SD
ENDBIB              42
COMMON               2          3
EN-ERR     ERR-T
MEV        PER-CENT
  0.015      6.
ENDCOMMON            3
ENDSUBENT           49
SUBENT        D0390002   20060307   20060720   20060609       D046
BIB                  3          3
REACTION   (8-O-16(D,EL)8-O-16,,DA,,RTH)
ERR-ANALYS (ANG-ERR-D)  Digitizing error
STATUS     (CURVE) Digitized data from fig. 5 of the article
ENDBIB               3
COMMON               2          3
ANG-ERR-D  ERR-DIG
ADEG       NO-DIM
 0.5        0.006
ENDCOMMON            3
DATA                 3        540
EN         ANG-CM     DATA-CM
MEV        ADEG       NO-DIM
0.980       27.093     1.0012
0.980       32.857    0.98275
0.980       37.950    0.98138
0.980       44.057    0.97130
0.980       50.186     1.0118
0.980       54.581    0.96846
0.980       59.991    0.91637
0.980       66.076    0.85567
0.980       70.829    0.85439
0.980       75.582    0.85311
0.980       82.032    0.85137
0.980       86.103    0.84183
0.980       92.199    0.80644
0.980       97.284    0.78819
0.980       102.37    0.77838
0.980       107.45    0.75170
0.980       111.86    0.72520
0.980       116.27    0.71557
0.980       121.69    0.70567
0.980       126.44    0.68752
0.980       130.17    0.68651
0.980       134.92    0.66836
0.980       140.00    0.64167
0.980       144.08    0.64058
0.980       148.48    0.62251
0.980       154.26    0.62939
0.980       157.99    0.62839
0.980       162.46    0.76219
0.980       166.55    0.78641
0.980       171.74     1.0128
 1.020      26.618     1.0159
 1.020      32.036    0.98941
 1.020      37.457    0.97129
 1.020      43.902    0.96974
 1.020      48.990    0.96851
 1.020      54.069    0.94208
 1.020      60.840    0.90684
 1.020      65.576    0.87209
 1.020      71.350    0.88750
 1.020      76.092    0.86955
 1.020      81.510    0.84304
 1.020      86.249    0.81669
 1.020      91.674    0.80698
 1.020      96.420    0.79743
 1.020      101.51    0.79621
 1.020      106.94    0.80330
 1.020      111.68    0.76855
 1.020      116.08    0.75908
 1.020      121.51    0.75778
 1.020      125.56    0.71479
 1.020      129.97    0.71372
 1.020      134.72    0.70418
 1.020      139.44    0.63582
 1.020      143.53    0.66844
 1.020      147.61    0.69267
 1.020      152.38    0.75034
 1.020      157.78    0.67341
 1.020      161.56    0.81534
 1.020      165.64    0.81436
 1.020      170.80     1.0148
 1.040      27.065     1.0062
 1.040      33.168     1.0044
 1.040      38.585    0.98598
 1.040      43.683     1.0097
 1.040      49.436    0.98281
 1.040      55.212     1.0063
 1.040      59.959     1.0049
 1.040      65.727     1.0117
 1.040      69.80      1.0189
 1.040      75.90      1.0087
 1.040      81.325     1.0071
 1.040      85.733     1.0058
 1.040      91.489    0.98734
 1.040      96.563    0.96065
 1.040      101.65    0.95076
 1.040      106.05    0.94108
 1.040      111.80    0.91419
 1.040      115.53    0.91310
 1.040      120.95    0.90311
 1.040      125.70    0.89332
 1.040      129.75    0.86693
 1.040      134.16    0.86564
 1.040      139.59    0.86406
 1.040      143.68    0.91328
 1.040      148.07    0.88679
 1.040      152.51    0.95272
 1.040      157.59    0.91763
 1.040      161.35    0.98375
 1.040      165.77     1.0245
 1.040      171.61     1.1740
 1.10       26.398     1.0040
 1.10       32.152    0.96869
 1.10       37.925    0.97555
 1.10       43.347    0.95720
 1.10       48.784    0.97259
 1.10       53.867    0.95432
 1.10       59.289    0.93597
 1.10       65.409    0.95961
 1.10       70.514    0.99197
 1.10       75.593    0.96526
 1.10       81.019    0.95534
 1.10       86.113    0.96239
 1.10       91.192    0.93569
 1.10       96.618    0.92577
 1.10       101.36    0.90760
 1.10       105.77    0.89795
 1.10       111.20    0.89647
 1.10       115.61    0.90370
 1.10       121.38    0.90213
 1.10       125.45    0.89258
 1.10       129.85    0.86606
 1.10       134.63    0.91538
 1.10       139.36    0.87190
 1.10       143.79    0.92132
 1.10       147.86    0.92021
 1.10       152.28    0.93588
 1.10       157.37    0.92605
 1.10       161.82     1.0092
 1.10       165.88    0.97435
 1.10       171.05     1.1586
 1.160      26.984     1.0095
 1.160      33.436     1.0077
 1.160      38.191     1.0064
 1.160      43.950    0.97117
 1.160      49.399     1.0033
 1.160      54.814    0.95978
 1.160      60.927    0.95809
 1.160      66.357    0.94820
 1.160      71.467    0.98040
 1.160      75.855    0.92037
 1.160      81.988    0.96070
 1.160      85.723    0.95967
 1.160      91.486    0.93288
 1.160      96.912    0.91458
 1.160      102.33    0.87947
 1.160      107.43    0.87807
 1.160      112.17    0.85996
 1.160      116.93    0.85865
 1.160      121.69    0.86574
 1.160      126.10    0.86453
 1.160      131.18    0.83792
 1.160      134.90    0.79488
 1.160      139.31    0.77686
 1.160      144.09    0.83437
 1.160      149.18    0.81616
 1.160      153.63    0.90737
 1.160      157.67    0.83063
 1.160      162.12    0.90503
 1.160      165.87    0.92081
 1.160      171.74     1.1293
 1.190      26.237     1.0018
 1.190      32.340    0.95807
 1.190      37.458    0.99896
 1.190      43.569    0.97210
 1.190      49.363     1.0044
 1.190      54.453    0.97777
 1.190      59.887    0.95951
 1.190      65.664    0.94961
 1.190      71.102    0.93979
 1.190      76.206    0.94693
 1.190      81.306    0.94563
 1.190      85.727    0.94451
 1.190      91.511    0.95148
 1.190      96.584    0.88269
 1.190      101.68    0.88139
 1.190      106.79    0.89697
 1.190      111.89    0.89567
 1.190      115.64    0.91160
 1.190      121.07    0.89334
 1.190      126.16    0.85830
 1.190      129.90    0.85735
 1.190      135.01    0.88136
 1.190      139.41    0.82118
 1.190      144.54    0.90426
 1.190      149.27    0.82711
 1.190      153.39    0.91045
 1.190      156.76    0.85052
 1.190      161.56    0.93369
 1.190      167.69    0.95744
 1.190      172.22     1.2094
 1.250      27.503    0.99469
 1.250      32.575    0.99371
 1.250      38.662    0.99254
 1.250      43.734    0.99157
 1.250      48.130    0.99072
 1.250      54.890    0.98095
 1.250      60.974    0.97130
 1.250      65.718     1.0043
 1.250      70.785    0.98637
 1.250      76.526    0.95984
 1.250      82.274    0.95873
 1.250      86.665    0.94094
 1.250      92.070    0.92295
 1.250      96.796    0.89662
 1.250      102.21    0.89558
 1.250      106.26    0.87785
 1.250      112.00    0.86827
 1.250      117.08    0.86729
 1.250      121.12    0.83262
 1.250      125.52    0.82330
 1.250      130.25    0.81391
 1.250      135.00    0.85537
 1.250      139.71    0.78667
 1.250      144.82    0.89586
 1.250      148.84    0.80186
 1.250      153.27    0.90271
 1.250      156.65    0.87663
 1.250      161.73    0.90955
 1.250      165.45    0.90884
 1.250      170.62     1.2214
 1.290      27.587    0.99010
 1.290      32.982    0.94687
 1.290      38.045    0.92047
 1.290      43.803    0.93573
 1.290      49.567    0.96772
 1.290      54.631    0.94132
 1.290      61.051    0.92294
 1.290      65.776    0.89662
 1.290      70.853    0.90369
 1.290      76.597    0.88548
 1.290      82.009    0.88409
 1.290      86.724    0.83268
 1.290      91.801    0.83974
 1.290      96.177    0.78841
 1.290      101.25    0.79548
 1.290      105.65    0.77762
 1.290      111.39    0.76777
 1.290      116.47    0.78321
 1.290      120.86    0.74861
 1.290      125.93    0.74731
 1.290      130.32    0.72945
 1.290      135.36    0.64448
 1.290      139.80    0.75212
 1.290      144.20    0.75936
 1.290      148.94    0.75814
 1.290      153.00    0.75710
 1.290      156.71    0.72268
 1.290      161.78    0.71301
 1.290      166.17    0.70352
 1.290      170.65    0.89482
 1.340      27.001    0.99853
 1.340      32.734    0.92176
 1.340      37.845    0.97902
 1.340      43.595    0.94407
 1.340      49.706    0.95924
 1.340      54.813     1.0081
 1.340      59.539    0.95672
 1.340      65.957    0.89650
 1.340      70.729    0.95385
 1.340      75.812    0.94418
 1.340      81.566    0.91760
 1.340      85.610    0.85799
 1.340      91.693    0.80623
 1.340      96.782    0.81329
 1.340      101.86    0.78688
 1.340      106.95    0.80231
 1.340      111.69    0.78436
 1.340      115.75    0.76659
 1.340      120.84    0.76528
 1.340      125.58    0.74733
 1.340      130.66    0.72093
 1.340      134.72    0.71988
 1.340      139.47    0.71030
 1.340      143.57    0.77619
 1.340      148.30    0.74987
 1.340      152.73    0.79894
 1.340      156.45    0.76452
 1.340      162.22    0.78814
 1.340      166.63    0.78701
 1.340      171.74    0.83590
 1.380      27.141    0.99470
 1.380      33.227    0.99290
 1.380      37.961    0.99150
 1.380      44.051    0.99813
 1.380      49.799    0.99643
 1.380      54.533    0.99503
 1.380      60.281    0.99332
 1.380      66.693    0.96611
 1.380      71.414    0.93940
 1.380      76.478    0.92102
 1.380      81.872    0.88567
 1.380      87.262    0.84188
 1.380      91.303    0.80693
 1.380      96.689    0.75471
 1.380      101.77    0.77008
 1.380      105.82    0.75200
 1.380      111.24    0.77571
 1.380      116.65    0.76567
 1.380      121.37    0.74740
 1.380      126.10    0.73756
 1.380      129.82    0.74489
 1.380      134.89    0.73495
 1.380      138.94    0.70844
 1.380      144.05    0.78287
 1.380      147.75    0.74802
 1.380      152.86    0.82245
 1.380      156.55    0.77073
 1.380      161.98    0.81131
 1.380      165.68    0.76803
 1.380      170.44    0.81725
 1.430      26.986     1.0
 1.430      33.067    0.99810
 1.430      37.788    0.97980
 1.430      44.553    0.99448
 1.430      50.301     1.0011
 1.430      55.364    0.99107
 1.430      60.098    0.99798
 1.430      66.175    0.98766
 1.430      71.217    0.93564
 1.430      75.938    0.91735
 1.430      81.655    0.86512
 1.430      87.052    0.84661
 1.430      91.085    0.80332
 1.430      97.499    0.79289
 1.430      101.85    0.70748
 1.430      106.57    0.69759
 1.430      110.96    0.68780
 1.430      116.38    0.70290
 1.430      121.44    0.69290
 1.430      127.18    0.69109
 1.430      131.24    0.68981
 1.430      135.29    0.68853
 1.430      139.69    0.71235
 1.430      144.13    0.79499
 1.430      148.17    0.76010
 1.430      152.93    0.82583
 1.430      156.96    0.78254
 1.430      161.72    0.83986
 1.430      165.75    0.78817
 1.430      170.83    0.80338
 1.520      26.980    0.99153
 1.520      32.753    0.99820
 1.520      37.843    0.99661
 1.520      43.616     1.0033
 1.520      50.106     1.0860
 1.520      55.158     1.0082
 1.520      59.896    0.98126
 1.520      65.987    0.94545
 1.520      71.048    0.88455
 1.520      75.790    0.86612
 1.520      81.190    0.80511
 1.520      86.246    0.73573
 1.520      92.346    0.71688
 1.520      97.427    0.69834
 1.520      101.83    0.68849
 1.520      106.91    0.66148
 1.520      112.00    0.65989
 1.520      116.75    0.64994
 1.520      121.50    0.65693
 1.520      126.93    0.65524
 1.520      130.69    0.70491
 1.520      134.76    0.70364
 1.520      139.86    0.71053
 1.520      143.96    0.76857
 1.520      148.38    0.79262
 1.520      152.81    0.81666
 1.520      157.56    0.81518
 1.520      161.97    0.81380
 1.520      166.05    0.82100
 1.520      171.13    0.80247
 1.620      26.662    0.99344
 1.620      33.110     1.0003
 1.620      38.525    0.96524
 1.620      44.304    0.99759
 1.620      50.071    0.99618
 1.620      54.800    0.94440
 1.620      59.872    0.90097
 1.620      66.304    0.86566
 1.620      71.731    0.86433
 1.620      75.809    0.88022
 1.620      81.901    0.84498
 1.620      86.989    0.84374
 1.620      92.390    0.77492
 1.620      97.814    0.76516
 1.620      102.20    0.70503
 1.620      105.94    0.72943
 1.620      112.43    0.84598
 1.620      116.11    0.71007
 1.620      121.56    0.75094
 1.620      127.04    0.90149
 1.620      131.09    0.84144
 1.620      135.82    0.78122
 1.620      139.89    0.79710
 1.620      145.02    0.89711
 1.620      148.77    0.94683
 1.620      153.21     1.0048
 1.620      157.65     1.0965
 1.620      162.43     1.1545
 1.620      166.44     1.0185
 1.620      171.52     1.0003
 1.680      26.802     1.0092
 1.680      32.902    0.99070
 1.680      37.989    0.98087
 1.680      44.108     1.0044
 1.680      49.538     1.0028
 1.680      55.303    0.99282
 1.680      60.039    0.95788
 1.680      66.112    0.88055
 1.680      71.843    0.79491
 1.680      76.910    0.74307
 1.680      81.981    0.69963
 1.680      86.693    0.61427
 1.680      92.798    0.60416
 1.680      97.865    0.55232
 1.680      102.28    0.55948
 1.680      107.37    0.54965
 1.680      111.79    0.56522
 1.680      117.23    0.59730
 1.680      121.98    0.59597
 1.680      126.08    0.65364
 1.680      129.84    0.71141
 1.680      134.62    0.76889
 1.680      138.69    0.77615
 1.680      143.84    0.90076
 1.680      147.91    0.89962
 1.680      152.71    0.99911
 1.680      157.47     1.0062
 1.680      161.92     1.0974
 1.680      166.67     1.1044
 1.680      171.11     1.1620
 1.730      26.968     1.0225
 1.730      32.740     1.0124
 1.730      37.476    0.96890
 1.730      43.604    0.99224
 1.730      49.371    0.97368
 1.730      54.451    0.93852
 1.730      59.828    0.81924
 1.730      66.577    0.72475
 1.730      71.997    0.68949
 1.730      77.072    0.64593
 1.730      81.799    0.58567
 1.730      86.887    0.56731
 1.730      93.007    0.57385
 1.730      98.087    0.53869
 1.730      101.86    0.60476
 1.730      106.97    0.62841
 1.730      111.41    0.68588
 1.730      116.88    0.74303
 1.730      121.99    0.77508
 1.730      125.78    0.88316
 1.730      129.55    0.94923
 1.730      135.02     1.0148
 1.730      138.49     1.1566
 1.730      144.31     1.2388
 1.730      148.09     1.3217
 1.730      153.23     1.4126
 1.730      158.33     1.4110
 1.730      162.45     1.5022
 1.730      167.22     1.5175
 1.730      170.98     1.5668
 1.760      26.095     1.0024
 1.760      32.205     1.0171
 1.760      37.256    0.95684
 1.760      43.700    0.96305
 1.760      49.439    0.91929
 1.760      54.825    0.85055
 1.760      59.877    0.79028
 1.760      65.606    0.72979
 1.760      71.721    0.75284
 1.760      76.763    0.67585
 1.760      82.186    0.67403
 1.760      86.931    0.67244
 1.760      92.679    0.64541
 1.760      97.785    0.68554
 1.760      102.21    0.72590
 1.760      106.66    0.79136
 1.760      111.44    0.85670
 1.760      116.56    0.93029
 1.760      121.68    0.98715
 1.760      125.76     1.0025
 1.760      129.57     1.1519
 1.760      134.37     1.2507
 1.760      138.47     1.3162
 1.760      143.98     1.4734
 1.760      148.10     1.5641
 1.760      152.91     1.6796
 1.760      157.33     1.7032
 1.760      161.76     1.7436
 1.760      167.20     1.7836
 1.760      171.62     1.7988
 1.870      26.853    0.99431
 1.870      32.261    0.95899
 1.870      37.347    0.95738
 1.870      43.459    0.97226
 1.870      49.219    0.96204
 1.870      54.970    0.93501
 1.870      60.038    0.89980
 1.870      65.120    0.88979
 1.870      71.228    0.89627
 1.870      76.996    0.90285
 1.870      82.421    0.90114
 1.870      86.833    0.90815
 1.870      92.923    0.88101
 1.870      97.670    0.87951
 1.870      102.07    0.86132
 1.870      106.82    0.85982
 1.870      111.91    0.86662
 1.870      116.67    0.89872
 1.870      122.10    0.90541
 1.870      125.85    0.93784
 1.870      130.29     1.0037
 1.870      135.40     1.0441
 1.870      139.16     1.1101
 1.870      143.99     1.2598
 1.870      147.79     1.4015
 1.870      152.93     1.5007
 1.870      157.39     1.6085
 1.870      161.85     1.6995
 1.870      167.32     1.7986
 1.870      171.10     1.8815
 1.970      26.859     1.0040
 1.970      31.934     1.0026
 1.970      36.337     1.0099
 1.970      43.444     1.0080
 1.970      49.196     1.0064
 1.970      54.272     1.0050
 1.970      60.025     1.0034
 1.970      65.060    0.90842
 1.970      71.166    0.94079
 1.970      76.613     1.0159
 1.970      82.035     1.0314
 1.970      87.078    0.95344
 1.970      92.808    0.90081
 1.970      97.925    0.99302
 1.970      102.29    0.92374
 1.970      106.66    0.84595
 1.970      112.40    0.81033
 1.970      117.46    0.77490
 1.970      122.30     1.0119
 1.970      126.34    0.95969
 1.970      130.08     1.0097
 1.970      135.84     1.0081
 1.970      139.22     1.0157
 1.970      144.35     1.1335
 1.970      148.10     1.1835
 1.970      153.53     1.2245
 1.970      158.24     1.1637
 1.970      162.98     1.1709
 1.970      167.44     1.3143
 1.970      171.85     1.3216
ENDDATA            542
ENDSUBENT          554
SUBENT        D0390003   20060307   20060720   20060609       D046
BIB                  4          4
REACTION   (8-O-16(D,P)8-O-17,PAR,DA)
EN-SEC     (E-LVL,8-O-17)
ERR-ANALYS (ANG-ERR-D)  Digitizing error
STATUS     (CURVE) Digitized data from fig. 6,7 of the article
ENDBIB               4
COMMON               2          3
ANG-ERR-D  ERR-DIG
ADEG       MB/SR
  0.5       0.02
ENDCOMMON            3
DATA                 4       1148
E-LVL      EN         ANG-CM     DATA-CM
MEV        MEV        ADEG       MB/SR
 0.0         0.980       12.204     4.1611
 0.0         0.980       17.290     4.3867
 0.0         0.980       21.290     4.0175
 0.0         0.980       26.710     4.2095
 0.0         0.980       31.046     3.8400
 0.0         0.980       37.183     4.3622
 0.0         0.980       42.855     3.8917
 0.0         0.980       53.606     3.5805
 0.0         0.980       58.655     3.5081
 0.0         0.980       63.118     4.1317
 0.0         0.980       68.433     3.4960
 0.0         0.980       72.790     3.2920
 0.0         0.980       78.497     3.0863
 0.0         0.980       82.859     2.9154
 0.0         0.980       88.556     2.6435
 0.0         0.980       92.560     2.3075
 0.0         0.980       98.958     2.2334
 0.0         0.980       118.76     1.5137
 0.0         0.980       123.50     1.6734
 0.0         0.980       127.86     1.4694
 0.0         0.980       131.91     1.4976
 0.0         0.980       137.30     1.4909
 0.0         0.980       142.71     1.5836
 0.0         0.980       146.08     1.5464
 0.0         0.980       150.47     1.6403
 0.0         0.980       154.53     1.7347
 0.0         0.980       160.62     1.8928
 0.0         0.980       165.0      1.8543
 0.0         0.980       170.40     1.8807
 0.0        1.020      11.492     2.3631
 0.0        1.020      16.915     2.5559
 0.0        1.020      21.655     2.6832
 0.0        1.020      27.415     2.8756
 0.0        1.020      32.138     2.8377
 0.0        1.020      36.881     2.9981
 0.0        1.020      42.272     2.8934
 0.0        1.020      48.359     2.9863
 0.0        1.020      52.762     3.1140
 0.0        1.020      57.133     2.9442
 0.0        1.020      62.871     2.9383
 0.0        1.020      68.614     2.9655
 0.0        1.020      73.311     2.6962
 0.0        1.020      78.364     2.5918
 0.0        1.020      83.759     2.5202
 0.0        1.020      88.467     2.3501
 0.0        1.020      93.488     1.9482
 0.0        1.020      99.216     1.8432
 0.0        1.020      103.93     1.7392
 0.0        1.020      126.81    0.98841
 0.0        1.020      132.20    0.88370
 0.0        1.020      136.93    0.87884
 0.0        1.020      141.30    0.70907
 0.0        1.020      145.68    0.70455
 0.0        1.020      151.09    0.69900
 0.0        1.020      155.13    0.59568
 0.0        1.020      159.86    0.65692
 0.0        1.020      164.58    0.55290
 0.0        1.020      169.64    0.58075
 0.0        1.040      10.780     1.8862
 0.0        1.040      16.190     1.9132
 0.0        1.040      20.594     2.0087
 0.0        1.040      26.70      2.2030
 0.0        1.040      30.416     2.1985
 0.0        1.040      36.180     2.3596
 0.0        1.040      41.239     2.2862
 0.0        1.040      46.653     2.3469
 0.0        1.040      52.083     2.5420
 0.0        1.040      56.458     2.4023
 0.0        1.040      61.184     2.3630
 0.0        1.040      66.598     2.4237
 0.0        1.040      73.680     2.3143
 0.0        1.040      78.781     2.5770
 0.0        1.040      81.438     2.2041
 0.0        1.040      88.154     1.8600
 0.0        1.040      93.881     1.7186
 0.0        1.040      97.911     1.5121
 0.0        1.040      102.95     1.2708
 0.0        1.040      126.21    0.80590
 0.0        1.040      132.28    0.69777
 0.0        1.040      136.31    0.52488
 0.0        1.040      142.05    0.45074
 0.0        1.040      146.43    0.41184
 0.0        1.040      150.50    0.54135
 0.0        1.040      154.88    0.40165
 0.0        1.040      160.63    0.49552
 0.0        1.040      165.37    0.52341
 0.0        1.040      169.76    0.55170
 0.0        1.10       9.8391     1.1466
 0.0        1.10       15.935     1.4408
 0.0        1.10       21.665     1.4354
 0.0        1.10       25.391     1.6319
 0.0        1.10       31.811     1.7925
 0.0        1.10       36.527     1.7548
 0.0        1.10       41.948     2.0496
 0.0        1.10       46.323     1.9789
 0.0        1.10       52.403     2.1065
 0.0        1.10       57.109     1.9688
 0.0        1.10       62.184     2.1640
 0.0        1.10       67.544     1.8256
 0.0        1.10       73.958     1.9196
 0.0        1.10       77.646     1.7162
 0.0        1.10       82.676     1.4448
 0.0        1.10       88.063     1.3731
 0.0        1.10       92.412     1.0358
 0.0        1.10       97.465    0.99769
 0.0        1.10       102.18    0.92661
 0.0        1.10       112.28    0.81715
 0.0        1.10       126.42    0.67056
 0.0        1.10       132.15    0.59853
 0.0        1.10       141.57    0.48970
 0.0        1.10       145.95    0.48558
 0.0        1.10       150.00    0.51511
 0.0        1.10       154.06    0.61129
 0.0        1.10       159.45    0.57291
 0.0        1.10       164.17    0.63513
 0.0        1.10       170.23    0.56278
 0.0        1.160      10.636     1.3508
 0.0        1.160      16.366     1.4113
 0.0        1.160      22.092     1.4387
 0.0        1.160      27.491     1.5656
 0.0        1.160      31.565     1.8921
 0.0        1.160      37.975     2.0180
 0.0        1.160      42.351     2.0137
 0.0        1.160      48.417     2.0738
 0.0        1.160      53.480     2.2010
 0.0        1.160      57.166     2.0321
 0.0        1.160      62.882     1.9603
 0.0        1.160      67.255     1.9229
 0.0        1.160      72.981     1.9503
 0.0        1.160      78.007     1.7139
 0.0        1.160      83.383     1.6094
 0.0        1.160      88.738     1.3066
 0.0        1.160      93.094     1.1040
 0.0        1.160      98.116    0.83453
 0.0        1.160      102.48    0.73104
 0.0        1.160      112.58    0.68799
 0.0        1.160      117.62    0.58383
 0.0        1.160      122.33    0.57917
 0.0        1.160      127.04    0.57451
 0.0        1.160      132.08    0.47035
 0.0        1.160      136.46    0.46602
 0.0        1.160      141.84    0.39458
 0.0        1.160      146.55    0.42297
 0.0        1.160      150.60    0.51814
 0.0        1.160      155.34    0.77791
 0.0        1.160      160.38    0.67375
 0.0        1.160      166.43    0.56859
 0.0        1.160      170.81    0.53120
 0.0        1.190      9.8234     1.1590
 0.0        1.190      17.255     1.2843
 0.0        1.190      23.022     1.5796
 0.0        1.190      27.432     1.8095
 0.0        1.190      31.165     2.0065
 0.0        1.190      36.208     1.8995
 0.0        1.190      42.686     2.4965
 0.0        1.190      47.089     2.6591
 0.0        1.190      52.452     2.4172
 0.0        1.190      57.499     2.3437
 0.0        1.190      63.270     2.6727
 0.0        1.190      68.309     2.5320
 0.0        1.190      71.999     2.3930
 0.0        1.190      78.070     2.4191
 0.0        1.190      82.751     2.1109
 0.0        1.190      88.451     1.8686
 0.0        1.190      93.140     1.6275
 0.0        1.190      97.825     1.3528
 0.0        1.190      102.51     1.1117
 0.0        1.190      113.26    0.79598
 0.0        1.190      116.96    0.72419
 0.0        1.190      122.01    0.68434
 0.0        1.190      127.05    0.54368
 0.0        1.190      131.43    0.50466
 0.0        1.190      135.13    0.43287
 0.0        1.190      141.53    0.39136
 0.0        1.190      145.57    0.38636
 0.0        1.190      150.63    0.41372
 0.0        1.190      156.37    0.50747
 0.0        1.190      160.41    0.43526
 0.0        1.190      165.47    0.49623
 0.0        1.190      170.53    0.52359
 0.0        1.250      10.449     1.8422
 0.0        1.250      15.197     2.1053
 0.0        1.250      20.281     2.3681
 0.0        1.250      26.309     2.0919
 0.0        1.250      31.081     2.5567
 0.0        1.250      36.830     2.7514
 0.0        1.250      41.233     2.9477
 0.0        1.250      46.308     3.1433
 0.0        1.250      51.692     3.1032
 0.0        1.250      57.072     3.0294
 0.0        1.250      62.099     2.8217
 0.0        1.250      67.848     3.0164
 0.0        1.250      72.530     2.7419
 0.0        1.250      77.196     2.3329
 0.0        1.250      82.247     2.3268
 0.0        1.250      88.248     1.8154
 0.0        1.250      93.275     1.6077
 0.0        1.250      98.297     1.3663
 0.0        1.250      102.65     1.1258
 0.0        1.250      108.01    0.95126
 0.0        1.250      112.40     1.0132
 0.0        1.250      117.44    0.93987
 0.0        1.250      122.47    0.69852
 0.0        1.250      126.19    0.82847
 0.0        1.250      130.59     1.0248
 0.0        1.250      135.27    0.75028
 0.0        1.250      139.68     1.0138
 0.0        1.250      146.09     1.0733
 0.0        1.250      150.15     1.2365
 0.0        1.250      154.51     1.0968
 0.0        1.250      159.56     1.0906
 0.0        1.250      163.29     1.2542
 0.0        1.250      168.35     1.3825
 0.0        1.290      10.704     2.5515
 0.0        1.290      15.436     2.6131
 0.0        1.290      21.545     2.9080
 0.0        1.290      26.960     3.0359
 0.0        1.290      32.053     3.2985
 0.0        1.290      37.169     3.7623
 0.0        1.290      42.262     4.0248
 0.0        1.290      47.038     4.4555
 0.0        1.290      52.091     4.3825
 0.0        1.290      56.831     4.5112
 0.0        1.290      63.207     4.2019
 0.0        1.290      68.269     4.1960
 0.0        1.290      72.648     4.1238
 0.0        1.290      77.670     3.7825
 0.0        1.290      83.696     3.3729
 0.0        1.290      88.742     3.2328
 0.0        1.290      93.423     2.8583
 0.0        1.290      97.437     2.5517
 0.0        1.290      103.13     2.1760
 0.0        1.290      110.84     1.7644
 0.0        1.290      121.96     1.5502
 0.0        1.290      126.70     1.6789
 0.0        1.290      132.09     1.6727
 0.0        1.290      136.16     1.8022
 0.0        1.290      141.25     2.0312
 0.0        1.290      145.29     1.9258
 0.0        1.290      151.41     2.3214
 0.0        1.290      154.46     2.4856
 0.0        1.290      161.22     2.5113
 0.0        1.290      165.28     2.6409
 0.0        1.290      169.35     2.7704
 0.0        1.340      10.389     3.1858
 0.0        1.340      16.473     3.2777
 0.0        1.340      21.250     3.6713
 0.0        1.340      26.729     4.2639
 0.0        1.340      33.174     4.5220
 0.0        1.340      37.362     5.5497
 0.0        1.340      43.812     5.8411
 0.0        1.340      48.278     6.4351
 0.0        1.340      52.709     6.7625
 0.0        1.340      57.467     7.0228
 0.0        1.340      62.481     6.6828
 0.0        1.340      68.525     6.4747
 0.0        1.340      72.905     6.4355
 0.0        1.340      77.932     6.1955
 0.0        1.340      83.976     5.9874
 0.0        1.340      88.292     5.4817
 0.0        1.340      92.308     5.2430
 0.0        1.340      98.338     4.9350
 0.0        1.340      103.03     4.7287
 0.0        1.340      108.77     4.7544
 0.0        1.340      112.44     4.4829
 0.0        1.340      117.81     4.2090
 0.0        1.340      121.46     3.8375
 0.0        1.340      127.53     3.7628
 0.0        1.340      131.90     3.6569
 0.0        1.340      135.99     3.9515
 0.0        1.340      141.68     3.6772
 0.0        1.340      145.77     3.9717
 0.0        1.340      150.13     3.7659
 0.0        1.340      155.16     3.5592
 0.0        1.340      159.91     3.7529
 0.0        1.340      165.62     3.5453
 0.0        1.340      168.70     3.8745
 0.0        1.380      11.271     6.1062
 0.0        1.380      17.038     6.3658
 0.0        1.380      22.137     6.6600
 0.0        1.380      27.236     6.9541
 0.0        1.380      32.386     7.5836
 0.0        1.380      35.831     8.0815
 0.0        1.380      42.650     8.6079
 0.0        1.380      47.427     9.0031
 0.0        1.380      52.123     8.8619
 0.0        1.380      57.232     9.2231
 0.0        1.380      63.362     9.6499
 0.0        1.380      72.743     9.3003
 0.0        1.380      78.445     9.1240
 0.0        1.380      84.421     8.5449
 0.0        1.380      88.372     7.9352
 0.0        1.380      93.333     7.3240
 0.0        1.380      99.294     6.6442
 0.0        1.380      102.24     6.1031
 0.0        1.380      108.34     6.2952
 0.0        1.380      112.34     5.9873
 0.0        1.380      116.32     5.6124
 0.0        1.380      121.67     5.3360
 0.0        1.380      126.69     5.0936
 0.0        1.380      132.40     4.9844
 0.0        1.380      136.07     4.7441
 0.0        1.380      141.85     5.1043
 0.0        1.380      146.50     4.6613
 0.0        1.380      152.33     5.2897
 0.0        1.380      156.70     5.2496
 0.0        1.380      160.65     4.6399
 0.0        1.380      165.98     4.2294
 0.0        1.380      170.34     4.0887
 0.0        1.430      9.7533     6.5672
 0.0        1.430      16.222     7.0904
 0.0        1.430      21.633     7.2823
 0.0        1.430      26.762     7.8407
 0.0        1.430      32.890     8.3311
 0.0        1.430      37.653     8.6903
 0.0        1.430      43.419     9.0148
 0.0        1.430      48.519     9.3736
 0.0        1.430      51.590     9.6687
 0.0        1.430      57.995     9.7593
 0.0        1.430      62.343     9.5866
 0.0        1.430      68.347     9.2450
 0.0        1.430      73.333     8.8384
 0.0        1.430      78.314     8.3984
 0.0        1.430      83.948     7.8244
 0.0        1.430      87.90      7.2529
 0.0        1.430      91.872     6.8144
 0.0        1.430      99.198     6.3045
 0.0        1.430      103.51     5.8988
 0.0        1.430      108.17     5.5259
 0.0        1.430      113.52     5.3518
 0.0        1.430      118.19     5.0454
 0.0        1.430      122.19     4.8066
 0.0        1.430      127.89     4.6985
 0.0        1.430      131.55     4.4269
 0.0        1.430      135.95     4.6203
 0.0        1.430      141.34     4.6458
 0.0        1.430      146.05     4.6722
 0.0        1.430      150.12     4.8993
 0.0        1.430      154.53     5.1259
 0.0        1.430      159.20     4.8529
 0.0        1.430      163.94     5.0790
 0.0        1.430      169.65     5.0042
 0.0        1.520      10.079     4.2942
 0.0        1.520      15.530     4.6193
 0.0        1.520      21.346     5.1106
 0.0        1.520      26.161     5.6702
 0.0        1.520      31.961     6.0615
 0.0        1.520      37.445     6.5867
 0.0        1.520      41.279     7.3480
 0.0        1.520      46.752     7.8065
 0.0        1.520      51.872     8.1655
 0.0        1.520      57.329     8.5239
 0.0        1.520      62.422     8.7161
 0.0        1.520      68.120     8.4737
 0.0        1.520      72.785     8.0994
 0.0        1.520      77.788     7.7246
 0.0        1.520      82.758     7.1497
 0.0        1.520      88.387     6.4737
 0.0        1.520      92.710     6.0666
 0.0        1.520      97.712     5.6918
 0.0        1.520      102.74     5.4504
 0.0        1.520      107.80     5.4758
 0.0        1.520      112.15     5.2022
 0.0        1.520      120.88     4.9550
 0.0        1.520      127.28     4.8782
 0.0        1.520      131.0      4.9058
 0.0        1.520      136.72     4.7968
 0.0        1.520      141.85     5.2558
 0.0        1.520      146.56     5.1483
 0.0        1.520      151.73     5.8409
 0.0        1.520      155.41     5.6349
 0.0        1.520      160.51     5.8605
 0.0        1.520      165.24     5.8531
 0.0        1.620      15.70      4.3391
 0.0        1.620      20.159     4.9373
 0.0        1.620      24.906     5.1992
 0.0        1.620      31.864     6.8014
 0.0        1.620      35.376     7.8375
 0.0        1.620      40.523     8.5355
 0.0        1.620      45.568     8.5282
 0.0        1.620      50.281     8.5551
 0.0        1.620      56.379     8.8487
 0.0        1.620      61.726     8.6059
 0.0        1.620      66.478     8.9014
 0.0        1.620      70.783     8.4251
 0.0        1.620      77.131     8.1137
 0.0        1.620      82.080     7.4350
 0.0        1.620      88.090     7.1241
 0.0        1.620      93.097     6.8483
 0.0        1.620      97.412     6.4391
 0.0        1.620      102.39     5.9953
 0.0        1.620      106.74     5.7876
 0.0        1.620      111.25     6.7888
 0.0        1.620      114.65     6.9854
 0.0        1.620      121.61     6.3038
 0.0        1.620      125.35     6.5671
 0.0        1.620      131.03     6.2567
 0.0        1.620      135.72     6.1157
 0.0        1.620      139.97     7.6546
 0.0        1.620      143.04     7.9189
 0.0        1.620      150.24     8.8490
 0.0        1.620      152.49     8.1069
 0.0        1.620      159.35     9.0375
 0.0        1.620      163.03     6.5805
 0.0        1.620      169.61     7.8809
 0.0        1.680      10.415     2.0748
 0.0        1.680      16.916     2.6980
 0.0        1.680      20.680     3.0587
 0.0        1.680      27.558     3.9476
 0.0        1.680      32.729     4.7057
 0.0        1.680      36.551     5.4658
 0.0        1.680      42.330     5.7572
 0.0        1.680      46.460     6.3171
 0.0        1.680      51.930     6.8086
 0.0        1.680      58.164     5.5686
 0.0        1.680      62.502     5.2298
 0.0        1.680      68.547     5.0217
 0.0        1.680      72.601     5.0493
 0.0        1.680      76.934     4.6772
 0.0        1.680      82.656     4.5693
 0.0        1.680      88.378     4.4615
 0.0        1.680      93.082     4.3218
 0.0        1.680      98.153     4.3813
 0.0        1.680      102.53     4.3418
 0.0        1.680      107.30     4.6014
 0.0        1.680      112.73     4.8600
 0.0        1.680      118.14     4.8857
 0.0        1.680      122.23     5.1795
 0.0        1.680      126.97     5.2727
 0.0        1.680      131.41     5.6325
 0.0        1.680      136.44     5.4591
 0.0        1.680      141.95     6.2168
 0.0        1.680      145.69     6.3779
 0.0        1.680      151.85     6.9683
 0.0        1.680      155.90     6.9959
 0.0        1.680      161.66     7.1542
 0.0        1.680      166.78     7.5464
 0.0        1.680      170.13     7.4086
 0.0        1.730      10.793     2.7379
 0.0        1.730      16.512     2.6636
 0.0        1.730      21.292     3.0881
 0.0        1.730      25.745     3.5794
 0.0        1.730      32.614     4.4654
 0.0        1.730      37.072     4.9899
 0.0        1.730      41.871     5.5470
 0.0        1.730      47.330     6.0038
 0.0        1.730      52.067     6.1298
 0.0        1.730      58.490     6.2535
 0.0        1.730      63.179     6.0480
 0.0        1.730      68.210     5.8751
 0.0        1.730      73.237     5.6691
 0.0        1.730      78.259     5.4299
 0.0        1.730      83.949     5.1566
 0.0        1.730      87.960     4.9189
 0.0        1.730      92.987     4.7128
 0.0        1.730      97.70      4.6731
 0.0        1.730      103.40     4.4330
 0.0        1.730      108.44     4.3596
 0.0        1.730      113.15     4.2867
 0.0        1.730      117.53     4.2806
 0.0        1.730      122.92     4.2731
 0.0        1.730      127.62     4.1338
 0.0        1.730      131.98     3.9951
 0.0        1.730      137.39     4.0870
 0.0        1.730      142.82     4.3448
 0.0        1.730      147.23     4.5045
 0.0        1.730      151.97     4.6637
 0.0        1.730      156.68     4.5908
 0.0        1.730      161.73     4.5506
 0.0        1.730      165.11     4.6122
 0.0        1.730      171.17     4.6038
 0.0        1.760      8.9702     1.9560
 0.0        1.760      15.417     2.1807
 0.0        1.760      21.906     2.6733
 0.0        1.760      25.009     3.1040
 0.0        1.760      30.226     4.1011
 0.0        1.760      35.354     4.5288
 0.0        1.760      40.836     5.0564
 0.0        1.760      46.317     5.5841
 0.0        1.760      51.778     5.9777
 0.0        1.760      56.252     6.5404
 0.0        1.760      62.626     6.2962
 0.0        1.760      73.024     5.8784
 0.0        1.760      78.386     5.6357
 0.0        1.760      82.035     5.2281
 0.0        1.760      92.121     4.9783
 0.0        1.760      98.454     4.4661
 0.0        1.760      102.75     3.8566
 0.0        1.760      107.50     4.0169
 0.0        1.760      112.20     3.8757
 0.0        1.760      117.87     3.4651
 0.0        1.760      121.93     3.4924
 0.0        1.760      127.64     3.3162
 0.0        1.760      131.71     3.4775
 0.0        1.760      135.68     2.9689
 0.0        1.760      140.78     3.1622
 0.0        1.760      146.10     2.6850
 0.0        1.760      151.54     2.9448
 0.0        1.760      154.18     2.5722
 0.0        1.760      160.95     2.6959
 0.0        1.760      163.95     2.4568
 0.0        1.760      168.04     2.7186
 0.0        1.870      11.451     4.1091
 0.0        1.870      16.673     5.1679
 0.0        1.870      22.904     6.2252
 0.0        1.870      27.155     7.5190
 0.0        1.870      32.051     8.6451
 0.0        1.870      38.060     10.403
 0.0        1.870      41.887     11.164
 0.0        1.870      48.715     11.753
 0.0        1.870      52.449     11.947
 0.0        1.870      57.821     11.872
 0.0        1.870      63.382     10.896
 0.0        1.870      67.485     11.290
 0.0        1.870      73.897     9.3448
 0.0        1.870      78.449     8.3703
 0.0        1.870      83.750     7.8614
 0.0        1.870      87.722     7.4548
 0.0        1.870      92.763     7.4134
 0.0        1.870      97.804     7.3719
 0.0        1.870      103.20     7.4299
 0.0        1.870      107.93     7.5223
 0.0        1.870      112.28     7.3819
 0.0        1.870      117.05     7.7411
 0.0        1.870      121.44     7.8674
 0.0        1.870      126.49     7.8260
 0.0        1.870      132.22     7.8834
 0.0        1.870      135.89     7.7108
 0.0        1.870      140.94     7.7026
 0.0        1.870      144.96     7.6294
 0.0        1.870      151.34     7.5191
 0.0        1.870      154.70     7.4804
 0.0        1.870      160.72     7.2372
 0.0        1.870      165.43     7.2296
 0.0        1.870      169.08     6.9236
 0.0        1.970      25.711     4.3701
 0.0        1.970      32.146     6.8353
 0.0        1.970      35.012     5.6941
 0.0        1.970      40.733     7.8928
 0.0        1.970      47.748     7.4479
 0.0        1.970      50.971     6.4400
 0.0        1.970      56.713     6.4985
 0.0        1.970      61.686     5.9228
 0.0        1.970      67.769     6.0142
 0.0        1.970      73.565     4.1666
 0.0        1.970      78.612     4.0923
 0.0        1.970      83.055     4.4872
 0.0        1.970      87.016     3.9129
 0.0        1.970      91.920     2.8691
 0.0        1.970      97.056     3.3967
 0.0        1.970      102.47     3.4891
 0.0        1.970      107.77     2.8795
 0.0        1.970      113.85     2.9375
 0.0        1.970      117.28     3.3672
 0.0        1.970      122.29     2.9921
 0.0        1.970      128.07     3.3180
 0.0        1.970      131.40     3.0122
 0.0        1.970      135.84     3.4070
 0.0        1.970      140.64     3.9351
 0.0        1.970      147.02     3.7920
 0.0        1.970      151.01     3.4184
 0.0        1.970      155.14     3.9474
 0.0        1.970      161.13     3.4036
 0.0        1.970      164.55     3.7331
 0.0        1.970      168.22     3.4936
 0.0        1.970      171.28     3.6229
  0.87     0.980       9.1642     13.352
  0.87     0.980       16.841     13.676
  0.87     0.980       21.490     12.857
  0.87     0.980       26.113     11.692
  0.87     0.980       31.871     9.9490
  0.87     0.980       37.099     9.0131
  0.87     0.980       41.125     7.7353
  0.87     0.980       48.154     7.2549
  0.87     0.980       52.845     7.0114
  0.87     0.980       56.931     6.5393
  0.87     0.980       62.322     7.7905
  0.87     0.980       68.267     8.5795
  0.87     0.980       74.263     10.059
  0.87     0.980       77.862     10.970
  0.87     0.980       82.699     12.683
  0.87     0.980       88.038     13.244
  0.87     0.980       92.260     14.613
  0.87     0.980       98.197     15.287
  0.87     0.980       102.97     16.195
  0.87     0.980       109.47     16.522
  0.87     0.980       113.08     17.548
  0.87     0.980       118.91     16.725
  0.87     0.980       123.11     17.865
  0.87     0.980       128.31     16.584
  0.87     0.980       133.08     17.376
  0.87     0.980       135.98     16.792
  0.87     0.980       143.09     17.348
  0.87     0.980       147.10     15.840
  0.87     0.980       153.04     16.629
  0.87     0.980       157.15     16.387
  0.87     0.980       161.26     16.260
  0.87     0.980       166.53     15.900
  0.87     0.980       171.17     14.966
  0.87      1.020      10.022     13.196
  0.87      1.020      17.694     13.066
  0.87      1.020      22.304     10.873
  0.87      1.020      28.120     9.1381
  0.87      1.020      32.748     7.2903
  0.87      1.020      37.388     5.6723
  0.87      1.020      43.276     5.3158
  0.87      1.020      48.001     5.3064
  0.87      1.020      53.304     5.0660
  0.87      1.020      57.469     5.6322
  0.87      1.020      61.646     6.4283
  0.87      1.020      68.179     7.1047
  0.87      1.020      71.789     8.3615
  0.87      1.020      78.347     9.4976
  0.87      1.020      83.114     10.292
  0.87      1.020      87.869     10.858
  0.87      1.020      93.179     10.732
  0.87      1.020      96.771     11.644
  0.87      1.020      102.68     11.747
  0.87      1.020      108.01     11.852
  0.87      1.020      113.32     11.841
  0.87      1.020      117.39     10.684
  0.87      1.020      122.71     10.673
  0.87      1.020      128.01     10.318
  0.87      1.020      132.12     9.9648
  0.87      1.020      137.43     9.7244
  0.87      1.020      142.13     9.3703
  0.87      1.020      146.18     7.7535
  0.87      1.020      152.12     8.3162
  0.87      1.020      156.85     8.4216
  0.87      1.020      162.73     7.9503
  0.87      1.020      167.45     7.8259
  0.87      1.020      172.14     7.1271
  0.87      1.040      10.119     10.302
  0.87      1.040      16.043     10.634
  0.87      1.040      20.670     9.1243
  0.87      1.040      25.880     7.4982
  0.87      1.040      32.284     6.0997
  0.87      1.040      37.487     4.3584
  0.87      1.040      42.777     3.9998
  0.87      1.040      47.477     3.6427
  0.87      1.040      53.401     3.9741
  0.87      1.040      58.159     4.5389
  0.87      1.040      63.515     5.2174
  0.87      1.040      67.727     6.4750
  0.87      1.040      72.537     7.8463
  0.87      1.040      77.324     8.8720
  0.87      1.040      82.709     10.011
  0.87      1.040      87.394     9.4239
  0.87      1.040      93.348     10.216
  0.87      1.040      98.099     10.666
  0.87      1.040      102.81     10.539
  0.87      1.040      107.57     11.104
  0.87      1.040      112.88     10.976
  0.87      1.040      119.30     9.9230
  0.87      1.040      123.42     9.6825
  0.87      1.040      128.67     8.7478
  0.87      1.040      133.97     8.5045
  0.87      1.040      138.07     7.9183
  0.87      1.040      142.74     7.1003
  0.87      1.040      146.82     6.3989
  0.87      1.040      152.72     6.2694
  0.87      1.040      157.39     5.4514
  0.87      1.040      160.89     4.8667
  0.87      1.040      166.18     4.3929
  0.87      1.040      172.05     3.9177
  0.87      1.10       11.591     7.1857
  0.87      1.10       16.275     6.4884
  0.87      1.10       22.702     5.2135
  0.87      1.10       27.955     4.0555
  0.87      1.10       32.024     2.7847
  0.87      1.10       37.272     1.5118
  0.87      1.10       42.607     2.1921
  0.87      1.10       47.901     1.9533
  0.87      1.10       52.079     3.0952
  0.87      1.10       58.593     3.7735
  0.87      1.10       63.355     4.7994
  0.87      1.10       68.721     6.1691
  0.87      1.10       73.483     7.1951
  0.87      1.10       78.239     8.1061
  0.87      1.10       83.570     8.6715
  0.87      1.10       88.311     9.2380
  0.87      1.10       92.40      8.4267
  0.87      1.10       98.915     9.1050
  0.87      1.10       101.85     8.7553
  0.87      1.10       108.31     8.2846
  0.87      1.10       113.59     7.7011
  0.87      1.10       118.28     7.1186
  0.87      1.10       124.74     6.7629
  0.87      1.10       129.43     6.0655
  0.87      1.10       133.52     5.3691
  0.87      1.10       136.43     4.4450
  0.87      1.10       141.72     4.0913
  0.87      1.10       147.60     3.8514
  0.87      1.10       152.30     3.4987
  0.87      1.10       157.59     3.0301
  0.87      1.10       161.70     2.6784
  0.87      1.10       167.0      2.5544
  0.87      1.10       171.11     2.2027
  0.87      1.160      10.706     6.6234
  0.87      1.160      16.015     6.4944
  0.87      1.160      23.026     5.0679
  0.87      1.160      28.856     3.6438
  0.87      1.160      32.933     2.5765
  0.87      1.160      37.620     1.8607
  0.87      1.160      42.364     2.2034
  0.87      1.160      45.882     1.7253
  0.87      1.160      54.208     2.7661
  0.87      1.160      58.381     3.4629
  0.87      1.160      62.560     4.2773
  0.87      1.160      67.964     5.9125
  0.87      1.160      73.356     7.3124
  0.87      1.160      78.119     8.0079
  0.87      1.160      82.883     8.7035
  0.87      1.160      88.198     8.6921
  0.87      1.160      93.507     8.5630
  0.87      1.160      97.635     8.4366
  0.87      1.160      103.52     7.9534
  0.87      1.160      109.41     7.7055
  0.87      1.160      114.70     7.2237
  0.87      1.160      119.39     6.6255
  0.87      1.160      124.66     5.7908
  0.87      1.160      127.59     5.3140
  0.87      1.160      134.63     4.4755
  0.87      1.160      137.56     3.8812
  0.87      1.160      143.44     3.5156
  0.87      1.160      147.53     2.5659
  0.87      1.160      152.85     2.6721
  0.87      1.160      158.74     2.3066
  0.87      1.160      162.88     2.5329
  0.87      1.160      168.77     2.1674
  0.87      1.160      172.29     1.6894
  0.87      1.190      10.632     8.0447
  0.87      1.190      15.311     7.2255
  0.87      1.190      23.501     5.8208
  0.87      1.190      28.134     4.1927
  0.87      1.190      32.80      3.1424
  0.87      1.190      36.915     2.7867
  0.87      1.190      42.802     2.4272
  0.87      1.190      48.734     2.8766
  0.87      1.190      52.915     3.6765
  0.87      1.190      59.491     5.0490
  0.87      1.190      64.275     6.0788
  0.87      1.190      69.039     6.7618
  0.87      1.190      73.259     8.2551
  0.87      1.190      78.601     8.7058
  0.87      1.190      83.950     9.2720
  0.87      1.190      88.649     8.7995
  0.87      1.190      92.849     9.9461
  0.87      1.190      98.112     9.0100
  0.87      1.190      104.02     9.1127
  0.87      1.190      108.15     8.9882
  0.87      1.190      113.43     8.2833
  0.87      1.190      119.29     7.4615
  0.87      1.190      124.57     6.8721
  0.87      1.190      129.86     6.2828
  0.87      1.190      134.55     5.8103
  0.87      1.190      138.59     4.0679
  0.87      1.190      143.90     3.9408
  0.87      1.190      149.18     3.3514
  0.87      1.190      153.89     3.1100
  0.87      1.190      158.0      2.6388
  0.87      1.190      163.32     2.6272
  0.87      1.190      167.43     2.1560
  0.87      1.190      172.15     2.1457
  0.87      1.250      7.7576     12.076
  0.87      1.250      15.381     11.033
  0.87      1.250      21.193     8.6144
  0.87      1.250      26.435     6.7705
  0.87      1.250      32.288     5.6149
  0.87      1.250      36.952     4.1163
  0.87      1.250      42.242     3.7652
  0.87      1.250      48.721     3.7573
  0.87      1.250      52.874     4.6709
  0.87      1.250      58.201     5.4682
  0.87      1.250      64.136     6.8390
  0.87      1.250      68.882     7.8667
  0.87      1.250      72.453     9.0107
  0.87      1.250      77.784     9.9228
  0.87      1.250      82.529     10.951
  0.87      1.250      87.223     10.371
  0.87      1.250      92.539     10.823
  0.87      1.250      97.255     10.932
  0.87      1.250      103.73     10.810
  0.87      1.250      107.85     10.575
  0.87      1.250      113.14     10.339
  0.87      1.250      117.81     9.1845
  0.87      1.250      123.09     8.3742
  0.87      1.250      127.78     7.6793
  0.87      1.250      131.89     7.2149
  0.87      1.250      135.98     6.2912
  0.87      1.250      143.64     6.2817
  0.87      1.250      147.72     5.0135
  0.87      1.250      152.47     6.0412
  0.87      1.250      156.56     5.1174
  0.87      1.250      162.43     4.6509
  0.87      1.250      166.55     4.3013
  0.87      1.250      173.02     4.0636
  0.87      1.290      10.668     23.174
  0.87      1.290      17.072     22.810
  0.87      1.290      20.901     18.388
  0.87      1.290      27.732     15.352
  0.87      1.290      31.718     13.600
  0.87      1.290      37.347     9.9863
  0.87      1.290      41.924     8.3495
  0.87      1.290      48.878     7.4041
  0.87      1.290      53.022     8.3237
  0.87      1.290      59.447     8.3087
  0.87      1.290      62.511     10.741
  0.87      1.290      67.870     12.471
  0.87      1.290      73.229     14.200
  0.87      1.290      78.602     16.163
  0.87      1.290      82.80      18.011
  0.87      1.290      88.064     18.115
  0.87      1.290      93.327     18.219
  0.87      1.290      98.625     18.904
  0.87      1.290      103.28     18.544
  0.87      1.290      107.98     19.114
  0.87      1.290      113.21     18.637
  0.87      1.290      119.60     18.042
  0.87      1.290      123.01     16.408
  0.87      1.290      130.01     16.159
  0.87      1.290      132.83     14.410
  0.87      1.290      136.87     13.704
  0.87      1.290      142.72     13.806
  0.87      1.290      146.70     11.939
  0.87      1.290      153.72     12.155
  0.87      1.290      157.77     11.448
  0.87      1.290      161.80     10.394
  0.87      1.290      167.03     10.033
  0.87      1.290      172.28     9.7884
  0.87      1.330      11.185     26.744
  0.87      1.330      16.828     24.327
  0.87      1.330      23.027     21.566
  0.87      1.330      28.540     17.551
  0.87      1.330      34.073     13.764
  0.87      1.330      38.484     10.552
  0.87      1.330      42.987     8.4820
  0.87      1.330      49.278     6.8633
  0.87      1.330      53.937     6.7347
  0.87      1.330      60.996     7.3983
  0.87      1.330      65.182     8.6420
  0.87      1.330      69.406     10.342
  0.87      1.330      74.231     12.270
  0.87      1.330      78.427     13.627
  0.87      1.330      83.845     15.667
  0.87      1.330      89.125     15.993
  0.87      1.330      93.886     17.121
  0.87      1.330      100.32     17.330
  0.87      1.330      104.99     17.315
  0.87      1.330      109.71     17.872
  0.87      1.330      114.93     17.513
  0.87      1.330      119.53     16.585
  0.87      1.330      126.49     16.106
  0.87      1.330      130.53     15.523
  0.87      1.330      132.78     14.374
  0.87      1.330      137.96     13.558
  0.87      1.330      143.78     13.311
  0.87      1.330      148.95     12.267
  0.87      1.330      153.62     12.253
  0.87      1.330      156.46     11.216
  0.87      1.330      161.09     10.745
  0.87      1.330      166.30     10.272
  0.87      1.330      172.10     9.7970
  0.87      1.380      8.4347     31.448
  0.87      1.380      13.501     28.644
  0.87      1.380      25.852     21.286
  0.87      1.380      32.592     17.315
  0.87      1.380      36.696     9.0500
  0.87      1.380      40.650     7.0629
  0.87      1.380      45.789     5.3050
  0.87      1.380      52.282     6.2173
  0.87      1.380      57.054     7.5992
  0.87      1.380      63.611     9.4414
  0.87      1.380      66.646     11.061
  0.87      1.380      72.635     13.137
  0.87      1.380      77.487     15.681
  0.87      1.380      82.876     17.526
  0.87      1.380      86.503     19.260
  0.87      1.380      93.532     19.474
  0.87      1.380      99.425     20.155
  0.87      1.380      103.51     20.028
  0.87      1.380      108.78     20.129
  0.87      1.380      114.58     19.532
  0.87      1.380      122.10     18.349
  0.87      1.380      127.92     17.984
  0.87      1.380      132.51     16.809
  0.87      1.380      136.53     15.752
  0.87      1.380      141.17     15.158
  0.87      1.380      145.19     14.217
  0.87      1.380      152.16     13.500
  0.87      1.380      155.61     12.677
  0.87      1.380      159.63     11.620
  0.87      1.380      164.29     11.491
  0.87      1.380      169.56     11.593
  0.87      1.430      20.107     21.809
  0.87      1.430      26.075     16.148
  0.87      1.430      32.079     10.947
  0.87      1.430      35.851     7.0199
  0.87      1.430      41.552     5.3901
  0.87      1.430      47.353     5.0269
  0.87      1.430      51.505     5.9355
  0.87      1.430      57.504     8.1053
  0.87      1.430      62.302     9.8181
  0.87      1.430      66.598     12.569
  0.87      1.430      72.051     15.201
  0.87      1.430      76.894     17.490
  0.87      1.430      82.866     19.314
  0.87      1.430      87.018     20.223
  0.87      1.430      91.716     20.669
  0.87      1.430      98.145     20.879
  0.87      1.430      102.75     20.174
  0.87      1.430      108.55     19.811
  0.87      1.430      112.56     18.877
  0.87      1.430      117.70     17.480
  0.87      1.430      121.65     15.855
  0.87      1.430      126.78     14.342
  0.87      1.430      131.36     13.292
  0.87      1.430      136.50     12.009
  0.87      1.430      141.15     11.765
  0.87      1.430      145.11     10.255
  0.87      1.430      150.91     9.8921
  0.87      1.430      154.32     8.7300
  0.87      1.430      160.12     8.3668
  0.87      1.430      165.34     8.0053
  0.87      1.430      169.38     7.5322
  0.87      1.520      10.808     22.173
  0.87      1.520      16.981     18.922
  0.87      1.520      21.775     12.906
  0.87      1.520      26.727     8.9674
  0.87      1.520      31.786     6.4130
  0.87      1.520      36.915     4.7819
  0.87      1.520      43.299     4.3011
  0.87      1.520      48.631     5.3240
  0.87      1.520      51.672     6.9307
  0.87      1.520      56.561     9.8016
  0.87      1.520      63.767     12.435
  0.87      1.520      68.683     15.652
  0.87      1.520      74.624     17.019
  0.87      1.520      78.868     19.084
  0.87      1.520      84.174     19.760
  0.87      1.520      88.842     19.747
  0.87      1.520      94.722     20.306
  0.87      1.520      98.746     19.486
  0.87      1.520      104.52     18.661
  0.87      1.520      109.71     17.838
  0.87      1.520      114.30     16.785
  0.87      1.520      118.85     15.271
  0.87      1.520      123.99     13.755
  0.87      1.520      129.19     13.047
  0.87      1.520      134.35     11.762
  0.87      1.520      137.74     10.367
  0.87      1.520      143.55     10.003
  0.87      1.520      148.14     8.9509
  0.87      1.520      152.80     8.8216
  0.87      1.520      156.23     7.8880
  0.87      1.520      162.04     7.5244
  0.87      1.520      166.68     7.1643
  0.87      1.520      171.91     6.8024
  0.87      1.620      14.085     18.804
  0.87      1.620      19.593     14.651
  0.87      1.620      25.546     8.6567
  0.87      1.620      29.559     7.8405
  0.87      1.620      34.633     5.6419
  0.87      1.620      40.495     6.1994
  0.87      1.620      47.573     7.4429
  0.87      1.620      51.203     9.2712
  0.87      1.620      57.186     11.437
  0.87      1.620      61.432     13.724
  0.87      1.620      64.541     16.358
  0.87      1.620      71.011     17.259
  0.87      1.620      77.029     19.884
  0.87      1.620      81.805     21.479
  0.87      1.620      87.103     22.268
  0.87      1.620      92.784     20.413
  0.87      1.620      98.125     21.776
  0.87      1.620      103.23     20.037
  0.87      1.620      107.77     18.415
  0.87      1.620      113.40     15.870
  0.87      1.620      116.99     17.239
  0.87      1.620      121.42     14.238
  0.87      1.620      127.79     13.759
  0.87      1.620      131.71     11.679
  0.87      1.620      136.91     11.204
  0.87      1.620      141.51     10.386
  0.87      1.620      144.84     8.3075
  0.87      1.620      150.69     8.6351
  0.87      1.620      155.86     7.7006
  0.87      1.620      161.06     7.2256
  0.87      1.620      164.39     5.0321
  0.87      1.620      169.67     5.5913
  0.87      1.680      9.5787     20.899
  0.87      1.680      17.623     19.267
  0.87      1.680      23.266     16.722
  0.87      1.680      27.665     13.147
  0.87      1.680      32.759     11.063
  0.87      1.680      37.330     9.7859
  0.87      1.680      42.621     10.345
  0.87      1.680      48.591     12.167
  0.87      1.680      53.505     15.485
  0.87      1.680      59.012     18.917
  0.87      1.680      63.892     21.776
  0.87      1.680      69.973     25.091
  0.87      1.680      74.150     26.343
  0.87      1.680      78.309     27.365
  0.87      1.680      84.141     27.348
  0.87      1.680      89.304     26.184
  0.87      1.680      93.866     24.792
  0.87      1.680      100.25     24.313
  0.87      1.680      104.15     21.889
  0.87      1.680      109.85     20.148
  0.87      1.680      113.75     17.724
  0.87      1.680      123.93     13.442
  0.87      1.680      129.05     11.703
  0.87      1.680      133.0      9.8530
  0.87      1.680      136.96     8.2326
  0.87      1.680      143.33     7.6395
  0.87      1.680      146.73     6.2505
  0.87      1.680      154.32     6.3434
  0.87      1.680      157.75     5.4141
  0.87      1.680      162.39     5.0559
  0.87      1.680      167.02     4.5827
  0.87      1.680      171.66     4.2245
  0.87      1.73       11.048     33.909
  0.87      1.73       16.715     31.812
  0.87      1.73       26.861     27.391
  0.87      1.73       33.60      24.136
  0.87      1.73       38.108     22.158
  0.87      1.73       43.191     20.063
  0.87      1.73       49.547     19.234
  0.87      1.73       55.281     17.945
  0.87      1.73       58.988     20.358
  0.87      1.73       63.910     23.345
  0.87      1.73       69.769     23.556
  0.87      1.73       73.934     24.467
  0.87      1.73       79.745     24.101
  0.87      1.73       84.283     22.470
  0.87      1.73       89.481     21.760
  0.87      1.73       94.573     19.780
  0.87      1.73       98.498     17.805
  0.87      1.73       103.56     15.479
  0.87      1.73       109.25     13.613
  0.87      1.73       114.31     11.287
  0.87      1.73       119.34     8.4988
  0.87      1.73       123.34     7.4465
  0.87      1.73       129.15     7.0811
  0.87      1.73       134.31     5.9096
  0.87      1.73       138.27     4.3955
  0.87      1.73       143.01     5.1884
  0.87      1.73       147.51     3.0952
  0.87      1.73       152.85     4.1171
  0.87      1.73       156.83     2.8339
  0.87      1.73       162.10     2.9322
  0.87      1.73       166.13     2.2262
  0.87      1.73       170.82     2.4419
  0.87      1.760      11.806     59.142
  0.87      1.760      16.365     58.084
  0.87      1.760      21.455     49.964
  0.87      1.760      28.123     39.987
  0.87      1.760      33.347     33.371
  0.87      1.760      37.970     26.526
  0.87      1.760      44.035     22.801
  0.87      1.760      48.989     19.658
  0.87      1.760      54.795     19.522
  0.87      1.760      59.998     19.156
  0.87      1.760      63.560     19.954
  0.87      1.760      73.468     20.150
  0.87      1.760      79.844     19.896
  0.87      1.760      85.546     18.603
  0.87      1.760      95.184     15.791
  0.87      1.760      100.25     13.921
  0.87      1.760      104.75     12.169
  0.87      1.760      109.88     10.993
  0.87      1.760      113.27     9.8238
  0.87      1.760      118.75     6.1007
  0.87      1.760      123.95     5.7350
  0.87      1.760      129.14     5.1379
  0.87      1.760      133.15     4.5450
  0.87      1.760      138.31     3.6008
  0.87      1.760      144.07     3.0016
  0.87      1.760      148.12     2.7558
  0.87      1.760      152.74     2.3921
  0.87      1.760      157.39     2.3756
  0.87      1.760      162.0      1.7806
  0.87      1.760      166.08     1.8819
  0.87      1.760      170.15     1.8674
  0.87      1.870      11.582     67.995
  0.87      1.870      17.719     64.282
  0.87      1.870      23.141     52.611
  0.87      1.870      28.770     43.247
  0.87      1.870      34.431     34.228
  0.87      1.870      40.721     25.669
  0.87      1.870      46.712     20.341
  0.87      1.870      50.497     16.636
  0.87      1.870      54.437     14.662
  0.87      1.870      59.027     13.377
  0.87      1.870      63.690     12.899
  0.87      1.870      68.404     12.998
  0.87      1.870      73.748     13.557
  0.87      1.870      80.247     13.880
  0.87      1.870      86.169     14.321
  0.87      1.870      91.554     15.341
  0.87      1.870      96.331     16.132
  0.87      1.870      100.58     17.617
  0.87      1.870      105.18     16.448
  0.87      1.870      114.51     15.492
  0.87      1.870      120.29     14.434
  0.87      1.870      124.97     14.072
  0.87      1.870      129.54     12.556
  0.87      1.870      134.18     11.848
  0.87      1.870      137.58     10.452
  0.87      1.870      142.71     8.5881
  0.87      1.870      146.75     7.7666
  0.87      1.870      151.44     7.5197
  0.87      1.870      157.26     6.9227
  0.87      1.870      163.10     6.4410
  0.87      1.870      167.21     6.3115
  0.87      1.870      170.79     6.8760
  0.87      1.970      25.508     64.274
  0.87      1.970      31.458     52.207
  0.87      1.970      35.101     34.239
  0.87      1.970      39.596     25.536
  0.87      1.970      45.886     17.173
  0.87      1.970      50.176     12.641
  0.87      1.970      53.395     9.2699
  0.87      1.970      60.356     8.2026
  0.87      1.970      65.797     9.8049
  0.87      1.970      70.501     9.7881
  0.87      1.970      75.343     11.277
  0.87      1.970      81.843     11.601
  0.87      1.970      85.198     16.107
  0.87      1.970      91.014     15.391
  0.87      1.970      95.867     16.995
  0.87      1.970      100.60     17.326
  0.87      1.970      106.66     19.274
  0.87      1.970      112.35     17.168
  0.87      1.970      118.26     17.495
  0.87      1.970      121.68     16.208
  0.87      1.970      126.87     15.147
  0.87      1.970      130.90     14.206
  0.87      1.970      135.48     12.800
  0.87      1.970      140.18     12.783
  0.87      1.970      144.93     13.230
  0.87      1.970      150.54     10.314
  0.87      1.970      155.29     10.760
  0.87      1.970      158.27     11.213
  0.87      1.970      165.26     10.377
  0.87      1.970      168.89     11.523
  0.87      1.970      171.10     10.009
ENDDATA           1150
ENDSUBENT         1163
SUBENT        D0390004   20060307   20060720   20060609       D046
BIB                  4          4
REACTION   (8-O-16(D,A)7-N-14,PAR,DA)
EN-SEC     (E-LVL,7-N-14)
ERR-ANALYS (ANG-ERR-D)  Digitizing error
STATUS     (CURVE) Digitized data from fig. 8 of the article
ENDBIB               4
COMMON               3          3
E-LVL      ANG-ERR-D  ERR-DIG
MEV        ADEG       MB/SR
  0.0        0.5       0.04
ENDCOMMON            3
DATA                 3        507
EN         ANG-CM     DATA-CM
MEV        ADEG       MB/SR
0.980       27.753     3.8372
0.980       30.926     4.9578
0.980       37.918     3.5968
0.980       43.622     2.9075
0.980       47.10      3.6936
0.980       52.512     3.4721
0.980       57.999     3.9836
0.980       63.216     5.1627
0.980       69.585     4.3375
0.980       73.375     4.8557
0.980       78.461     4.7688
0.980       84.336     5.7453
0.980       89.090     5.7264
0.980       95.257     6.2352
0.980       99.740     6.8839
0.980       104.88     7.3301
0.980       119.99     8.8699
0.980       123.48     9.7892
0.980       128.94     10.101
0.980       133.42     10.683
0.980       136.88     11.336
0.980       142.37     11.847
0.980       145.49     12.435
0.980       150.97     12.880
0.980       154.77     13.464
0.980       160.91     13.773
0.980       165.38     14.222
0.980       170.03     13.270
 1.020      26.286     9.2338
 1.020      31.703     9.0807
 1.020      37.499     9.3255
 1.020      42.520     8.5750
 1.020      47.227     8.0918
 1.020      52.978     7.8710
 1.020      58.044     7.5862
 1.020      63.405     6.8344
 1.020      68.784     6.2822
 1.020      73.895     6.4630
 1.020      80.030     6.7066
 1.020      84.436     6.6238
 1.020      89.911     7.0694
 1.020      94.324     7.0531
 1.020      100.12     7.2979
 1.020      105.31     8.2769
 1.020      129.71     11.381
 1.020      133.86     12.098
 1.020      142.47     13.397
 1.020      146.90     13.580
 1.020      151.40     14.429
 1.020      155.85     14.878
 1.020      161.99     15.188
 1.020      165.75     15.374
 1.020      170.49     15.290
 1.040      28.082     8.5947
 1.040      31.520     9.1188
 1.040      37.868     8.1559
 1.040      43.287     8.1358
 1.040      48.273     7.1108
 1.040      54.019     6.9553
 1.040      59.771     6.8669
 1.040      64.513     6.8493
 1.040      69.907     6.5609
 1.040      74.650     6.5433
 1.040      79.705     6.2562
 1.040      84.837     6.7740
 1.040      94.353     7.0743
 1.040      100.14     7.3213
 1.040      107.33     8.0999
 1.040      128.61     11.041
 1.040      134.41     11.422
 1.040      138.0      9.9322
 1.040      144.12     10.178
 1.040      148.13     9.6263
 1.040      152.25     10.148
 1.040      156.33     10.334
 1.040      161.49     11.120
 1.040      164.96     12.047
 1.040      170.38     11.960
 1.10       27.879     9.7570
 1.10       31.588     9.5420
 1.10       38.290     8.7128
 1.10       44.386     8.6227
 1.10       47.711     7.9403
 1.10       53.787     7.6493
 1.10       60.150     6.8214
 1.10       64.140     6.0024
 1.10       72.902     5.4333
 1.10       85.374     4.6492
 1.10       90.478     4.8309
 1.10       95.531     4.4768
 1.10       103.72     4.9817
 1.10       115.60     5.0707
 1.10       130.34     6.7564
 1.10       134.78     7.0746
 1.10       139.18     6.9239
 1.10       142.98     7.7134
 1.10       146.44     8.3701
 1.10       152.23     8.6162
 1.10       155.66     9.0051
 1.10       162.79     9.1120
 1.10       166.56     9.5667
 1.10       170.93     9.0812
 1.160      38.379     9.4852
 1.160      42.648     7.9907
 1.160      50.407     7.5588
 1.160      54.406     6.8048
 1.160      59.767     6.1129
 1.160      65.134     5.4882
 1.160      70.188     5.1335
 1.160      75.568     4.6432
 1.160      80.276     4.2225
 1.160      85.028     4.2722
 1.160      91.425     3.7782
 1.160      95.475     3.5616
 1.160      99.888     3.6126
 1.160      105.66     3.6585
 1.160      114.81     3.6248
 1.160      120.61     3.9395
 1.160      125.72     4.2568
 1.160      130.17     4.6437
 1.160      134.93     4.8278
 1.160      139.01     4.8800
 1.160      143.12     5.4025
 1.160      147.88     5.5194
 1.160      153.02     6.1054
 1.160      157.40     5.7532
 1.160      161.88     6.5433
 1.160      165.95     6.4611
 1.160      171.70     6.3727
 1.190      27.199     11.069
 1.190      33.572     10.437
 1.190      38.590     9.8103
 1.190      42.862     8.5136
 1.190      48.910     8.0177
 1.190      54.626     7.5905
 1.190      58.933     6.6303
 1.190      66.343     6.1963
 1.190      69.958     5.1042
 1.190      74.990     4.6125
 1.190      80.015     4.0534
 1.190      85.414     3.8295
 1.190      90.784     3.3364
 1.190      95.851     3.1811
 1.190      100.60     3.2292
 1.190      105.67     3.0740
 1.190      115.18     3.3720
 1.190      120.74     4.6961
 1.190      125.75     3.9351
 1.190      129.82     4.0533
 1.190      134.62     4.5052
 1.190      139.37     4.6205
 1.190      143.88     5.6123
 1.190      147.94     5.5958
 1.190      153.40     5.9776
 1.190      157.79     5.7578
 1.190      162.60     6.4116
 1.190      166.34     6.5311
 1.190      172.78     6.6396
 1.250      27.285     8.5830
 1.250      33.081     9.0249
 1.250      39.543     9.3969
 1.250      43.410     7.7742
 1.250      49.120     7.4808
 1.250      54.431     6.6541
 1.250      60.417     5.8244
 1.250      65.098     5.4019
 1.250      70.109     4.9110
 1.250      75.451     4.3517
 1.250      80.125     3.8623
 1.250      85.481     3.4367
 1.250      91.506     2.9412
 1.250      95.535     2.7223
 1.250      100.93     2.6310
 1.250      105.35     2.8784
 1.250      109.74     2.8585
 1.250      115.18     3.1014
 1.250      119.94     3.4142
 1.250      125.38     3.6571
 1.250      129.13     3.9745
 1.250      133.89     4.2204
 1.250      138.61     4.1322
 1.250      144.08     4.7093
 1.250      148.14     4.7578
 1.250      152.60     5.3395
 1.250      155.96     5.1236
 1.250      161.07     5.5017
 1.250      165.47     5.5487
 1.250      171.23     5.7232
 1.290      27.440     7.7419
 1.290      32.373     6.5300
 1.290      37.514     7.3039
 1.290      42.194     6.8876
 1.290      48.229     6.5322
 1.290      53.575     6.0470
 1.290      59.252     5.4944
 1.290      64.578     4.8107
 1.290      69.581     4.2607
 1.290      74.941     3.9080
 1.290      79.965     3.5566
 1.290      85.318     3.1377
 1.290      90.025     2.9862
 1.290      95.097     3.0982
 1.290      100.80     2.8102
 1.290      105.54     2.9897
 1.290      114.38     3.6162
 1.290      123.86     3.9752
 1.290      128.61     4.1547
 1.290      133.35     4.3342
 1.290      138.05     4.1166
 1.290      143.19     4.8904
 1.290      147.25     5.0065
 1.290      151.67     5.3197
 1.290      155.03     5.2399
 1.290      161.47     5.4788
 1.290      165.49     5.2638
 1.290      170.90     5.3744
 1.340      21.594     6.0829
 1.340      26.982     5.9264
 1.340      33.030     5.6330
 1.340      38.418     5.4765
 1.340      43.792     5.1859
 1.340      49.186     5.0965
 1.340      53.878     4.7416
 1.340      59.912     4.3140
 1.340      64.618     4.0933
 1.340      69.640     3.6699
 1.340      74.366     3.6503
 1.340      81.062     3.0858
 1.340      85.458     3.1348
 1.340      89.123     2.6499
 1.340      95.207     2.6918
 1.340      100.92     2.4669
 1.340      105.69     2.7827
 1.340      110.43     2.8973
 1.340      114.84     3.0803
 1.340      119.89     2.9923
 1.340      124.66     3.3081
 1.340      129.72     3.2872
 1.340      134.47     3.4689
 1.340      138.15     3.1852
 1.340      143.59     3.4982
 1.340      146.94     3.2831
 1.340      152.74     3.7959
 1.340      156.45     3.7805
 1.340      161.51     3.6925
 1.340      165.59     3.9441
 1.340      170.64     3.7890
 1.380      28.463     3.6863
 1.380      33.50      3.4647
 1.380      38.860     3.1078
 1.380      43.230     2.9560
 1.380      48.976     3.0665
 1.380      53.964     2.3761
 1.380      59.745     2.8215
 1.380      65.457     2.5971
 1.380      74.526     2.2251
 1.380      80.286     2.4695
 1.380      86.005     2.3122
 1.380      90.402     2.4282
 1.380      95.446     2.2736
 1.380      105.55     2.0983
 1.380      109.96     2.3482
 1.380      114.65     2.0610
 1.380      120.03     1.8381
 1.380      125.42     1.7491
 1.380      129.80     1.7311
 1.380      134.19     1.7802
 1.380      137.57     1.8334
 1.380      143.29     1.6760
 1.380      148.01     1.7237
 1.380      152.72     1.5704
 1.380      156.42     1.4213
 1.380      161.81     1.3993
 1.380      165.53     1.4511
 1.380      170.57     1.2965
 1.430      28.194     6.4663
 1.430      33.120     5.2389
 1.430      38.202     5.4176
 1.430      44.447     3.9165
 1.430      50.159     3.6905
 1.430      54.140     3.0702
 1.430      60.541     2.9752
 1.430      65.578     2.7521
 1.430      69.964     2.7329
 1.430      75.668     2.4400
 1.430      80.413     2.6202
 1.430      86.140     2.5281
 1.430      89.843     2.4449
 1.430      96.229     2.2160
 1.430      101.30     2.2608
 1.430      106.02     2.2401
 1.430      110.41     2.2879
 1.430      115.43     1.9309
 1.430      120.16     1.9772
 1.430      125.19     1.6872
 1.430      129.90     1.5326
 1.430      134.93     1.2427
 1.430      137.96     1.1624
 1.430      144.02     1.0019
 1.430      148.05    0.85027
 1.430      153.43    0.69273
 1.430      156.80    0.61100
 1.430      160.85    0.66024
 1.430      166.26    0.70356
 1.430      171.32    0.74837
 1.520      28.496     3.9319
 1.520      34.236     4.1091
 1.520      38.594     3.9566
 1.520      44.320     3.9996
 1.520      50.354     3.7730
 1.520      55.063     3.7532
 1.520      60.431     3.5964
 1.520      65.147     3.6437
 1.520      69.878     3.8252
 1.520      75.918     3.6656
 1.520      80.628     3.6458
 1.520      86.690     3.6875
 1.520      90.060     3.7404
 1.520      96.108     3.6479
 1.520      102.13     3.3542
 1.520      106.47     3.0004
 1.520      110.50     2.9164
 1.520      115.86     2.6255
 1.520      125.62     2.6516
 1.520      130.29     2.2964
 1.520      134.68     2.4122
 1.520      138.76     2.7977
 1.520      144.21     3.4459
 1.520      146.96     3.9712
 1.520      152.78     4.8862
 1.520      157.88     5.4017
 1.520      162.30     5.8528
 1.520      166.40     6.4396
 1.520      171.84     6.9536
 1.620      21.839     1.7784
 1.620      27.681     2.4886
 1.620      32.152     3.0709
 1.620      36.926     3.3180
 1.620      44.137     4.1560
 1.620      49.308     4.9358
 1.620      54.061     4.9827
 1.620      59.924     5.8931
 1.620      64.597     5.2056
 1.620      69.385     5.5863
 1.620      75.104     5.1616
 1.620      79.114     4.6105
 1.620      85.251     4.9187
 1.620      89.296     4.7014
 1.620      94.669     4.2114
 1.620      101.43     3.9827
 1.620      115.01     4.1262
 1.620      119.17     5.0437
 1.620      123.98     5.5579
 1.620      129.49     6.3362
 1.620      134.22     6.1828
 1.620      138.62     6.0976
 1.620      147.44     6.1274
 1.620      152.68     7.5747
 1.620      156.0      6.9597
 1.620      161.08     6.8717
 1.620      165.86     7.1856
 1.620      171.19     6.2950
 1.680      26.916     1.5897
 1.680      31.712     1.9682
 1.680      36.862     2.4777
 1.680      43.349     2.7834
 1.680      49.449     2.6271
 1.680      53.926     3.2055
 1.680      59.728     3.4476
 1.680      64.449     3.0980
 1.680      69.231     3.3441
 1.680      75.712     3.5836
 1.680      80.495     3.8297
 1.680      85.590     3.8097
 1.680      90.739     4.3193
 1.680      95.549     4.8302
 1.680      100.34     5.1425
 1.680      104.80     5.5885
 1.680      109.94     6.0318
 1.680      115.43     6.5400
 1.680      120.21     6.7200
 1.680      126.70     7.0256
 1.680      130.49     7.6067
 1.680      134.25     7.7906
 1.680      138.70     8.1042
 1.680      144.20     8.7448
 1.680      148.67     9.1909
 1.680      152.80     9.7044
 1.680      157.27     10.217
 1.680      161.72     10.530
 1.680      165.85     11.044
 1.680      170.92     10.825
 1.730      27.528     4.5791
 1.730      31.650     4.9648
 1.730      36.744     4.8776
 1.730      43.281     5.5887
 1.730      49.069     5.6328
 1.730      55.190     5.6086
 1.730      59.353     6.3961
 1.730      64.196     7.1809
 1.730      69.324     7.4286
 1.730      75.167     8.0084
 1.730      80.662     8.5226
 1.730      84.798     9.0422
 1.730      89.919     9.2230
 1.730      95.422     9.8042
 1.730      100.56     10.119
 1.730      105.03     10.570
 1.730      110.17     11.019
 1.730      115.32     11.400
 1.730      120.06     11.248
 1.730      124.45     10.895
 1.730      129.67     12.014
 1.730      133.48     12.735
 1.730      137.63     13.389
 1.730      143.49     14.103
 1.730      147.30     14.758
 1.730      152.79     15.205
 1.730      157.22     15.321
 1.730      162.01     15.570
 1.730      165.72     15.288
 1.730      170.50     15.470
 1.760      27.205     7.5965
 1.760      31.672     8.1776
 1.760      37.183     9.0208
 1.760      43.275     8.9300
 1.760      49.124     9.7718
 1.760      54.539     9.6837
 1.760      58.999     10.198
 1.760      64.406     10.044
 1.760      75.027     11.133
 1.760      80.483     11.444
 1.760      85.295     12.090
 1.760      96.131     11.980
 1.760      100.24     12.363
 1.760      104.71     13.011
 1.760      109.90     13.989
 1.760      114.65     14.036
 1.760      119.0      13.553
 1.760      123.39     13.336
 1.760      128.54     13.981
 1.760      134.65     14.023
 1.760      137.98     13.478
 1.760      142.79     14.057
 1.760      147.16     13.707
 1.760      152.31     14.419
 1.760      155.96     13.606
 1.760      160.75     14.052
 1.760      165.11     13.569
 1.760      170.24     14.081
 1.870      26.995     16.625
 1.870      31.482     14.268
 1.870      37.560     13.974
 1.870      43.292     13.615
 1.870      49.445     13.989
 1.870      55.192     13.763
 1.870      59.234     13.479
 1.870      66.028     13.516
 1.870      70.659     12.427
 1.870      75.681     11.804
 1.870      80.326     10.849
 1.870      84.723     10.696
 1.870      90.213     11.206
 1.870      95.484     12.786
 1.870      101.06     14.030
 1.870      105.93     15.078
 1.870      111.06     15.456
 1.870      116.49     15.365
 1.870      120.87     15.079
 1.870      125.12     13.658
 1.870      130.03     12.034
 1.870      135.63     10.473
 1.870      138.51     8.9248
 1.870      143.42     7.3006
 1.870      147.96     5.4109
 1.870      152.90     4.0537
 1.870      156.92     3.6354
 1.870      166.07     3.4618
 1.870      170.84     3.6413
 1.970      27.081     12.464
 1.970      31.596     13.321
 1.970      37.652     12.820
 1.970      48.744     11.824
 1.970      54.445     11.190
 1.970      59.371     9.7487
 1.970      64.361     11.752
 1.970      69.587     9.9717
 1.970      75.288     9.3376
 1.970      80.680     8.9750
 1.970      85.204     9.8996
 1.970      91.023     7.3741
 1.970      95.854     8.0271
 1.970      101.14     9.6235
 1.970      105.20     9.5372
 1.970      111.55     8.6299
 1.970      115.80     7.2597
 1.970      125.11     8.4323
 1.970      130.83     7.9332
 1.970      135.47     6.9663
 1.970      139.16     6.5441
 1.970      143.26     6.7953
 1.970      148.12     4.7469
 1.970      152.45     3.9841
 1.970      156.50     3.8303
 1.970      162.41     4.9511
 1.970      167.0      6.4156
 1.970      173.23     4.5634
ENDDATA            509
ENDSUBENT          522
SUBENT        D0390005   20060307   20060720   20060609       D046
BIB                  3          3
REACTION   (8-O-16(D,EL)8-O-16,,DA,,RTH)
ERR-ANALYS (EN-ERR-DIG) Digitizing error
STATUS     (CURVE) Digitized data from fig. 9 of the article
ENDBIB               3
COMMON               2          3
EN-ERR-DIG ERR-DIG
MEV        NO-DIM
  0.002     0.002
ENDCOMMON            3
DATA                 3         51
ANG        EN         DATA
ADEG       MEV        NO-DIM
 164.0     0.97540    0.79789
 164.0      1.0261    0.81092
 164.0      1.0977    0.94714
 164.0      1.1514    0.91015
 164.0      1.1990    0.96652
 164.0      1.2458    0.89291
 164.0      1.2920    0.73929
 164.0      1.3395    0.77900
 164.0      1.3799    0.77876
 164.0      1.4308    0.82178
 164.0      1.5218    0.82122
 164.0      1.6207    0.99728
 164.0      1.6822     1.1202
 164.0      1.7351     1.4899
 164.0      1.7636     1.7464
 164.0      1.8786     1.7957
 164.0      1.9734     1.3151
 85.0       1.0376    0.98291
 85.0       1.0912    0.93907
 85.0       1.1451    0.92533
 85.0       1.1925    0.95845
 85.0       1.2497    0.93466
 85.0       1.2829    0.85083
 85.0       1.3297    0.79700
 85.0       1.3771    0.82344
 85.0       1.4276    0.81641
 85.0       1.5181    0.73553
 85.0       1.6163    0.78838
 85.0       1.6824    0.60400
 85.0       1.7324    0.51002
 85.0       1.7570    0.66369
 85.0       1.8698    0.88701
 85.0       1.9712    0.91642
 50.0      0.97474    0.93360
 50.0       1.0219    0.93334
 50.0       1.0393     1.0272
 50.0       1.0996    0.94299
 50.0       1.1502    0.95278
 50.0       1.1975    0.97602
 50.0       1.2551     1.0260
 50.0       1.2952    0.95536
 50.0       1.3393    0.99874
 50.0       1.3898    0.99511
 50.0       1.4405     1.0083
 50.0       1.5248     1.0179
 50.0       1.6257    0.97035
 50.0       1.6836     1.0707
 50.0       1.7335    0.93621
 50.0       1.7667    0.83871
 50.0       1.8853    0.94545
 50.0       1.9799    0.99192
ENDDATA             53
ENDSUBENT           65
SUBENT        D0390006   20060307   20060720   20060609       D046
BIB                  4          4
REACTION   (8-O-16(D,P)8-O-17,PAR,DA)
EN-SEC     (E-LVL,8-O-17)
ERR-ANALYS (EN-ERR-DIG) Digitizing error
STATUS     (CURVE) Digitized data from fig. 9 of the article
ENDBIB               4
COMMON               2          3
EN-ERR-DIG ERR-DIG
MEV        MB/SR
  0.002     0.01
ENDCOMMON            3
DATA                 4        107
E-LVL      ANG        EN         DATA
MEV        ADEG       MEV        MB/SR
 0.0        164.0     0.97475     1.8777
 0.0        164.0      1.0180    0.63722
 0.0        164.0      1.0415    0.67019
 0.0        164.0      1.0985    0.70242
 0.0        164.0      1.1554    0.60063
 0.0        164.0      1.1990    0.63316
 0.0        164.0      1.2427     1.4362
 0.0        164.0      1.2866     2.7752
 0.0        164.0      1.3304     3.5448
 0.0        164.0      1.3810     5.2857
 0.0        164.0      1.5186     6.0196
 0.0        164.0      1.6193     6.6203
 0.0        164.0      1.6764     7.5906
 0.0        164.0      1.7294     4.8088
 0.0        164.0      1.7591     2.4631
 0.0        164.0      1.8707     7.2177
 0.0        164.0      1.9674     4.9375
 0.0        85.0      0.96884     2.5512
 0.0        85.0       1.0123     2.3138
 0.0        85.0       1.0356     1.9766
 0.0        85.0       1.0923     1.3688
 0.0        85.0       1.1492     1.3661
 0.0        85.0       1.1930     1.8009
 0.0        85.0       1.2333     1.9334
 0.0        85.0       1.2875     3.1745
 0.0        85.0       1.3288     5.4246
 0.0        85.0       1.3770     8.0777
 0.0        85.0       1.4203     7.4706
 0.0        85.0       1.5036     6.4918
 0.0        85.0       1.6078     7.0918
 0.0        85.0       1.6702     4.4670
 0.0        85.0       1.7174     5.0361
 0.0        85.0       1.7509     5.0009
 0.0        85.0       1.8694     7.5162
 0.0        85.0       1.9648     3.9486
 0.0        50.0      0.96887     3.5855
 0.0        50.0       1.0157     3.2154
 0.0        50.0       1.0357     2.9467
 0.0        50.0       1.0924     2.2077
 0.0        50.0       1.1528     2.3731
 0.0        50.0       1.1931     2.5727
 0.0        50.0       1.2335     3.1743
 0.0        50.0       1.2875     4.4454
 0.0        50.0       1.3286     6.7890
 0.0        50.0       1.3762     8.9649
 0.0        50.0       1.4269     9.9346
 0.0        50.0       1.5101     8.3237
 0.0        50.0       1.6107     8.5882
 0.0        50.0       1.6704     6.9111
 0.0        50.0       1.7238     6.2727
 0.0        50.0       1.7573     6.1041
 0.0        50.0       1.8666     11.963
 0.0        50.0       1.9619     6.4990
 0.87       164.0     0.97204     15.991
 0.87       164.0      1.0171     8.2076
 0.87       164.0      1.0396     4.5249
 0.87       164.0      1.0964     2.6759
 0.87       164.0      1.1535     1.9137
 0.87       164.0      1.1906     2.1582
 0.87       164.0      1.2383     4.1567
 0.87       164.0      1.2939     10.251
 0.87       164.0      1.3377     10.243
 0.87       164.0      1.3819     11.741
 0.87       164.0      1.4281     7.9705
 0.87       164.0      1.5223     7.3693
 0.87       164.0      1.6194     5.3461
 0.87       164.0      1.6765     4.5839
 0.87       164.0      1.7297     1.9830
 0.87       164.0      1.7533     2.0626
 0.87       164.0      1.8757     6.2223
 0.87       164.0      1.9750     11.974
 0.87       85.0      0.97116     13.341
 0.87       85.0       1.0177     10.998
 0.87       85.0       1.0309     9.8283
 0.87       85.0       1.0914     9.1513
 0.87       85.0       1.1519     8.8913
 0.87       85.0       1.1957     8.8842
 0.87       85.0       1.2332     10.463
 0.87       85.0       1.2857     17.877
 0.87       85.0       1.3358     15.950
 0.87       85.0       1.3771     19.196
 0.87       85.0       1.4280     20.606
 0.87       85.0       1.5153     19.591
 0.87       85.0       1.6172     22.660
 0.87       85.0       1.6787     25.903
 0.87       85.0       1.7214     21.642
 0.87       85.0       1.7572     16.966
 0.87       85.0       1.8679     15.030
 0.87       85.0       1.9725     15.514
 0.87       50.0      0.97204     7.0787
 0.87       50.0       1.0155     5.0647
 0.87       50.0       1.0356     4.2254
 0.87       50.0       1.0995     3.2982
 0.87       50.0       1.1534     2.7908
 0.87       50.0       1.1973     3.6243
 0.87       50.0       1.2413     4.7928
 0.87       50.0       1.2856     8.3062
 0.87       50.0       1.3325     6.6269
 0.87       50.0       1.3763     6.5392
 0.87       50.0       1.4268     6.1995
 0.87       50.0       1.5146     7.5315
 0.87       50.0       1.6160     9.6160
 0.87       50.0       1.6775     15.473
 0.87       50.0       1.7250     17.730
 0.87       50.0       1.7555     19.067
 0.87       50.0       1.8728     14.785
 0.87       50.0       1.9731     9.3320
ENDDATA            109
ENDSUBENT          122
SUBENT        D0390007   20060307   20060720   20060609       D046
BIB                  4          4
REACTION   (8-O-16(D,A)7-N-14,PAR,DA)
EN-SEC     (E-LVL,7-N-14)
ERR-ANALYS (EN-ERR-DIG) Digitizing error
STATUS     (CURVE) Digitized data from fig. 9 of the article
ENDBIB               4
COMMON               3          3
E-LVL      EN-ERR-DIG ERR-DIG
MEV        MEV        MB/SR
  0.0        0.002     0.01
ENDCOMMON            3
DATA                 3         53
ANG        EN         DATA
ADEG       MEV        MB/SR
 164.00    0.97031     14.029
 164.0      1.0182     15.612
 164.0      1.0363     11.810
 164.0      1.0956     9.4655
 164.0      1.1579     6.5781
 164.0      1.1980     6.1987
 164.0      1.2413     5.5685
 164.0      1.2949     5.1881
 164.0      1.3345     3.8899
 164.0      1.3803     1.4216
 164.0      1.4269    0.66576
 164.0      1.5208     6.5058
 164.0      1.6121     7.3754
 164.0      1.6778     10.753
 164.0      1.7309     15.803
 164.0      1.7566     13.504
 164.0      1.8723     3.8030
 164.0      1.9712     6.4263
 85.0      0.96876     5.4792
 85.0       1.0165     6.8957
 85.0       1.0433     6.7684
 85.0       1.0893     4.5092
 85.0       1.1525     3.2512
 85.0       1.1929     3.2899
 85.0       1.2398     3.1192
 85.0       1.2902     2.9483
 85.0       1.3270     2.5696
 85.0       1.3806     2.3148
 85.0       1.4277     2.3112
 85.0       1.5157     3.5158
 85.0       1.6170     4.5524
 85.0       1.6739     4.0885
 85.0       1.7304     9.4727
 85.0       1.8724     11.216
 85.0       1.9681     7.7001
 50.0      0.97137     3.2903
 50.0       1.0109     7.6071
 50.0       1.0341     7.0596
 50.0       1.0881     7.4741
 50.0       1.1515     6.6293
 50.0       1.1924     7.5483
 50.0       1.2396     7.7537
 50.0       1.2855     5.8619
 50.0       1.3317     4.3476
 50.0       1.3809     2.4135
 50.0       1.4216     2.9551
 50.0       1.5128     3.7436
 50.0       1.6078     5.2449
 50.0       1.6771     3.0154
 50.0       1.7223     5.5280
 50.0       1.7515     9.5521
 50.0       1.8650     13.904
 50.0       1.9643     11.294
ENDDATA             55
ENDSUBENT           68
ENDENTRY             7
