ENTRY            D0113   20040226   20040430
SUBENT        D0113001   20040226   20040430
BIB                  8         10
TITLE      Resonance sructure in 15N(p,n0)15O in the
           region Ep=8.5-19.0 MeV
AUTHOR     (S.H.Chew,J.Lowe,J.M.Nelson,A.R.Barnett)
INSTITUTE  (2UK BIR,2UK MAN)
REFERENCE  (J,NP/A,298,19,1978)
FACILITY   (VDGT,2UK OXF)
SAMPLE     15N (99% enriched) gas target contained by a Ni
           window 0.45 mg/cm2 thick.
EN-SEC     (E-LVL,8-O-15)
HISTORY    (20040215C) SD
ENDBIB              10
COMMON               2          3
ANG-RSL    E-LVL
ADEG       MEV
 3.         0.
ENDCOMMON            3
ENDSUBENT           17
SUBENT        D0113002   20040226   20040430
BIB                  5         16
REACTION   (7-N-15(P,N)8-O-15,PAR,DA)
DETECTOR   (SCIN) Two recoil scintillation counters, each
           consisting of a 10 cm diam. x 5 cm thick NE213 liquid
           scintillator on a RCA 8575 phototube were used.
METHOD     (TOF)
ERR-ANALYS (EN-ERR-DIG) Digitizing error
           (ERR-DIG)    Digitizing error
           (DATA-ERR) Relative errors due to counting statistics
           and in some cases to uncertainty in the background
           subtraction.
           (DATA-ERR1) In addition, there is overall error in each
           excitation function due mainly to uncertainties in the
           determination of the detector threshold and its
           stability.
STATUS     (CURVE) fig.3,4 Excitation function was given as a
           function of proton energy
ENDBIB              16
COMMON               3          3
EN-ERR-DIG ERR-DIG    DATA-ERR1
MEV        MB/SR      PER-CENT
 0.02       0.05         20.
ENDCOMMON            3
DATA                 4        897
ANG        EN         DATA       DATA-ERR
ADEG       MEV        MB/SR      MB/SR
  30.00      8.467      8.640     0.8178
  30.00      8.560      7.114     0.7156
  30.00      8.568      7.039     0.7540
  30.00      8.619      6.101     0.5278
  30.00      8.667      5.180     0.5111
  30.00      8.670      5.164     0.5288
  30.00      8.719      4.454     0.4524
  30.00      8.758      5.904     0.6133
  30.00      8.769      5.251     0.6032
  30.00      8.819      8.613     0.9058
  30.00      8.866      13.07      1.329
  30.00      8.868      12.58      1.282
  30.00      8.917      15.41      1.433
  30.00      8.967      15.53      1.431
  30.00      8.968      14.25      1.357
  30.00      8.994      13.40      1.283
  30.00      9.018      12.56      1.206
  30.00      9.044      11.79      1.131
  30.00      9.064      11.96      1.125
  30.00      9.068      11.17      1.057
  30.00      9.092      10.10     0.9791
  30.00      9.118      9.705     0.9048
  30.00      9.144      8.558     0.8294
  30.00      9.168      8.014     0.7540
  30.00      9.172      9.005     0.8167
  30.00      9.194      7.470     0.7540
  30.00      9.219      7.304     0.6786
  30.00      9.243      8.193     0.8294
  30.00      9.261      10.95      1.227
  30.00      9.268      10.36      1.056
  30.00      9.370      17.51      1.738
  30.00      9.465      15.16      1.431
  30.00      9.560      12.10      1.227
  30.00      9.667      10.27      1.021
  30.00      9.762      8.338     0.8178
  30.00      9.867      7.938     0.8178
  30.00      9.971      8.049     0.7156
  30.00      10.07      9.182     0.8178
  30.00      10.18      9.497     0.8178
  30.00      10.27      9.607      1.022
  30.00      10.38      9.207     0.8178
  30.00      10.48      10.03     0.9200
  30.00      10.57      9.632     0.9200
  30.00      10.68      8.721     0.7156
  30.00      10.78      9.956     0.9200
  30.00      10.88      10.07     0.9200
  30.00      10.97      7.825     0.7167
  30.00      11.07      4.358     0.5111
  30.00      11.18      3.549     0.5100
  30.00      11.27      3.147     0.4089
  30.00      11.38      2.849     0.4089
  30.00      11.48      4.187     0.5111
  30.00      11.57      3.990     0.5111
  30.00      11.68      5.328     0.6133
  30.00      11.77      4.824     0.5111
  30.00      11.87      4.731     0.4078
  30.00      11.98      4.024     0.4089
  30.00      12.07      3.622     0.4089
  30.00      12.17      4.244     0.4089
  30.00      12.28      3.640     0.4089
  30.00      12.37      3.034     0.3067
  30.00      12.48      2.838     0.4078
  30.00      12.58      2.438     0.4078
  30.00      12.67      2.446     0.4089
  30.00      12.76      2.760     0.3067
  30.00      12.88      3.485     0.4089
  30.00      12.97      3.799     0.4089
  30.00      13.09      4.320     0.5111
  30.00      13.18      4.123     0.4089
  30.00      13.27      3.824     0.5111
  30.00      13.38      3.424     0.4089
  30.00      13.47      3.023     0.4089
  30.00      13.59      3.850     0.4089
  30.00      13.68      3.960     0.4089
  30.00      13.78      3.969     0.4089
  30.00      13.89      3.875     0.5100
  30.00      13.98      3.065     0.4089
  30.00      14.09      2.869     0.4089
  30.00      14.18      2.775     0.4089
  30.00      14.29      3.602     0.4089
  30.00      14.37      3.813     0.5111
  30.00      14.48      4.231     0.5111
  30.00      14.58      4.035     0.3067
  30.00      14.68      4.453     0.4089
  30.00      14.78      3.847     0.4089
  30.00      14.88      4.469     0.5111
  30.00      14.99      3.455     0.4089
  30.00      15.08      3.463     0.4089
  30.00      15.18      2.347     0.3067
  30.00      15.27      2.355     0.4089
  30.00      15.37      2.567     0.5111
  30.00      15.48      2.270     0.4089
  30.00      15.59      2.483     0.4089
  30.00      15.68      2.082     0.3067
  30.00      15.79      1.579     0.5111
  30.00      15.88      1.485     0.4089
  30.00      15.98      1.493     0.4089
  30.00      16.07      1.296     0.3078
  30.00      16.19      1.511     0.3067
  30.00      16.28      1.518     0.4089
  30.00      16.39      1.527     0.4089
  30.00      16.49      1.638     0.3067
  30.00      16.58      1.748     0.3067
  30.00      16.70      1.655     0.3067
  30.00      16.79      1.765     0.3067
  30.00      16.91      1.570     0.5100
  30.00      17.02      1.579     0.4089
  30.00      17.09      1.688     0.4089
  30.00      17.18      1.695     0.4078
  30.00      17.29      1.704     0.4089
  30.00      17.39      2.224     0.6123
  30.00      17.49      1.414     0.4089
  50.00      8.464      2.881     0.2558
  50.00      8.567      3.181     0.3744
  50.00      8.568      3.036     0.3070
  50.00      8.618      3.299     0.3005
  50.00      8.659      3.089     0.2558
  50.00      8.667      3.493     0.2995
  50.00      8.718      3.686     0.3744
  50.00      8.763      4.012     0.3582
  50.00      8.767      4.405     0.4482
  50.00      8.819      6.245     0.6000
  50.00      8.863      6.880     0.6654
  50.00      8.870      7.786     0.7498
  50.00      8.919      7.606     0.7488
  50.00      8.968      6.984     0.6652
  50.00      8.970      7.200     0.6739
  50.00      8.994      6.885     0.5990
  50.00      9.019      6.421     0.5990
  50.00      9.045      6.704     0.6000
  50.00      9.061      6.219     0.5628
  50.00      9.068      6.465     0.5990
  50.00      9.094      5.476     0.5231
  50.00      9.118      4.936     0.4493
  50.00      9.146      4.021     0.3754
  50.00      9.168      3.108     0.3744
  50.00      9.168      3.765     0.4093
  50.00      9.195      2.942     0.2985
  50.00      9.219      3.076     0.2995
  50.00      9.246      4.034     0.3744
  50.00      9.258      5.353     0.5631
  50.00      9.271      5.441     0.5241
  50.00      9.371      8.886     0.8187
  50.00      9.465      7.097     0.6652
  50.00      9.557      6.433     0.6652
  50.00      9.663      5.054     0.4605
  50.00      9.755      5.312     0.5119
  50.00      9.860      4.853     0.5119
  50.00      9.978      4.293     0.4091
  50.00      10.07      3.681     0.3582
  50.00      10.18      4.143     0.3582
  50.00      10.28      4.913     0.4605
  50.00      10.37      4.915     0.5117
  50.00      10.47      5.531     0.5117
  50.00      10.58      6.147     0.6140
  50.00      10.68      5.484     0.5117
  50.00      10.77      4.872     0.5117
  50.00      10.88      4.567     0.4605
  50.00      10.97      4.774     0.4605
  50.00      11.06      4.725     0.4093
  50.00      11.17      2.987     0.4093
  50.00      11.27      2.529     0.2556
  50.00      11.37      2.786     0.3070
  50.00      11.47      3.147     0.3582
  50.00      11.57      3.149     0.3582
  50.00      11.68      4.123     0.3579
  50.00      11.77      5.097     0.5628
  50.00      11.87      5.355     0.5628
  50.00      11.98      4.641     0.3070
  50.00      12.07      4.847     0.3582
  50.00      12.17      5.003     0.3582
  50.00      12.28      5.005     0.3582
  50.00      12.37      4.751     0.3070
  50.00      12.48      4.753     0.3582
  50.00      12.58      4.704     0.5117
  50.00      12.67      4.553     0.4605
  50.00      12.78      4.504     0.4605
  50.00      12.88      4.762     0.4605
  50.00      12.98      4.354     0.4091
  50.00      13.08      3.640     0.3582
  50.00      13.17      2.618     0.3070
  50.00      13.27      2.416     0.2558
  50.00      13.38      2.316     0.2044
  50.00      13.47      2.318     0.3073
  50.00      13.58      2.371     0.2558
  50.00      13.68      2.168     0.2558
  50.00      13.78      2.324     0.3067
  50.00      13.88      2.326     0.2558
  50.00      13.98      2.277     0.2558
  50.00      14.07      3.046     0.3070
  50.00      14.18      3.151     0.3582
  50.00      14.28      3.665     0.4093
  50.00      14.37      3.257     0.3582
  50.00      14.48      4.129     0.4605
  50.00      14.57      3.773     0.3584
  50.00      14.67      4.184     0.4093
  50.00      14.78      3.521     0.3582
  50.00      14.88      4.291     0.3582
  50.00      14.99      4.242     0.4605
  50.00      15.08      4.704     0.5117
  50.00      15.18      3.990     0.4093
  50.00      15.29      3.890     0.4093
  50.00      15.36      3.840     0.3584
  50.00      15.47      3.587     0.3582
  50.00      15.56      3.026     0.3070
  50.00      15.68      3.437     0.3579
  50.00      15.77      2.569     0.2558
  50.00      15.88      2.878     0.3070
  50.00      15.97      2.931     0.3070
  50.00      16.07      2.882     0.3582
  50.00      16.16      2.782     0.2558
  50.00      16.28      2.324     0.3067
  50.00      16.37      2.172     0.2558
  50.00      16.48      1.867     0.2556
  50.00      16.58      1.921     0.2561
  50.00      16.69      1.821     0.3070
  50.00      16.78      1.618     0.2561
  50.00      16.89      1.262     0.3070
  50.00      16.98      2.236     0.6140
  50.00      17.09      1.675     0.2556
  50.00      17.19      1.728     0.5117
  50.00      17.29      1.628     0.2558
  50.00      17.40      1.733     0.3579
  50.00      17.49      1.581     0.2558
  50.00      17.59      1.839     0.4093
  50.00      17.68      1.534     0.3582
  50.00      17.79      1.638     0.3582
  50.00      17.89      1.538     0.3582
  50.00      18.00      1.489     0.4093
  50.00      18.09      1.440     0.3579
  50.00      18.18      1.544     0.4605
  50.00      18.28      1.444     0.3070
  50.00      18.39      1.446     0.6137
  50.00      18.48      1.294     0.3070
  50.00      18.60      1.246     0.4602
  50.00      18.69      1.350     0.3582
  50.00      18.79      1.454     0.6137
  50.00      18.89      1.712     0.4605
  50.00      18.98      1.458     0.5631
  70.00      8.469      1.461     0.2264
  70.00      8.479      1.272     0.2493
  70.00      8.519      1.279     0.3018
  70.00      8.570      1.324     0.3018
  70.00      8.571      1.307     0.3562
  70.00      8.620      1.595     0.3018
  70.00      8.669      2.170     0.3773
  70.00      8.676      2.268     0.3562
  70.00      8.720      3.045     0.3018
  70.00      8.769      3.996     0.3773
  70.00      8.782      3.585     0.3563
  70.00      8.818      5.098     0.5282
  70.00      8.869      5.973     0.6037
  70.00      8.877      5.828     0.5699
  70.00      8.918      5.944     0.6027
  70.00      8.970      5.309     0.5292
  70.00      8.980      4.758     0.4632
  70.00      8.995      4.312     0.3783
  70.00      9.018      4.299     0.4527
  70.00      9.044      4.283     0.4527
  70.00      9.069      3.891     0.3773
  70.00      9.069      3.154     0.3562
  70.00      9.093      4.102     0.4527
  70.00      9.117      3.258     0.5282
  70.00      9.169      2.547     0.3773
  70.00      9.172      2.512     0.2136
  70.00      9.220      2.517     0.3783
  70.00      9.269      2.638     0.4527
  70.00      9.277      2.618     0.2493
  70.00      9.382      2.902     0.2493
  70.00      9.473      2.794     0.2495
  70.00      9.565      3.292     0.3205
  70.00      9.667      2.080     0.2137
  70.00      9.773      2.613     0.2493
  70.00      9.877      2.683     0.2851
  70.00      9.981      2.647     0.2493
  70.00      10.09      1.898     0.2137
  70.00      10.18      1.826     0.1782
  70.00      10.28      2.038     0.1781
  70.00      10.38      1.681     0.1781
  70.00      10.49      2.036     0.2138
  70.00      10.58      2.107     0.2137
  70.00      10.69      2.391     0.2493
  70.00      10.79      1.784     0.2137
  70.00      10.88      1.712     0.1425
  70.00      10.97      2.281     0.1781
  70.00      11.08      3.883     0.3918
  70.00      11.18      2.885     0.2493
  70.00      11.28      2.349     0.2493
  70.00      11.38      2.206     0.1781
  70.00      11.48      2.312     0.2493
  70.00      11.59      2.382     0.2137
  70.00      11.68      2.167     0.2137
  70.00      11.78      2.558     0.2493
  70.00      11.89      2.913     0.2850
  70.00      11.98      3.233     0.2493
  70.00      12.08      2.983     0.2137
  70.00      12.17      2.946     0.2137
  70.00      12.27      2.874     0.2136
  70.00      12.38      3.122     0.2493
  70.00      12.47      3.834     0.4274
  70.00      12.58      3.370     0.3562
  70.00      12.68      3.440     0.3207
  70.00      12.79      3.332     0.3562
  70.00      12.89      3.224     0.3207
  70.00      12.98      3.579     0.3562
  70.00      13.09      3.614     0.3563
  70.00      13.18      2.295     0.2493
  70.00      13.28      1.796     0.1781
  70.00      13.37      1.474     0.1781
  70.00      13.48      1.900     0.3918
  70.00      13.58      1.579     0.1781
  70.00      13.68      1.186     0.1425
  70.00      13.77     0.9002     0.1424
  70.00      13.88     0.8636     0.1781
  70.00      13.98      1.076     0.1425
  70.00      14.09      1.467     0.1425
  70.00      14.18      1.573     0.2137
  70.00      14.28      1.893     0.1781
  70.00      14.39      1.714     0.1781
  70.00      14.48      1.819     0.1781
  70.00      14.57      1.676     0.3206
  70.00      14.68      1.817     0.1781
  70.00      14.78      1.852     0.1781
  70.00      14.89      1.958     0.1781
  70.00      14.99      2.242     0.2137
  70.00      15.08      2.419     0.2137
  70.00      15.19      2.917     0.3206
  70.00      15.29      2.738     0.2851
  70.00      15.38      2.452     0.2493
  70.00      15.49      2.023     0.1781
  70.00      15.58      2.165     0.2493
  70.00      15.68      1.950     0.2137
  70.00      15.79      2.234     0.2137
  70.00      15.89      2.055     0.2137
  70.00      15.98      2.303     0.2493
  70.00      16.09      2.053     0.1781
  70.00      16.18      2.302     0.2137
  70.00      16.28      2.372     0.2493
  70.00      16.39      2.335     0.2137
  70.00      16.49      2.512     0.2137
  70.00      16.59      2.761     0.2850
  70.00      16.69      2.582     0.2136
  70.00      16.80      2.402     0.2851
  70.00      16.88      2.366     0.2137
  70.00      16.99      2.080     0.3918
  70.00      17.09      1.901     0.2138
  70.00      17.19      1.758     0.4987
  70.00      17.30      1.792     0.2137
  70.00      17.39      1.684     0.3207
  70.00      17.49      1.470     0.2138
  70.00      17.58      1.398     0.3917
  70.00      17.69      1.218     0.2137
  70.00      17.79      1.609     0.4274
  70.00      17.90      1.323     0.3207
  70.00      17.99      1.251     0.2137
  70.00      18.08      1.500     0.3561
  70.00      18.20      1.498     0.2493
  70.00      18.29      1.569     0.3562
  70.00      18.40      1.995     0.5700
  70.00      18.49      1.496     0.2848
  70.00      18.59      1.851     0.4987
  70.00      18.69      1.209     0.2851
  70.00      18.78      1.315     0.3562
  70.00      18.89      1.492     0.6768
  70.00      18.98      1.206     0.3205
  90.00      8.467      3.018     0.3731
  90.00      8.481      2.853     0.2474
  90.00      8.519      2.541     0.2985
  90.00      8.559      2.813     0.2062
  90.00      8.569      2.812     0.2985
  90.00      8.621      2.558     0.2985
  90.00      8.663      3.639     0.3300
  90.00      8.671      3.052     0.5223
  90.00      8.721      4.069     0.5969
  90.00      8.770      5.012     0.5223
  90.00      8.779      4.918     0.3711
  90.00      8.821      6.550     0.5969
  90.00      8.868      6.610     0.5362
  90.00      8.870      7.120     0.5969
  90.00      8.920      6.718     0.5969
  90.00      8.963      4.179     0.4950
  90.00      8.969      6.243      1.193
  90.00      8.996      3.243     0.8217
  90.00      9.020      5.767     0.8208
  90.00      9.045      3.140      1.418
  90.00      9.070      2.572     0.3711
  90.00      9.071      1.559     0.6715
  90.00      9.097      2.216     0.9718
  90.00      9.120      1.830     0.8208
  90.00      9.170      2.025     0.3731
  90.00      9.175      1.831     0.2062
  90.00      9.219      1.997     0.3731
  90.00      9.267      1.749     0.1649
  90.00      9.270      2.044     0.3731
  90.00      9.372      1.091     0.1651
  90.00      9.463      1.587     0.1651
  90.00      9.567      1.835     0.1649
  90.00      9.660      1.135     0.1239
  90.00      9.764      1.219     0.1649
  90.00      9.869      1.427     0.1649
  90.00      9.987      1.098     0.1649
  90.00      10.08      1.141     0.1649
  90.00      10.20      1.183     0.1237
  90.00      10.27      1.226     0.1649
  90.00      10.38      1.268     0.1237
  90.00      10.48      1.517     0.1649
  90.00      10.57      1.559     0.1237
  90.00      10.69      1.767     0.1648
  90.00      10.78      2.263     0.1649
  90.00      10.89      2.883     0.2062
  90.00      10.98      3.585     0.2474
  90.00      11.08      3.215     0.2474
  90.00      11.17      3.010     0.2888
  90.00      11.28      2.805     0.2062
  90.00      11.37      2.765     0.2062
  90.00      11.48      2.890     0.2062
  90.00      11.58      3.221     0.2887
  90.00      11.68      3.635     0.3299
  90.00      11.79      3.801     0.2885
  90.00      11.89      3.761     0.3299
  90.00      11.98      3.762     0.2887
  90.00      12.08      2.773     0.2888
  90.00      12.18      2.486     0.2062
  90.00      12.27      2.487     0.1649
  90.00      12.38      2.324     0.1649
  90.00      12.48      2.943     0.2887
  90.00      12.59      2.491     0.2887
  90.00      12.68      2.657     0.2887
  90.00      12.78      1.669     0.7010
  90.00      12.89      1.711     0.1649
  90.00      12.98      1.465     0.1649
  90.00      13.10      1.879     0.2473
  90.00      13.18      1.797     0.1649
  90.00      13.28      1.922     0.2062
  90.00      13.39      1.470     0.2062
  90.00      13.49      1.719     0.2062
  90.00      13.58      1.555     0.1649
  90.00      13.69      1.845     0.2063
  90.00      13.78      1.722     0.1649
  90.00      13.90      1.806     0.2062
  90.00      13.99      1.766     0.2060
  90.00      14.09      2.015     0.1649
  90.00      14.20      1.975     0.2062
  90.00      14.27      1.934     0.2474
  90.00      14.38      1.688     0.2062
  90.00      14.48      1.319     0.1649
  90.00      14.59      1.485     0.2062
  90.00      14.68      1.362     0.1649
  90.00      14.78      1.570     0.2062
  90.00      14.89      1.612     0.1648
  90.00      14.99      1.655     0.2474
  90.00      15.09      1.656     0.2060
  90.00      15.18      1.410     0.2474
  90.00      15.28      1.122     0.2887
  90.00      15.37     0.9171     0.1649
  90.00      15.48     0.8359     0.2062
  90.00      15.58     0.8372     0.2062
  90.00      15.68     0.7146     0.2062
  90.00      15.79     0.8810     0.2060
  90.00      15.88     0.7172     0.1649
  90.00      15.98     0.8420     0.2063
  90.00      16.08     0.4722     0.1649
  90.00      16.18      1.051     0.2062
  90.00      16.29      1.135     0.4124
  90.00      16.38      1.094     0.1651
  90.00      16.49     0.9720     0.2062
  90.00      16.59      1.509     0.1649
  90.00      16.69      1.016     0.2474
  90.00      16.80      2.007     0.4124
  90.00      16.89      1.554     0.2887
  90.00      16.99      2.463     0.7835
  90.00      17.09      1.598     0.3299
  90.00      17.19      2.218     0.4536
  90.00      17.30      1.807     0.3711
  90.00      17.39      2.138     0.4536
  90.00      17.49      1.603     0.2474
  90.00      17.60      1.480     0.2474
  90.00      17.70      1.564     0.3711
  90.00      17.81      1.359     0.3710
  90.00      17.90      1.113     0.2887
  90.00      17.99      1.279     0.3300
  90.00      18.09      1.115     0.2885
  90.00      18.18      1.117     0.2887
  90.00      18.29      1.448     0.4536
  90.00      18.39      1.903     0.5773
  90.00      18.49      1.079     0.2887
  90.00      18.59      1.781     0.5361
  90.00      18.69      1.205     0.3299
  90.00      18.79      1.413     0.4124
  90.00      18.89      1.332     0.4122
  90.00      18.98      1.291     0.4124
  110.0      8.490      5.542     0.5125
  110.0      8.582      5.493     0.5641
  110.0      8.672      5.956     0.5128
  110.0      8.775      7.599     0.7179
  110.0      8.877      9.140     0.8717
  110.0      8.975      4.219     0.6666
  110.0      9.081      2.734     0.4615
  110.0      9.174      1.761     0.2051
  110.0      9.265      1.558     0.2051
  110.0      9.370      1.611     0.1538
  110.0      9.461      1.767     0.2564
  110.0      9.578      2.128     0.2564
  110.0      9.670      1.412     0.2051
  110.0      9.774      1.414     0.1538
  110.0      9.878      1.314     0.1538
  110.0      9.984     0.7519     0.2051
  110.0      10.09      1.062     0.1538
  110.0      10.18      1.217     0.2051
  110.0      10.28      1.937     0.2051
  110.0      10.39      2.555     0.3077
  110.0      10.49      3.070     0.3589
  110.0      10.58      2.866     0.2564
  110.0      10.69      2.920     0.2051
  110.0      10.78      2.921     0.2567
  110.0      10.88      3.488     0.2564
  110.0      10.98      4.515     0.3589
  110.0      11.08      3.645     0.3077
  110.0      11.18      2.878     0.3589
  110.0      11.27      2.624     0.2051
  110.0      11.38      2.677     0.3077
  110.0      11.48      3.397     0.3589
  110.0      11.57      3.604     0.3592
  110.0      11.67      5.247     0.5131
  110.0      11.77      7.454     0.7182
  110.0      11.89      8.380     0.8205
  110.0      11.99      8.433     0.5641
  110.0      12.07      7.511     0.7694
  110.0      12.18      6.180     0.5131
  110.0      12.27      5.977     0.5643
  110.0      12.38      5.671     0.4102
  110.0      12.48      6.135     0.6666
  110.0      12.59      5.932     0.5641
  110.0      12.68      5.780     0.8717
  110.0      12.78      4.859     0.4615
  110.0      12.89      3.733     0.3589
  110.0      12.98      2.094     0.2564
  110.0      13.09      1.634     0.2051
  110.0      13.16      1.687     0.2051
  110.0      13.28      2.049     0.2051
  110.0      13.39      2.410     0.2051
  110.0      13.48      2.463     0.2051
  110.0      13.58      2.567     0.2051
  110.0      13.67      2.774     0.2054
  110.0      13.78      3.187     0.2564
  110.0      13.88      2.778     0.2564
  110.0      13.98      3.396     0.2564
  110.0      14.08      3.346     0.2567
  110.0      14.19      3.554     0.2564
  110.0      14.27      3.453     0.2564
  110.0      14.38      3.096     0.2564
  110.0      14.48      2.534     0.2564
  110.0      14.57      2.536     0.1538
  110.0      14.68      1.923     0.1538
  110.0      14.78      2.130     0.2564
  110.0      14.87      2.285     0.1538
  110.0      14.98      2.647     0.2564
  110.0      15.07      2.802     0.2564
  110.0      15.19      3.061     0.2564
  110.0      15.28      2.345     0.2564
  110.0      15.38      1.937     0.1538
  110.0      15.47      1.477     0.2564
  110.0      15.58      1.633     0.2564
  110.0      15.68      1.225     0.1538
  110.0      15.77      1.329     0.2051
  110.0      15.88      1.485     0.3077
  110.0      15.98      1.590     0.2561
  110.0      16.07      1.335     0.2561
  110.0      16.18      1.337     0.2051
  110.0      16.28     0.9803     0.2051
  110.0      16.39      1.136     0.3074
  110.0      16.48     0.9842     0.2051
  110.0      16.58      1.089     0.3589
  110.0      16.69     0.6807     0.2561
  110.0      16.78     0.9390     0.2564
  110.0      16.88      1.095     0.3592
  110.0      16.99      1.046     0.4100
  110.0      17.08      1.048     0.4102
  110.0      17.18      1.101     0.3077
  110.0      17.29      1.411     0.5641
  110.0      17.39      1.310     0.3587
  110.0      17.48      1.876     0.6154
  110.0      17.59      1.263     0.3074
  110.0      17.69      1.829     0.6666
  110.0      17.78      1.421     0.4105
  110.0      17.89      1.269     0.4615
  110.0      17.99      1.784     0.4618
  110.0      18.08      1.786     0.4615
  110.0      18.19      1.941     0.5641
  110.0      18.29      1.892     0.7179
  110.0      18.38      1.433     0.3079
  110.0      18.49      1.691     0.5641
  110.0      18.58      1.385     0.4105
  110.0      18.68     0.9257     0.3077
  110.0      18.80      1.133     0.2561
  110.0      18.88      1.186     0.3592
  110.0      18.97      1.239     0.3077
  120.0      8.371      8.197      2.478
  120.0      8.420      9.216      3.754
  120.0      8.470      7.456      2.928
  120.0      8.520      7.573      3.754
  120.0      8.571      7.165      3.604
  120.0      8.619      7.283      3.528
  120.0      8.671      5.598      2.778
  120.0      8.721      8.644      3.379
  120.0      8.770      11.24      4.353
  120.0      8.821      10.15      2.852
  120.0      8.871      9.221      2.703
  120.0      8.920      5.510      2.102
  120.0      8.971      2.099      1.126
  120.0      8.995      1.858     0.9758
  120.0      9.020      1.316     0.6755
  120.0      9.046      1.825     0.4504
  120.0      9.070      2.259     0.5265
  120.0      9.097      2.317     0.6015
  120.0      9.119      2.152     0.5254
  120.0      9.145      1.610     0.6005
  120.0      9.170      1.369     0.3753
  120.0      9.220      1.561     0.6005
  120.0      9.270      1.303     0.3753
  130.0      8.470      8.310     0.8169
  130.0      8.477      10.73      1.159
  130.0      8.521      8.623     0.8931
  130.0      8.569      10.66      1.005
  130.0      8.570      9.309     0.8912
  130.0      8.620      9.324     0.9635
  130.0      8.672      8.521     0.8188
  130.0      8.674      10.51      1.005
  130.0      8.721      8.316     0.8169
  130.0      8.765      11.59      1.082
  130.0      8.770      9.967     0.8893
  130.0      8.820      11.69      1.038
  130.0      8.872      11.71      1.190
  130.0      8.882      13.14      1.159
  130.0      8.921      8.528     0.7408
  130.0      8.970      6.242     0.6684
  130.0      8.976      6.956     0.5409
  130.0      8.996      5.989     0.5199
  130.0      9.020      5.589     0.5199
  130.0      9.047      6.078     0.5960
  130.0      9.071      6.273     0.6684
  130.0      9.080      7.576     0.6955
  130.0      9.096      6.839     0.6684
  130.0      9.121      5.174     0.5217
  130.0      9.145      4.700     0.5199
  130.0      9.170      3.556     0.3713
  130.0      9.174      3.868     0.4637
  130.0      9.220      2.384     0.4456
  130.0      9.266      2.092     0.2320
  130.0      9.271      2.102     0.3713
  130.0      9.370      3.252     0.3864
  130.0      9.462      3.099     0.3093
  130.0      9.566      3.255     0.3864
  130.0      9.658      2.793     0.3091
  130.0      9.762      3.490     0.3866
  130.0      9.868      2.409     0.3864
  130.0      9.972      2.334     0.3091
  130.0      10.08      2.026     0.3091
  130.0      10.17      1.718     0.2320
  130.0      10.27      1.797     0.3091
  130.0      10.38      2.726     0.2318
  130.0      10.48      4.119     0.3864
  130.0      10.59      4.506     0.5409
  130.0      10.68      5.049     0.6184
  130.0      10.78      4.278     0.4637
  130.0      10.88      2.888     0.4639
  130.0      10.97      2.039     0.3091
  130.0      11.07      2.968     0.3864
  130.0      11.18      2.429     0.3864
  130.0      11.27      2.043     0.3091
  130.0      11.37      2.431     0.3091
  130.0      11.46      2.433     0.3091
  130.0      11.58      2.666     0.3089
  130.0      11.67      2.977     0.3093
  130.0      11.78      3.519     0.3864
  130.0      11.87      4.602     0.5411
  130.0      11.97      4.759     0.3091
  130.0      12.08      4.219     0.3091
  130.0      12.17      4.143     0.3091
  130.0      12.27      4.067     0.3091
  130.0      12.38      4.223     0.3091
  130.0      12.47      4.148     0.3091
  130.0      12.58      3.917     0.3091
  130.0      12.67      3.841     0.3091
  130.0      12.77      3.920     0.2318
  130.0      12.88      4.231     0.3864
  130.0      12.99      4.696     0.3862
  130.0      13.09      4.620     0.3862
  130.0      13.18      3.462     0.3091
  130.0      13.28      2.305     0.2318
  130.0      13.38      2.074     0.2318
  130.0      13.48      2.771     0.3091
  130.0      13.58      3.314     0.2318
  130.0      13.68      2.774     0.3091
  130.0      13.78      2.853     0.2318
  130.0      13.89      2.236     0.2318
  130.0      13.98      2.315     0.2318
  130.0      14.08      2.007     0.2318
  130.0      14.17      2.009     0.2318
  130.0      14.27      1.933     0.3091
  130.0      14.38      1.934     0.2318
  130.0      14.47      1.781     0.2318
  130.0      14.58      1.628     0.3091
  130.0      14.68      1.398     0.3091
  130.0      14.77      1.476     0.2318
  130.0      14.88      1.323     0.2316
  130.0      14.98      1.479     0.2318
  130.0      15.08      1.713     0.2318
  130.0      15.19      2.101     0.3091
  130.0      15.28      2.025     0.2318
  130.0      15.38      1.640     0.2318
  130.0      15.49      1.100     0.3091
  130.0      15.59      1.102     0.3091
  130.0      15.69     0.9488     0.2318
  130.0      15.77      1.027     0.3091
  130.0      15.87      1.183     0.2318
  130.0      15.98      1.339     0.3091
  130.0      16.07      1.263     0.2318
  130.0      16.17      1.419     0.2318
  130.0      16.28      1.498     0.2318
  130.0      16.39      1.809     0.3091
  130.0      16.50      1.270     0.3091
  130.0      16.59      1.657     0.2318
  130.0      16.70      1.195     0.3091
  130.0      16.79      1.351     0.2318
  130.0      16.88      1.198     0.2318
  130.0      16.99      1.045     0.3091
  130.0      17.08     0.7372     0.3091
  130.0      17.18     0.8932     0.3864
  130.0      17.29     0.7402     0.3091
  130.0      17.41     0.9737     0.3089
  130.0      17.50     0.9751     0.3091
  130.0      17.60     0.6675     0.2318
  130.0      17.69     0.8234     0.3091
  130.0      17.78     0.5156     0.2320
  130.0      17.90     0.7491     0.3091
  130.0      18.00     0.7505     0.3091
  130.0      18.10     0.9838     0.3089
  130.0      18.19     0.8306     0.3864
  130.0      18.30      1.064     0.3089
  130.0      18.39     0.9880     0.3091
  130.0      18.49      1.221     0.2318
  130.0      18.60      1.146     0.3091
  130.0      18.69      1.147     0.3091
  130.0      18.79     0.9939     0.3091
  130.0      18.90     0.5318     0.3091
  130.0      19.00     0.8424     0.3862
  140.0      8.371      9.244     0.8951
  140.0      8.420      9.195     0.8189
  140.0      8.470      9.368     0.8951
  140.0      8.521      9.616     0.8968
  140.0      8.571      9.192     0.8206
  140.0      8.620      8.919     0.8951
  140.0      8.672      8.195     0.7459
  140.0      8.722      8.219     0.7459
  140.0      8.772      9.438     0.8951
  140.0      8.823      10.88      1.044
  140.0      8.872      12.02     0.9681
  140.0      8.922      11.00     0.9697
  140.0      8.972      8.714     0.8205
  140.0      8.998      8.315     0.7476
  140.0      9.022      8.216     0.6714
  140.0      9.047      8.415     0.7459
  140.0      9.071      8.912     0.8206
  140.0      9.099      8.810     0.8222
  140.0      9.122      8.563     0.7443
  140.0      9.147      7.567     0.6714
  140.0      9.171      6.200     0.5968
  140.0      9.222      3.537     0.3730
  140.0      9.272      2.218     0.3000
  150.0      8.470      10.09     0.9653
  150.0      8.487      8.513     0.8422
  150.0      8.521      10.25     0.8911
  150.0      8.571      10.04      1.040
  150.0      8.578      8.589     0.9187
  150.0      8.621      9.536     0.8911
  150.0      8.672      7.617     0.7426
  150.0      8.683      7.287     0.7656
  150.0      8.721      7.410     0.6683
  150.0      8.771      8.763     0.7426
  150.0      8.787      8.052     0.8422
  150.0      8.822      10.86      1.116
  150.0      8.873      14.06      1.262
  150.0      8.892      12.95      1.225
  150.0      8.923      13.34      1.339
  150.0      8.972      13.28      1.337
  150.0      8.984      12.19      1.148
  150.0      8.998      12.73      1.188
  150.0      9.022      12.18      1.116
  150.0      9.048      12.59      1.190
  150.0      9.071      12.86      1.188
  150.0      9.088      12.49      1.148
  150.0      9.099      13.20      1.192
  150.0      9.123      12.06      1.116
  150.0      9.148      10.91     0.9673
  150.0      9.171      8.954     0.8188
  150.0      9.180      9.123     0.8421
  150.0      9.222      5.773     0.5960
  150.0      9.271      3.610     0.3063
  150.0      9.271      3.708     0.3713
  150.0      9.376      7.055     0.6125
  150.0      9.480      5.983     0.6125
  150.0      9.585      4.528     0.5359
  150.0      9.663      4.375     0.4594
  150.0      9.781      5.829     0.6125
  150.0      9.872      5.369     0.5359
  150.0      9.990      5.063     0.6125
  150.0      10.09      5.598     0.4594
  150.0      10.19      5.062     0.3828
  150.0      10.29      5.062     0.4594
  150.0      10.40      5.827     0.6125
  150.0      10.49      7.358     0.6125
  150.0      10.59      9.042     0.8422
  150.0      10.70      9.960     0.9953
  150.0      10.80      10.27     0.9187
  150.0      10.91      11.34      1.148
  150.0      11.00      8.735     0.8422
  150.0      11.09      5.825     0.6891
  150.0      11.18      5.365     0.4593
  150.0      11.28      5.977     0.6125
  150.0      11.39      6.743     0.6891
  150.0      11.49      5.747     0.6125
  150.0      11.59      5.288     0.5359
  150.0      11.69      5.364     0.5359
  150.0      11.78      5.364     0.6125
  150.0      11.89      5.210     0.5359
  150.0      11.98      5.286     0.3063
  150.0      12.08      4.291     0.3828
  150.0      12.19      3.908     0.2297
  150.0      12.29      4.060     0.3063
  150.0      12.38      4.290     0.3063
  150.0      12.49      3.677     0.4594
  150.0      12.59      4.442     0.4594
  150.0      12.68      4.595     0.5359
  150.0      12.79      5.284     0.4594
  150.0      12.89      5.973     0.6125
  150.0      13.00      6.585     0.6891
  150.0      13.09      6.584     0.5359
  150.0      13.19      5.053     0.5359
  150.0      13.28      3.981     0.4593
  150.0      13.38      3.521     0.3828
  150.0      13.49      4.057     0.4594
  150.0      13.60      4.056     0.4594
  150.0      13.69      3.750     0.4594
  150.0      13.78      3.673     0.4593
  150.0      13.89      2.984     0.3828
  150.0      13.99      2.754     0.2297
  150.0      14.10      2.677     0.3063
  150.0      14.20      2.677     0.3828
  150.0      14.28      2.600     0.3063
  150.0      14.38      2.217     0.3063
  150.0      14.49      2.293     0.3063
  150.0      14.59      1.910     0.3063
  150.0      14.68      1.986     0.2297
  150.0      14.79      2.139     0.3063
  150.0      14.89      3.057     0.3063
  150.0      15.00      3.363     0.4594
  150.0      15.09      3.439     0.3063
  150.0      15.19      3.439     0.3828
  150.0      15.28      2.750     0.3063
  150.0      15.38      1.907     0.2297
  150.0      15.47      1.754     0.3063
  150.0      15.59      1.753     0.3829
  150.0      15.68      2.366     0.3828
  150.0      15.79      2.672     0.3828
  150.0      15.89      2.442     0.3828
  150.0      15.98      2.595     0.5359
  150.0      16.08      2.058     0.2297
  150.0      16.20      2.670     0.4594
  150.0      16.28      2.670     0.3828
  150.0      16.38      2.976     0.4593
  150.0      16.50      2.440     0.3828
  150.0      16.59      2.593     0.3828
  150.0      16.70      1.980     0.2297
  150.0      16.80      2.133     0.3828
  150.0      16.89      1.979     0.2297
  150.0      17.00      1.979     0.4594
  150.0      17.09      1.826     0.3063
  150.0      17.19      2.208     0.4594
  150.0      17.30      1.595     0.4594
  150.0      17.40      1.595     0.3063
  150.0      17.51      1.595     0.3063
  150.0      17.60      1.365     0.4593
  150.0      17.70      1.135     0.5359
  150.0      17.79     0.7515     0.3828
  150.0      17.91      1.134     0.4594
  150.0      17.99     0.9806     0.4594
  150.0      18.09      1.286     0.3828
  150.0      18.20      1.516     0.7656
  150.0      18.30      1.133     0.5360
  150.0      18.40      1.209     0.3828
  150.0      18.49      1.285     0.3828
  150.0      18.60      1.055     0.3828
  150.0      18.70      1.055     0.4594
  150.0      18.80     0.9781     0.3063
  150.0      18.89     0.9779     0.4594
  150.0      18.98     0.9010     0.3828
ENDDATA            899
ENDSUBENT          924
SUBENT        D0113003   20040226   20040430
BIB                  5         16
REACTION   (7-N-15(P,N)8-O-15,PAR,DA)
DETECTOR   (SCIN) Two recoil scintillation counters, each
           consisting of a 10 cm diam. x 5 cm thick NE213 liquid
           scintillator on a RCA 8575 phototube were used.
METHOD     (TOF)
ERR-ANALYS (ANG-ERR-D) Digitizing error
           (ERR-DIG)    Digitizing error
           (DATA-ERR) Relative errors due to counting statistics
           and in some cases to uncertainty in the background
           subtraction.
           (DATA-ERR1) In addition, there is overall error in each
           excitation function due mainly to uncertainties in the
           determination of the detector threshold and its
           stability.
STATUS     (CURVE) fig.5 Excitation function was given as a
           function of the angle
ENDBIB              16
COMMON               3          3
ANG-ERR-D  ERR-DIG    DATA-ERR1
ADEG       MB/SR      PER-CENT
  0.5       0.04        20.
ENDCOMMON            3
DATA                 4         65
EN         ANG-CM     DATA       DATA-ERR
MEV        ADEG       MB/SR      MB/SR
  11.98      32.05      4.572     0.4438
  11.98      42.79      5.165     0.5147
  11.98      53.35      6.253     0.6211
  11.98      63.80      5.763     0.5679
  11.98      74.04      3.390     0.3369
  11.98      84.31      2.154     0.2128
  11.98      94.45      3.827     0.3728
  11.98      104.2      5.855     0.5679
  11.98      114.1      7.652     0.7452
  11.98      123.7      6.449     0.6388
  11.98      133.5      4.129     0.4078
  11.98      142.9      3.068     0.3196
  11.98      152.5      4.350     0.4433
  12.98      32.15      4.409     0.4408
  12.98      42.67      5.112     0.5113
  12.98      53.33      5.197     0.5113
  12.98      63.83      5.000     0.4940
  12.98      74.26      4.080     0.3879
  12.98      84.36      2.683     0.2648
  12.98      94.64      1.481     0.1411
  12.98      104.7      1.406     0.1590
  12.98      114.7      2.532     0.2645
  12.98      124.3      3.533     0.3526
  12.98      133.4      4.410     0.4408
  12.98      142.9      4.970     0.4761
  12.98      151.9      5.600     0.5466
  14.58      31.85      5.121     0.4945
  14.58      42.48      5.499     0.5464
  14.58      53.08      4.747     0.4582
  14.58      63.47      3.343     0.3349
  14.58      73.87      1.903     0.1939
  14.58      84.21      1.256     0.1410
  14.58      94.21      1.544     0.1939
  14.58      104.2      1.991     0.2115
  14.58      113.9      2.278     0.2473
  14.58      123.8      1.736     0.1939
  14.58      133.5      1.618     0.1586
  14.58      142.9      1.287     0.1591
  14.58      152.6      1.697     0.1757
  15.13      32.31      3.320     0.3324
  15.13      42.87      4.437     0.4372
  15.13      53.53      5.064     0.4897
  15.13      63.77      4.712     0.4722
  15.13      74.27      3.136     0.3146
  15.13      84.47      1.927     0.1926
  15.13      94.67      1.732     0.1922
  15.13      104.3      2.252     0.2447
  15.13      114.3      2.791     0.2625
  15.13      123.9      2.525     0.2622
  15.13      133.6      1.735     0.1751
  15.13      142.9      1.434     0.1573
  15.13      152.4      2.444     0.2447
  15.28      31.64      2.359     0.2094
  15.28      42.71      3.672     0.3664
  15.28      53.60      4.234     0.4188
  15.28      64.29      4.394     0.4363
  15.28      74.63      2.897     0.2793
  15.28      84.95      1.574     0.1745
  15.28      95.22      1.211     0.1222
  15.28      105.2      1.738     0.1744
  15.28      115.2      2.370     0.2442
  15.28      124.8      2.390     0.2268
  15.28      134.2      1.765     0.1920
  15.28      143.1      1.384     0.1571
  15.28      152.2      2.260     0.2269
ENDDATA             67
ENDSUBENT           92
SUBENT        D0113004   20040226   20040430
BIB                  5         15
REACTION   (7-N-15(P,N)8-O-15,PAR,SIG)
DETECTOR   (SCIN) Two recoil scintillation counters, each
           consisting of a 10 cm diam. x 5 cm thick NE213 liquid
           scintillator on a RCA 8575 phototube were used.
METHOD     (TOF)
ERR-ANALYS (EN-ERR-DIG) Digitizing error
           (ERR-DIG)    Digitizing error
           (DATA-ERR) Relative errors due to counting statistics
           and in some cases to uncertainty in the background
           subtraction.
           (DATA-ERR1) In addition, there is overall error in each
           excitation function due mainly to uncertainties in the
           determination of the detector threshold and its
           stability.
STATUS     (CURVE) fig.6
ENDBIB              15
COMMON               3          3
EN-ERR-DIG ERR-DIG    DATA-ERR1
MEV        MB         PER-CENT
  0.04      1.          20.
ENDCOMMON            3
DATA                 3        106
EN         DATA       DATA-ERR
MEV        MB         MB
  8.529      63.83      2.382
  8.626      62.17      2.144
  8.721      62.90      2.382
  8.835      78.17      2.860
  8.942      113.0      3.575
  9.035      88.20      3.098
  9.126      72.02      2.618
  9.207      48.92      1.667
  9.316      45.84      1.906
  9.441      63.49      2.618
  9.515      59.45      2.144
  9.588      55.41      2.144
  9.701      43.28      1.906
  9.796      45.20      1.669
  9.905      42.12      1.667
  10.02      37.85      1.667
  10.09      37.62      1.429
  10.22      37.65      1.429
  10.31      42.42      1.667
  10.40      42.44      1.906
  10.51      52.70      1.904
  10.61      56.05      2.144
  10.70      56.54      2.144
  10.81      55.84      2.144
  10.91      56.81      1.906
  10.98      55.39      1.431
  11.09      50.17      1.667
  11.21      39.94      1.427
  11.30      35.43      1.429
  11.41      37.11      1.427
  11.49      40.94      1.191
  11.61      41.91      1.189
  11.70      50.02      1.669
  11.81      57.66      2.144
  11.91      62.44      2.382
  12.00      61.26      1.191
  12.10      54.61      1.906
  12.20      51.77      1.191
  12.30      50.11      1.667
  12.41      49.18      1.427
  12.52      52.29      1.666
  12.60      49.21      1.906
  12.69      48.98      2.382
  12.78      45.90      2.145
  12.89      45.92      1.667
  13.01      43.79      1.191
  13.08      43.09      1.667
  13.18      34.53      1.667
  13.29      30.73      1.429
  13.40      27.89      1.189
  13.50      31.00     0.9528
  13.58      31.25      1.191
  13.69      31.27     0.9528
  13.78      31.28     0.9546
  13.87      28.44     0.9528
  13.97      28.45     0.9528
  14.10      30.86     0.9509
  14.17      31.34      1.191
  14.29      33.51      1.191
  14.40      31.14     0.9528
  14.47      31.63     0.9528
  14.61      29.74     0.9528
  14.70      29.28     0.9528
  14.79      28.82      1.191
  14.90      32.41     0.9528
  15.00      33.61      1.191
  15.10      35.06      1.427
  15.19      34.12      1.429
  15.30      31.04     0.9528
  15.38      27.72      1.431
  15.49      23.21      1.191
  15.59      23.22     0.9528
  15.67      21.81      1.193
  15.78      21.35     0.9546
  15.88      21.12     0.9528
  15.98      23.28      1.189
  16.09      19.97      1.427
  16.18      23.08      1.191
  16.28      21.90     0.9528
  16.38      22.39     0.9528
  16.47      19.78      1.191
  16.58      23.61      1.191
  16.69      19.34      1.189
  16.79      21.98      1.666
  16.89      19.61      1.666
  16.98      22.72      2.860
  17.08      18.45      1.667
  17.17      20.85      2.382
  17.29      19.44      1.666
  17.38      21.12      1.906
  17.47      19.23      1.906
  17.57      16.86      1.906
  17.68      17.35      1.904
  17.80      16.18      1.429
  17.88      14.76      1.193
  17.98      15.73      2.382
  18.09      16.94      2.144
  18.18      17.67      2.382
  18.28      18.16      2.620
  18.40      19.13      3.095
  18.49      17.00      1.906
  18.60      18.45      2.618
  18.67      14.17      2.145
  18.80      15.38      2.382
  18.89      15.87      2.620
  19.00      14.93      1.669
ENDDATA            108
ENDSUBENT          132
SUBENT        D0113005   20040226   20040430
BIB                  5         15
REACTION  1(7-N-15(P,N)8-O-15,PAR,SIG)
          2(7-N-15(P,N)8-O-15,PAR,SIG)
DETECTOR  1(NAICR) For activation measurements a 7.5 cm in diam.
           x 7.5 cm thich NaI(Tl) detector was used for detecting
           0.511 MeV gamma-rays from positron decay of 15O.
          2(SCIN) For time-of-flight measurements two recoil
           scintillation counters, each consisting of a 10 cm
           diam. x 5 cm thick NE213 liquid  scintillator on a
           RCA 8575 phototube were used.
METHOD    1(ACTIV)
          2(TOF)
ERR-ANALYS (DATA-ERR) The errors arise mainly in the determination
           of the detector efficiency and correction for
           absorption.
STATUS     (TABLE) Table 1
ENDBIB              15
NOCOMMON             0          0
DATA                 5          4
EN         DATA      1DATA-ERR  1DATA      2DATA-ERR  2
MEV        MB         MB         MB         MB
  5.750      101.0      8.000
  6.450      182.0      14.00
  8.500      68.00      6.000      64.00      13.00
  8.600      59.00      5.000      62.00      13.00
ENDDATA              6
ENDSUBENT           26
SUBENT        D0113006   20040215   20040430
BIB                  4          7
REACTION  1(7-N-15(P,N),PAR,WID)
          2(7-N-15(P,N),PAR,SIG,,RES)
DETECTOR   (SCIN) Two recoil scintillation counters, each
           consisting of a 10 cm diam. x 5 cm thick NE213 liquid
           scintillator on a RCA 8575 phototube were used.
METHOD     (TOF)
STATUS     (TABLE) Table 2
ENDBIB               7
NOCOMMON             0          0
DATA                 7         10
EN-RES     EN-RES-ERR DATA      1DATA-ERR  1DATA-APRX 1DATA      2
DATA-ERR  2
MEV        MEV        KEV        KEV        KEV        MB
MB
   8.88      0.04       200.        50.                   85.
  27.
   9.08      0.04       130.        50.                   44.
  14.
   9.42      0.10       235.        45.                   29.
   9.
  10.73      0.10       800.        95.                   23.
   7.
  11.01      0.10       300.       100.

  11.92      0.10       520.       200.                   32.
   8.
  13.03      0.10       520.       100.

  13.63      0.10                              280.       8.0
   3.4
  15.12      0.10       610.       140.                  13.0
   3.6
  18.4       0.20       470.       150.                   6.0
   2.8
ENDDATA             24
ENDSUBENT           36
ENDENTRY             6
