ENTRY            D0130   20120201   20120328   20120314       D081
SUBENT        D0130001   20120201   20120328   20120314       D081
BIB                  9         17
TITLE      The isobaric analog pair 57Fe and 57Co
AUTHOR     (H.Brandle, W.R.Wylie, F.Zamboni, W.Zych)
INSTITUTE  (2SWTZUR)
REFERENCE  (J,NP/A,151,211,1970)
FACILITY   (VDG,2SWTZUR)
SAMPLE     (26-FE-56,NAT=0.9869)
            Natural iron self-supporting foils approximately
             40 ug/cm2 thick, made by evaporating techniques.
            In one measurement a natural iron foil about 4 ug/cm2
             thick evaporated on a supporting carbon backing
             approximately 6 ug/cm2 thick was used.
DETECTOR   (NAICR) 7.6 cm x 7.6 cm NaI(Tl) and
           (SIBAR) Silicon surface-barrier detectors placed
            at 9., 124.9, 150.3, 164.5 deg.
ERR-ANALYS No information on uncertainties given
HISTORY    (20040228C) SD
           (20120201U) On. SAMPLE updated (coded info. added)
ENDBIB              17
NOCOMMON             0          0
ENDSUBENT           20
SUBENT        D0130002   20120201   20120328   20120314       D081
BIB                  4          5
REACTION   (26-FE-56(P,G)27-CO-57,PAR,DA)
ERR-ANALYS (EN-ERR-DIG) Digitizing error
           (ERR-DIG)    Digitizing error
STATUS     (CURVE) Fig.2 of Nucl.Phys.A151(1970)211
HISTORY    (20120201A) On. SF5=PAR and E-LVL=0 MeV added
ENDBIB               5
COMMON               3          3
E-LVL      EN-ERR-DIG ERR-DIG
MEV        MEV        MB/SR
 0.         0.0005     0.1
ENDCOMMON            3
DATA                 3         27
ANG        EN         DATA
ADEG       MEV        MB/SR
 124.9      1.2410     952.7
 124.9      1.2427     952.5
 124.9      1.2445     941.7
 124.9      1.2462     938.1
 124.9      1.2480     932.6
 124.9      1.2497     946.2
 124.9      1.2515     938.9
 124.9      1.2531     924.2
 124.9      1.2549     922.7
 124.9      1.2567     909.4
 138.2      1.2410     765.9
 138.2      1.2428     765.2
 138.2      1.2445     755.3
 138.2      1.2462     753.1
 138.2      1.2480     751.7
 138.2      1.2497     767.6
 138.2      1.2514     752.7
 138.2      1.2532     741.4
 138.2      1.2549     737.9
 164.5      1.2409     608.8
 164.5      1.2427     607.8
 164.5      1.2444     601.2
 164.5      1.2462     594.0
 164.5      1.2479     596.0
 164.5      1.2496     607.0
 164.5      1.2514     598.3
 164.5      1.2532     588.9
ENDDATA             29
ENDSUBENT           43
SUBENT        D0130003   20040228   20040430   20050926       0000
BIB                  3          4
REACTION   (26-FE-56(P,EL)26-FE-56,,DA)
ERR-ANALYS (EN-ERR-DIG) Digitizing error
           (ERR-DIG)    Digitizing error
STATUS     (CURVE) fig.3
ENDBIB               4
COMMON               2          3
EN-ERR-DIG ERR-DIG
MEV        MB/SR
 0.007       0.5
ENDCOMMON            3
DATA                 3        786
ANG        EN         DATA
ADEG       MEV        MB/SR
 90.000     3.6844     251.27
 90.000     3.6882     240.50
 90.000     3.6909     229.72
 90.000     3.6940     229.14
 90.000     3.6980     238.13
 90.000     3.6995     242.62
 90.000     3.7021     245.21
 90.000     3.7042     241.43
 90.000     3.7074     231.93
 90.000     3.7101     224.33
 90.000     3.7132     222.47
 90.000     3.7170     210.44
 90.000     3.7192     195.18
 90.000     3.7224     191.42
 90.000     3.7264     200.41
 90.000     3.7290     201.73
 90.000     3.7323     229.18
 90.000     3.7358     237.53
 90.000     3.7389     238.86
 90.000     3.7420     237.64
 90.000     3.7452     232.60
 90.000     3.7484     226.28
 90.000     3.7515     223.79
 90.000     3.7541     225.75
 90.000     3.7582     228.37
 90.000     3.7618     231.62
 90.000     3.7649     232.31
 90.000     3.7681     226.63
 90.000     3.7712     220.95
 90.000     3.7748     223.57
 90.000     3.7782     244.01
 90.000     3.7820     276.57
 90.000     3.7848     303.38
 90.000     3.7889     305.36
 90.000     3.7912     279.92
 90.000     3.7942     248.76
 90.000     3.7970     232.88
 90.000     3.8006     234.22
 90.000     3.8037     233.00
 90.000     3.8074     224.15
 90.000     3.8107     207.00
 90.000     3.8136     187.30
 90.000     3.8152     180.32
 90.000     3.8168     175.26
 90.000     3.8203     187.42
 90.000     3.8231     208.50
 90.000     3.8271     227.68
 90.000     3.8296     234.10
 90.000     3.8338     227.80
 90.000     3.8354     223.37
 90.000     3.8370     220.21
 90.000     3.8391     218.97
 90.000     3.8431     224.78
 90.000     3.8457     226.74
 90.000     3.8499     221.08
 90.000     3.8526     213.48
 90.000     3.8559     196.97
 90.000     3.8592     182.38
 90.000     3.8623     184.34
 90.000     3.8652     199.05
 90.000     3.8686     218.22
 90.000     3.8716     230.38
 90.000     3.8751     237.45
 90.000     3.8782     240.05
 90.000     3.8823     236.94
 90.000     3.8845     233.80
 90.000     3.8881     228.76
 90.000     3.8913     223.09
 90.000     3.8934     219.30
 90.000     3.8975     223.20
 90.000     3.9011     230.27
 90.000     3.9036     236.68
 90.000     3.9072     236.11
 90.000     3.9104     229.16
 90.000     3.9136     221.57
 90.000     3.9167     217.17
 90.000     3.9193     217.85
 90.000     3.9225     214.08
 90.000     3.9256     208.41
 90.000     3.9298     211.66
 90.000     3.9328     216.18
 90.000     3.9364     221.34
 90.000     3.9400     224.59
 90.000     3.9425     229.09
 90.000     3.9455     233.61
 90.000     3.9486     234.30
 90.000     3.9528     235.01
 90.000     3.9553     238.88
 90.000     3.9584     242.12
 90.000     3.9620     244.73
 90.000     3.9647     237.13
 90.000     3.9679     223.81
 90.000     3.9706     215.57
 90.000     3.9742     216.91
 90.000     3.9757     221.40
 90.000     3.9772     225.25
 90.000     3.9813     229.78
 90.000     3.9844     232.38
 90.000     3.9870     228.61
 90.000     3.9902     224.84
 90.000     3.9938     224.27
 90.000     3.9964     222.40
 90.000     4.0006     220.57
 90.000     4.0032     219.98
 90.000     4.0068     215.58
 90.000     4.0099     217.55
 90.000     4.0131     215.05
 90.000     4.0156     215.74
 90.000     4.0187     215.79
 90.000     4.0224     215.86
 90.000     4.0234     213.33
 90.000     4.0250     210.17
 90.000     4.0266     206.38
 90.000     4.0292     203.24
 90.000     4.0318     202.01
 90.000     4.0349     207.80
 90.000     4.0385     211.05
 90.000     4.0426     211.76
 90.000     4.0457     209.26
 90.000     4.0489     204.22
 90.000     4.0521     200.46
 90.000     4.0552     197.33
 90.000     4.0583     196.74
 90.000     4.0615     193.62
 90.000     4.0625     189.81
 90.000     4.0647     186.03
 90.000     4.0678     180.35
 90.000     4.0719     184.88
 90.000     4.0719     189.98
 90.000     4.0739     193.84
 90.000     4.0749     197.04
 90.000     4.0764     200.25
 90.000     4.0805     200.96
 90.000     4.0841     202.94
 90.000     4.0878     199.82
 90.000     4.0899     196.03
 90.000     4.0936     190.36
 90.000     4.0972     191.06
 90.000     4.1003     188.57
 90.000     4.1028     199.45
 90.000     4.1068     207.80
 90.000     4.1099     210.40
 90.000     4.1125     207.90
 90.000     4.1162     206.69
 90.000     4.1193     207.38
 90.000     4.1229     205.54
 90.000     4.1261     200.50
 90.000     4.1298     191.01
 90.000     4.1325     180.22
 90.000     4.1353     169.44
 90.000     4.1389     168.23
 90.000     4.1430     171.49
 90.000     4.1455     176.63
 90.000     4.1490     186.25
 90.000     4.1525     199.05
 90.000     4.1555     209.30
 90.000     4.1585     214.45
 90.000     4.1621     215.79
 90.000     4.1663     212.68
 90.000     4.1690     207.63
 90.000     4.1717     199.39
 90.000     4.1748     192.44
 90.000     4.1790     187.42
 90.000     4.1850     167.14
 90.000     4.1883     149.36
 90.000     4.1911     134.76
 90.000     4.1943     123.98
 90.000     4.1979     122.14
 90.000     4.2010     126.01
 90.000     4.2030     130.51
 90.000     4.2039     138.81
 90.000     4.2049     144.56
 90.000     4.2059     152.22
 90.000     4.2068     157.97
 90.000     4.2078     163.08
 90.000     4.2102     175.87
 90.000     4.2137     189.31
 90.000     4.2172     196.38
 90.000     4.2203     199.62
 90.000     4.2240     195.23
 90.000     4.2267     188.90
 90.000     4.2303     186.42
 90.000     4.2339     190.94
 90.000     4.2364     192.90
 90.000     4.2396     192.95
 90.000     4.2432     194.93
 90.000     4.2462     198.17
 90.000     4.2498     200.78
 90.000     4.2529     200.84
 90.000     4.2561     197.71
 90.000     4.2592     191.39
 90.000     4.2603     186.95
 90.000     4.2625     182.53
 90.000     4.2652     173.02
 90.000     4.2684     160.98
 90.000     4.2721     154.67
 90.000     4.2751     161.09
 90.000     4.2781     175.16
 90.000     4.2810     186.05
 90.000     4.2851     190.58
 90.000     4.2882     192.54
 90.000     4.2919     189.42
 90.000     4.2950     185.66
 90.000     4.2981     186.99
 90.000     4.3018     186.41
 90.000     4.3033     184.53
 124.90     3.6895     85.773
 124.90     3.6939     95.019
 124.90     3.6974     101.72
 124.90     3.6995     101.10
 124.90     3.7038     94.788
 124.90     3.7070     90.690
 124.90     3.7102     87.226
 124.90     3.7133     84.397
 124.90     3.7160     81.246
 124.90     3.7196     84.135
 124.90     3.7229     95.593
 124.90     3.7257     108.00
 124.90     3.7292     112.79
 124.90     3.7324     110.28
 124.90     3.7361     105.23
 124.90     3.7393     101.45
 124.90     3.7425     97.354
 124.90     3.7452     95.790
 124.90     3.7478     94.543
 124.90     3.7514     93.623
 124.90     3.7545     93.968
 124.90     3.7576     93.361
 124.90     3.7613     91.806
 124.90     3.7650     89.617
 124.90     3.7676     87.418
 124.90     3.7707     87.128
 124.90     3.7743     89.382
 124.90     3.7773     92.900
 124.90     3.7808     98.645
 124.90     3.7848     103.44
 124.90     3.7869     103.14
 124.90     3.7906     99.050
 124.90     3.7943     96.860
 124.90     3.7969     96.566
 124.90     3.8006     92.472
 124.90     3.8034     83.926
 124.90     3.8068     74.749
 124.90     3.8100     67.477
 124.90     3.8136     70.365
 124.90     3.8169     84.997
 124.90     3.8201     102.80
 124.90     3.8235     112.04
 124.90     3.8266     110.80
 124.90     3.8299     101.94
 124.90     3.8327     92.756
 124.90     3.8354     87.701
 124.90     3.8395     89.325
 124.90     3.8426     89.987
 124.90     3.8458     86.523
 124.90     3.8496     81.477
 124.90     3.8523     74.518
 124.90     3.8555     69.467
 124.90     3.8591     72.673
 124.90     3.8619     84.444
 124.90     3.8658     95.589
 124.90     3.8698     100.39
 124.90     3.8725     97.235
 124.90     3.8746     94.080
 124.90     3.8783     91.890
 124.90     3.8820     90.018
 124.90     3.8846     88.137
 124.90     3.8878     84.990
 124.90     3.8915     81.214
 124.90     3.8941     80.919
 124.90     3.8977     82.221
 124.90     3.9013     80.983
 124.90     3.9035     78.463
 124.90     3.9066     76.269
 124.90     3.9108     75.353
 124.90     3.9139     77.285
 124.90     3.9169     80.804
 124.90     3.9199     82.735
 124.90     3.9226     81.489
 124.90     3.9267     81.208
 124.90     3.9297     84.409
 124.90     3.9322     89.828
 124.90     3.9362     93.673
 124.90     3.9399     94.340
 124.90     3.9425     90.872
 124.90     3.9441     88.981
 124.90     3.9462     86.778
 124.90     3.9490     81.088
 124.90     3.9517     75.398
 124.90     3.9549     70.347
 124.90     3.9586     65.936
 124.90     3.9613     60.881
 124.90     3.9650     58.691
 124.90     3.9685     62.849
 124.90     3.9714     73.668
 124.90     3.9748     84.808
 124.90     3.9777     90.231
 124.90     3.9814     90.581
 124.90     3.9850     89.026
 124.90     3.9876     87.145
 124.90     3.9908     86.220
 124.90     3.9944     84.982
 124.90     3.9975     84.693
 124.90     4.0012     85.042
 124.90     4.0037     85.700
 124.90     4.0068     86.679
 124.90     4.0094     86.385
 124.90     4.0131     85.148
 124.90     4.0157     83.266
 124.90     4.0189     81.072
 124.90     4.0220     77.608
 124.90     4.0252     74.145
 124.90     4.0283     74.490
 124.90     4.0324     78.652
 124.90     4.0349     81.849
 124.90     4.0385     82.516
 124.90     4.0422     80.644
 124.90     4.0448     76.541
 124.90     4.0480     73.712
 124.90     4.0506     72.782
 124.90     4.0542     73.132
 124.90     4.0579     73.799
 124.90     4.0615     72.244
 124.90     4.0641     73.536
 124.90     4.0670     80.229
 124.90     4.0705     87.878
 124.90     4.0745     90.771
 124.90     4.0767     87.933
 124.90     4.0804     84.474
 124.90     4.0840     82.602
 124.90     4.0872     80.408
 124.90     4.0903     81.070
 124.90     4.0934     80.780
 124.90     4.0966     78.269
 124.90     4.1002     77.666
 124.90     4.1033     79.280
 124.90     4.1074     80.904
 124.90     4.1100     79.340
 124.90     4.1132     74.289
 124.90     4.1170     69.243
 124.90     4.1191     65.770
 124.90     4.1212     64.202
 124.90     4.1233     63.268
 124.90     4.1265     60.757
 124.90     4.1302     57.932
 124.90     4.1328     57.955
 124.90     4.1357     64.013
 124.90     4.1391     73.249
 124.90     4.1426     80.581
 124.90     4.1441     82.816
 124.90     4.1456     85.686
 124.90     4.1471     87.287
 124.90     4.1491     89.210
 124.90     4.1527     89.559
 124.90     4.1538     87.347
 124.90     4.1554     85.456
 124.90     4.1586     80.406
 124.90     4.1619     75.038
 124.90     4.1656     70.309
 124.90     4.1688     65.576
 124.90     4.1699     63.363
 124.90     4.1710     61.786
 124.90     4.1746     60.548
 124.90     4.1778     58.354
 124.90     4.1810     53.303
 124.90     4.1837     48.248
 124.90     4.1884     47.020
 124.90     4.1914     52.760
 124.90     4.1942     63.579
 124.90     4.1975     77.258
 124.90     4.2014     90.625
 124.90     4.2042     100.49
 124.90     4.2087     107.83
 124.90     4.2118     109.13
 124.90     4.2150     105.67
 124.90     4.2182     100.61
 124.90     4.2204     93.968
 124.90     4.2247     88.610
 124.90     4.2283     88.959
 124.90     4.2309     91.521
 124.90     4.2344     94.727
 124.90     4.2370     94.115
 124.90     4.2402     91.286
 124.90     4.2439     88.144
 124.90     4.2471     84.046
 124.90     4.2503     80.265
 124.90     4.2540     76.806
 124.90     4.2566     74.290
 124.90     4.2593     71.456
 124.90     4.2625     67.358
 124.90     4.2657     63.259
 124.90     4.2698     63.296
 124.90     4.2722     71.888
 124.90     4.2755     84.615
 124.90     4.2795     91.635
 124.90     4.2821     90.705
 124.90     4.2859     85.977
 124.90     4.2881     80.917
 124.90     4.2923     78.097
 124.90     4.2959     79.081
 124.90     4.2995     80.066
 124.90     4.3021     80.089
 124.90     4.3047     78.842
 150.30     3.6870     62.893
 150.30     3.6899     68.951
 150.30     3.6933     76.917
 150.30     3.6964     80.754
 150.30     3.6995     79.830
 150.30     3.7027     75.097
 150.30     3.7054     71.312
 150.30     3.7093     60.238
 150.30     3.7114     59.304
 150.30     3.7140     58.376
 150.30     3.7177     74.598
 150.30     3.7216     86.378
 150.30     3.7255     95.936
 150.30     3.7286     96.916
 150.30     3.7318     90.914
 150.30     3.7346     84.273
 150.30     3.7378     80.493
 150.30     3.7404     79.247
 150.30     3.7445     80.554
 150.30     3.7476     81.217
 150.30     3.7502     80.605
 150.30     3.7539     78.417
 150.30     3.7571     75.588
 150.30     3.7608     72.130
 150.30     3.7634     68.345
 150.30     3.7665     68.373
 150.30     3.7696     71.575
 150.30     3.7726     73.190
 150.30     3.7758     69.410
 150.30     3.7790     67.534
 150.30     3.7826     68.836
 150.30     3.7861     71.407
 150.30     3.7892     73.340
 150.30     3.7928     73.690
 150.30     3.7960     70.544
 150.30     3.7993     63.590
 150.30     3.8026     55.685
 150.30     3.8048     47.769
 150.30     3.8085     45.581
 150.30     3.8124     54.504
 150.30     3.8157     70.722
 150.30     3.8190     84.401
 150.30     3.8225     86.338
 150.30     3.8258     80.654
 150.30     3.8286     72.108
 150.30     3.8324     65.477
 150.30     3.8350     62.961
 150.30     3.8391     65.220
 150.30     3.8417     64.926
 150.30     3.8449     61.781
 150.30     3.8486     59.275
 150.30     3.8518     54.860
 150.30     3.8544     53.296
 150.30     3.8579     59.041
 150.30     3.8612     69.864
 150.30     3.8647     77.831
 150.30     3.8678     78.494
 150.30     3.8715     74.401
 150.30     3.8742     70.299
 150.30     3.8768     68.100
 150.30     3.8810     68.138
 150.30     3.8841     65.944
 150.30     3.8873     63.751
 150.30     3.8910     60.928
 150.30     3.8936     59.047
 150.30     3.8972     58.127
 150.30     3.8999     56.564
 150.30     3.9030     55.323
 150.30     3.9066     56.942
 150.30     3.9091     59.187
 150.30     3.9127     62.711
 150.30     3.9157     67.182
 150.30     3.9193     67.215
 150.30     3.9219     64.382
 150.30     3.9251     62.823
 150.30     3.9287     64.760
 150.30     3.9316     70.500
 150.30     3.9352     74.976
 150.30     3.9383     71.831
 150.30     3.9421     65.199
 150.30     3.9449     57.923
 150.30     3.9482     50.652
 150.30     3.9515     43.064
 150.30     3.9542     38.009
 150.30     3.9579     33.916
 150.30     3.9610     33.310
 150.30     3.9645     39.372
 150.30     3.9667     52.725
 150.30     3.9710     68.952
 150.30     3.9738     80.722
 150.30     3.9769     84.558
 150.30     3.9805     83.004
 150.30     3.9842     81.133
 150.30     3.9868     80.522
 150.30     3.9904     79.285
 150.30     3.9936     77.409
 150.30     3.9967     76.168
 150.30     3.9993     76.508
 150.30     4.0029     77.176
 150.30     4.0055     77.199
 150.30     4.0097     76.919
 150.30     4.0144     73.153
 150.30     4.0186     69.065
 150.30     4.0218     64.967
 150.30     4.0250     62.457
 150.30     4.0286     64.393
 150.30     4.0316     68.230
 150.30     4.0352     71.119
 150.30     4.0377     71.142
 150.30     4.0414     68.636
 150.30     4.0441     66.755
 150.30     4.0477     66.471
 150.30     4.0508     65.547
 150.30     4.0544     65.579
 150.30     4.0576     65.607
 150.30     4.0612     65.323
 150.30     4.0637     67.568
 150.30     4.0666     74.895
 150.30     4.0701     82.544
 150.30     4.0732     83.842
 150.30     4.0774     79.119
 150.30     4.0801     75.334
 150.30     4.0832     73.775
 150.30     4.0874     74.765
 150.30     4.0905     73.523
 150.30     4.0932     70.373
 150.30     4.0964     66.276
 150.30     4.1001     63.135
 150.30     4.1031     65.067
 150.30     4.1072     66.374
 150.30     4.1099     62.906
 150.30     4.1131     57.857
 150.30     4.1158     53.437
 150.30     4.1195     51.248
 150.30     4.1226     50.324
 150.30     4.1257     50.035
 150.30     4.1289     49.428
 150.30     4.1324     52.635
 150.30     4.1353     61.231
 150.30     4.1387     71.420
 150.30     4.1422     76.213
 150.30     4.1458     77.515
 150.30     4.1489     77.226
 150.30     4.1516     73.441
 150.30     4.1548     68.074
 150.30     4.1586     63.029
 150.30     4.1618     59.566
 150.30     4.1650     55.786
 150.30     4.1686     52.962
 150.30     4.1707     52.664
 150.30     4.1749     53.018
 150.30     4.1780     51.460
 150.30     4.1807     47.675
 150.30     4.1838     45.164
 150.30     4.1879     47.740
 150.30     4.1913     56.342
 150.30     4.1946     70.021
 150.30     4.1979     84.017
 150.30     4.2007     96.105
 150.30     4.2042     101.22
 150.30     4.2073     101.88
 150.30     4.2109     104.77
 150.30     4.2143     113.05
 150.30     4.2178     116.57
 150.30     4.2213     103.27
 150.30     4.2238     85.520
 150.30     4.2270     79.519
 150.30     4.2306     81.773
 150.30     4.2341     85.297
 150.30     4.2367     85.320
 150.30     4.2383     83.430
 150.30     4.2405     80.592
 150.30     4.2427     72.995
 150.30     4.2465     67.950
 150.30     4.2491     65.117
 150.30     4.2528     64.515
 150.30     4.2564     64.230
 150.30     4.2595     63.306
 150.30     4.2627     61.113
 150.30     4.2659     57.650
 150.30     4.2694     59.587
 150.30     4.2723     71.357
 150.30     4.2756     82.815
 150.30     4.2786     86.968
 150.30     4.2823     83.193
 150.30     4.2856     75.922
 150.30     4.2883     70.867
 150.30     4.2920     68.361
 150.30     4.2951     70.611
 150.30     4.2986     72.230
 150.30     4.3012     72.571
 150.30     4.3043     72.282
 164.50     3.6865     61.564
 164.50     3.6894     68.320
 164.50     3.6934     76.369
 164.50     3.6969     80.247
 164.50     3.6996     76.746
 164.50     3.7028     72.930
 164.50     3.7065     69.119
 164.50     3.7091     67.221
 164.50     3.7123     66.929
 164.50     3.7148     68.875
 164.50     3.7183     75.957
 164.50     3.7221     88.491
 164.50     3.7260     97.500
 164.50     3.7286     96.883
 164.50     3.7319     89.543
 164.50     3.7352     81.882
 164.50     3.7379     77.741
 164.50     3.7410     77.770
 164.50     3.7446     79.726
 164.50     3.7476     80.716
 164.50     3.7513     80.429
 164.50     3.7549     79.181
 164.50     3.7581     76.326
 164.50     3.7608     71.544
 164.50     3.7640     67.728
 164.50     3.7666     67.432
 164.50     3.7706     72.916
 164.50     3.7721     75.174
 164.50     3.7731     77.105
 164.50     3.7768     72.654
 164.50     3.7790     70.430
 164.50     3.7800     68.517
 164.50     3.7826     68.221
 164.50     3.7862     69.856
 164.50     3.7893     71.487
 164.50     3.7929     72.481
 164.50     3.7966     68.350
 164.50     3.7994     61.325
 164.50     3.8022     52.699
 164.50     3.8049     46.315
 164.50     3.8085     45.707
 164.50     3.8119     56.634
 164.50     3.8151     73.969
 164.50     3.8190     86.502
 164.50     3.8226     87.497
 164.50     3.8258     80.477
 164.50     3.8292     71.215
 164.50     3.8324     63.874
 164.50     3.8351     61.655
 164.50     3.8392     62.975
 164.50     3.8423     61.402
 164.50     3.8455     57.266
 164.50     3.8477     53.120
 164.50     3.8509     49.624
 164.50     3.8540     49.653
 164.50     3.8575     57.055
 164.50     3.8613     68.307
 164.50     3.8653     75.394
 164.50     3.8679     74.777
 164.50     3.8706     69.995
 164.50     3.8738     65.859
 164.50     3.8775     63.329
 164.50     3.8806     63.038
 164.50     3.8837     62.426
 164.50     3.8874     60.216
 164.50     3.8906     58.002
 164.50     3.8937     56.109
 164.50     3.8969     53.895
 164.50     3.9000     52.001
 164.50     3.9031     52.030
 164.50     3.9062     54.301
 164.50     3.9097     57.859
 164.50     3.9133     61.096
 164.50     3.9163     64.649
 164.50     3.9194     64.678
 164.50     3.9226     60.862
 164.50     3.9253     57.682
 164.50     3.9288     61.240
 164.50     3.9318     67.036
 164.50     3.9358     69.317
 164.50     3.9384     69.020
 164.50     3.9412     60.394
 164.50     3.9451     50.495
 164.50     3.9484     42.194
 164.50     3.9511     36.451
 164.50     3.9544     30.712
 164.50     3.9571     26.891
 164.50     3.9607     27.566
 164.50     3.9636     35.284
 164.50     3.9669     49.094
 164.50     3.9700     68.031
 164.50     3.9779     84.768
 164.50     3.9805     84.471
 164.50     3.9847     82.267
 164.50     3.9868     80.684
 164.50     3.9900     78.149
 164.50     3.9932     75.935
 164.50     3.9968     75.008
 164.50     3.9994     75.032
 164.50     4.0030     76.026
 164.50     4.0066     76.060
 164.50     4.0097     74.807
 164.50     4.0124     73.229
 164.50     4.0166     71.345
 164.50     4.0187     68.160
 164.50     4.0224     64.349
 164.50     4.0256     61.494
 164.50     4.0282     62.479
 164.50     4.0322     66.362
 164.50     4.0357     69.920
 164.50     4.0378     69.939
 164.50     4.0420     66.773
 164.50     4.0452     64.559
 164.50     4.0478     64.263
 164.50     4.0514     64.297
 164.50     4.0545     63.684
 164.50     4.0571     63.708
 164.50     4.0607     63.742
 164.50     4.0643     66.338
 164.50     4.0672     74.697
 164.50     4.0712     82.745
 164.50     4.0743     82.774
 164.50     4.0770     77.992
 164.50     4.0838     72.608
 164.50     4.0869     73.277
 164.50     4.0906     72.029
 164.50     4.0933     68.208
 164.50     4.0965     64.392
 164.50     4.1002     61.222
 164.50     4.1032     61.571
 164.50     4.1074     62.571
 164.50     4.1100     59.391
 164.50     4.1138     54.298
 164.50     4.1165     49.836
 164.50     4.1191     47.618
 164.50     4.1228     47.010
 164.50     4.1264     47.044
 164.50     4.1295     48.034
 164.50     4.1325     51.907
 164.50     4.1359     60.911
 164.50     4.1393     70.877
 164.50     4.1453     76.061
 164.50     4.1490     75.133
 164.50     4.1522     70.036
 164.50     4.1555     63.977
 164.50     4.1592     58.564
 164.50     4.1619     54.743
 164.50     4.1656     52.534
 164.50     4.1687     50.640
 164.50     4.1719     50.348
 164.50     4.1754     51.663
 164.50     4.1781     50.406
 164.50     4.1813     46.590
 164.50     4.1839     43.410
 164.50     4.1875     46.968
 164.50     4.1914     56.938
 164.50     4.1946     71.389
 164.50     4.1979     85.840
 164.50     4.2013     95.806
 164.50     4.2048     99.364
 164.50     4.2080     96.188
 164.50     4.2112     91.732
 164.50     4.2150     87.280
 164.50     4.2171     83.134
 164.50     4.2209     78.041
 164.50     4.2241     74.545
 164.50     4.2271     75.856
 164.50     4.2302     79.729
 164.50     4.2337     83.607
 164.50     4.2373     83.000
 164.50     4.2406     77.582
 164.50     4.2434     69.596
 164.50     4.2466     63.537
 164.50     4.2498     60.683
 164.50     4.2534     60.075
 164.50     4.2560     59.779
 164.50     4.2596     59.812
 164.50     4.2633     58.564
 164.50     4.2659     55.705
 164.50     4.2690     59.578
 164.50     4.2728     71.151
 164.50     4.2751     82.388
 164.50     4.2792     86.271
 164.50     4.2824     82.135
 164.50     4.2862     75.120
 164.50     4.2889     69.697
 164.50     4.2921     67.483
 164.50     4.2951     68.793
 164.50     4.2982     69.783
 164.50     4.3013     69.812
 164.50     4.3039     69.515
ENDDATA            788
ENDSUBENT          801
SUBENT        D0130004   20040228   20040430   20050926       0000
BIB                  3          4
REACTION   (26-FE-56(P,EL)26-FE-56,,DA)
ERR-ANALYS (EN-ERR-DIG) Digitizing error
           (ERR-DIG)    Digitizing error
STATUS     (CURVE) fig.7
ENDBIB               4
COMMON               2          3
EN-ERR-DIG ERR-DIG
MEV        MB/SR
 0.001       0.1
ENDCOMMON            3
DATA                 3         99
ANG        EN         DATA
ADEG       MEV        MB/SR
 90.000     3.7969     243.35
 90.000     3.8000     242.27
 90.000     3.8030     238.16
 90.000     3.8061     216.06
 90.000     3.8092     194.24
 90.000     3.8123     183.78
 90.000     3.8163     195.10
 90.000     3.8194     218.07
 90.000     3.8224     237.07
 90.000     3.8257     243.09
 90.000     3.8378     225.07
 90.000     3.8408     227.03
 90.000     3.8438     223.28
 90.000     3.8474     213.62
 90.000     3.8508     197.21
 90.000     3.8538     182.80
 90.000     3.8568     184.28
 90.000     3.8598     200.62
 90.000     3.8628     219.25
 90.000     3.8663     231.96
 90.000     3.8698     238.49
 90.000     4.1192     186.12
 90.000     4.1228     182.02
 90.000     4.1264     173.86
 90.000     4.1299     162.88
 90.000     4.1329     154.36
 90.000     4.1359     153.38
 90.000     4.1395     155.87
 90.000     4.1428     159.87
 90.000     4.1458     167.74
 90.000     4.1489     187.86
 90.000     4.1529     189.78
 90.000     4.1559     193.41
 124.90     3.7969     78.258
 124.90     3.7999     72.074
 124.90     3.8030     63.525
 124.90     3.8060     57.907
 124.90     3.8090     60.419
 124.90     3.8122     73.134
 124.90     3.8163     81.015
 124.90     3.8192     95.718
 124.90     3.8223     94.258
 124.90     3.8254     85.994
 124.90     3.8380     92.563
 124.90     3.8410     88.949
 124.90     3.8440     84.015
 124.90     3.8476     76.904
 124.90     3.8511     71.493
 124.90     3.8540     75.049
 124.90     3.8572     87.377
 124.90     3.8600     99.047
 124.90     3.8630     106.66
 124.90     3.8666     101.34
 124.90     3.8701     97.816
 124.90     4.1194     64.237
 124.90     4.1229     61.650
 124.90     4.1264     59.157
 124.90     4.1299     59.012
 124.90     4.1329     65.171
 124.90     4.1359     75.184
 124.90     4.1395     82.086
 124.90     4.1429     86.267
 124.90     4.1458     90.078
 124.90     4.1489     89.939
 124.90     4.1529     86.123
 124.90     4.1558     81.006
 164.50     3.7967     37.603
 164.50     3.7999     32.146
 164.50     3.8029     28.187
 164.50     3.8060     28.619
 164.50     3.8090     35.220
 164.50     3.8120     45.372
 164.50     3.8161     52.427
 164.50     3.8192     52.859
 164.50     3.8223     48.899
 164.50     3.8255     42.882
 164.50     3.8380     34.509
 164.50     3.8409     32.428
 164.50     3.8440     30.065
 164.50     3.8475     28.166
 164.50     3.8508     27.949
 164.50     3.8539     31.941
 164.50     3.8569     38.550
 164.50     3.8599     42.542
 164.50     3.8630     42.048
 164.50     3.8665     39.401
 164.50     3.8699     36.941
 164.50     4.1194     32.191
 164.50     4.1230     31.952
 164.50     4.1264     32.185
 164.50     4.1299     34.672
 164.50     4.1329     40.643
 164.50     4.1360     47.177
 164.50     4.1395     50.228
 164.50     4.1425     50.561
 164.50     4.1459     49.666
 164.50     4.1489     46.334
 164.50     4.1529     42.517
 164.50     4.1559     39.467
ENDDATA            101
ENDSUBENT          114
SUBENT        D0130005   20040228   20040430   20050926       0000
BIB                  2          6
REACTION  1(26-FE-56(P,0),,EN)
          2(26-FE-56(P,TOT),,WID)
          3(26-FE-56(P,EL),,WID)
          4(26-FE-56(P,0),,J)
          5(26-FE-56(P,0),,PTY)
STATUS     (TABLE) tbl.2
ENDBIB               6
NOCOMMON             0          0
DATA                 5          8
DATA      1DATA      2DATA      3DATA      4DATA      5
MEV        KEV        KEV        NO-DIM     NO-DIM
  3.716     10.0       2.4         0.5         1.
  3.810      8.2       2.5         0.5         1.
  3.854      9.0       2.4         0.5         1.
  3.960     14.0       5.0         1.5        -1.
  4.010     9.0        1.0         0.5         1.
  4.132     9.0        2.0         0.5         1.
  4.191    13.0        5.8         0.5         1.
  4.273    10.0        5.8         0.5         1.
ENDDATA             10
ENDSUBENT           21
ENDENTRY             5
