ENTRY            F0400   19991203   20001115
SUBENT        F0400001   19991203   20001115
BIB                  9         14
TITLE      Spectroscopic factors for the 11B 6.76 MeV level using
           realistic optical model potentials
AUTHOR     (M.N.H.COMSAN)
INSTITUTE  (3EGYCAI)
REFERENCE  (J,AKE,21,41,197303)
SAMPLE     Targets used were enriched (96.6%) 10B  isotopes
           The thicknesses of the targets were about 15keV for
           2.0 MeV deuterons.
ERR-ANALYS (DATA-ERR) Absolute error
           (DATA-ERR1) Error in the relative cross sections
FACILITY   (VDG)
DETECTOR   (SOLST) emiconductor detectors cuold cover the angular
           range from 20 degr. to 160 degr.
HISTORY    (19890224C)
ENDBIB              14
COMMON               2          3
DATA-ERR   DATA-ERR1
PER-CENT   PER-CENT
  11.0       6.0
ENDCOMMON            3
ENDSUBENT           21
SUBENT        F0400002   19991203   20001115
BIB                  3          4
REACTION   (5-B-10(D,P)5-B-11,PAR,DA)
ERR-ANALYS (DATA-ERR2) Digitizing error
           (ANG-ERR) Digitizing error
STATUS     (CURVE) Fig.3
ENDBIB               4
COMMON               3          3
E-LVL      ANG-ERR    DATA-ERR2
MEV        ADEG       MB/SR
  6.760      1.000     0.2
ENDCOMMON            3
DATA                 3        148
EN         ANG-CM     DATA-CM
MEV        ADEG       MB/SR
     0.67      21.83       0.4991
     0.67      32.1766     0.6757
     0.67      42.2587     0.667
     0.67      52.2702     0.7425
     0.67      63.2555     0.6581
     0.67      73.3588     0.6241
     0.67      82.6932     0.506
     0.67      92.7965     0.4721
     0.67     102.9069     0.4297
     0.67     113.8745     0.3663
     0.67     122.7114     0.3408
     0.67     132.3666     0.3406
     0.67     141.1611     0.3656
     0.67     151.2115     0.3948
     0.67     160.4435     0.3988
     0.8       21.8091     0.7936
     0.8       31.4772     1.1581
     0.8       43.247      1.0708
     0.8       52.4947     1.1988
     0.8       63.4238     1.0902
     0.8       73.9325     1.0676
     0.8       83.1802     0.884
     0.8       93.2686     0.7432
     0.8      103.357      0.6776
     0.8      112.6047     0.6767
     0.8      122.6931     0.5681
     0.8      131.1001     0.621
     0.8      141.6089     0.7529
     0.8      150.8566     0.7486
     0.8      160.945      0.7361
     0.88      21.8772     1.1877
     0.88      32.0053     1.3479
     0.88      42.5584     1.4973
     0.88      53.1187     1.6037
     0.88      63.7083     1.5381
     0.88      73.5118     1.1177
     0.88      82.8355     1.0308
     0.88      93.4361     0.9006
     0.88     103.1757     0.8566
     0.88     113.3421     0.791
     0.88     123.0817     0.747
     0.88     131.9714     0.7246
     0.88     142.1177     0.7773
     0.88     150.9909     0.8516
     0.88     161.1355     0.915
     1.09      21.5095     2.2699
     1.09      33.4626     2.7307
     1.09      43.222      2.8762
     1.09      53.7625     2.769
     1.09      64.2656     2.5146
     1.09      73.8911     2.134
     1.09      84.3139     1.5639
     1.09      93.9555     1.2464
     1.09     104.0787     1.1604
     1.09     113.8006     1.1586
     1.09     123.9666     1.2409
     1.09     133.2872     1.3234
     1.09     142.1959     1.448
     1.09     152.3672     1.5514
     1.09     161.6825     1.6128
     1.3       21.1516     2.6027
     1.3       32.9889     3.2622
     1.3       42.2897     3.4962
     1.3       53.7042     3.3899
     1.3       63.8505     2.7517
     1.3       73.574      2.1773
     1.3       83.7203     1.7944
     1.3       93.8666     1.4753
     1.3      104.4356     1.4327
     1.3      114.1592     1.4114
     1.3      123.8827     1.7731
     1.3      132.7607     2.0284
     1.3      142.4842     2.2411
     1.3      152.6305     2.2624
     1.3      161.9312     2.7942
     1.5       22.3663     3.7326
     1.5       32.3976     4.3214
     1.5       43.2725     4.8681
     1.5       53.3985     4.3206
     1.5       64.375      3.6467
     1.5       74.1055     2.8046
     1.5       83.8184     2.173
     1.5       93.9304     1.7938
     1.5      103.9968     1.9617
     1.5      113.6677     1.8351
     1.5      123.3105     2.0451
     1.5      132.1028     2.3815
     1.5      141.7457     2.5915
     1.5      151.3815     2.8857
     1.5      160.6114     3.0116
     1.71      21.9491     3.614
     1.71      32.4466     4.7613
     1.71      43.0233     4.9725
     1.71      53.2411     4.418
     1.71      64.752      3.6079
     1.71      74.9987     2.7129
     1.71      84.8144     1.9031
     1.71      94.1233     2.072
     1.71     104.3087     1.9003
     1.71     113.6105     2.1543
     1.71     123.7599     2.4081
     1.71     133.4854     2.662
     1.71     143.2146     2.8734
     1.71     152.9329     3.2124
     1.71     161.8289     3.2537
     1.92      22.0588     3.748
     1.92      33.4138     5.3409
     1.92      43.1976     5.4295
     1.92      54.3525     4.4443
     1.92      64.2191     3.5876
     1.92      74.9484     2.6022
     1.92      85.6438     2.0036
     1.92      95.0245     1.8342
     1.92     105.6333     2.2238
     1.92     115.3908     2.6132
     1.92     123.8598     3.1311
     1.92     133.6436     3.2197
     1.92     143.4011     3.6091
     1.92     153.6031     3.7837
     2.12      21.5531     4.7621
     2.12      31.5137     6.3836
     2.12      42.9702     6.2983
     2.12      53.8254     4.3353
     2.12      64.1559     3.1405
     2.12      74.464      2.1163
     2.12      84.2304     1.9883
     2.12      94.4208     1.8603
     2.12     104.5552     2.159
     2.12     114.7008     2.3724
     2.12     123.9986     2.5857
     2.12     133.2963     2.7991
     2.12     142.5829     3.0978
     2.12     151.8863     3.1885
     2.32      21.9959     4.766
     2.32      32.4337     6.383
     2.32      43.4383     6.2979
     2.32      54.1784     4.3404
     2.32      64.0078     3.1489
     2.32      74.6687     2.1277
     2.32      84.408      2.
     2.32      94.5704     1.8723
     2.32     104.6967     2.1702
     2.32     114.8302     2.383
     2.32     124.1178     2.5957
     2.32     132.9824     2.8085
     2.32     142.6857     3.1064
     2.32     151.9769     3.2766
     2.32     160.4437     3.1915
ENDDATA            150
ENDSUBENT          163
ENDENTRY             2
