ENTRY            F0484   20110808   20111215   20111123       F042
SUBENT        F0484001   20110808   20111215   20111123       F042
BIB                  9         16
TITLE      Investigation of the 11B(3He,p)13C and 20Ne(3He,p)22Na
           reactions at E(He3) below 3 MeV.
AUTHOR     (C.Meynadier,J.F.Allard,M.Amiel,H.Beaumevieille,
            B.Chambon,C.Morand)
INSTITUTE  (3ALGUAG) Institut d'Etudes Nucleaires d'Alger
REFERENCE  (J,NP/A,161,305,197101)
METHOD     (EDE,PHD)
FACILITY   (VDG,3ALGUAG)
DETECTOR   (TELES,SIBAR) Three sets of movable surface barrier
           detectors which are 1000 or 1500 mu-m thick.
ERR-ANALYS (DATA-ERR1,,20.) max. overall error
HISTORY    (19920429C)
           (20030505U) Excluded COMMENT from subent 001;
           Changed data headings in 003. Inserted sub.005
           (20110808A) SD: fig. 5 was redigitized.
           Titles of digitizing errors changed according to Dict.
ENDBIB              16
NOCOMMON             0          0
ENDSUBENT           19
SUBENT        F0484002   20010201   20030430   20050926       0000
BIB                  3          5
REACTION   (5-B-11(HE3,P)6-C-13,PAR,SIG)
SAMPLE     A gaseous target of isotopic boron (enriched 11B 99%)
           with chemical form B2H6 was used with
           differential pumping.
STATUS     (TABLE) Tbl.2
ENDBIB               5
COMMON               1          3
EN
MEV
 3.0
ENDCOMMON            3
DATA                 2         12
E-EXC      DATA
MEV        MB
  3.080      3.120
  3.680      6.180
  3.850      3.930
  6.860      3.120
  7.500      3.990
  7.550      6.870
  7.690      3.280
  9.510      1.620
  9.890      5.090
  10.76      3.430
  11.01      1.080
  11.09      3.530
ENDDATA             14
ENDSUBENT           28
SUBENT        F0484003   20110808   20111215   20111123       F042
BIB                  5          7
REACTION   (5-B-11(HE3,P)6-C-13,PAR,DA)
ERR-ANALYS (ANG-ERR-D) Digitizing error
           (ERR-DIG) Digitizing error
           (DATA-ERR2) Experimental error from graphic bars
EN-SEC     (E-LVL,6-C-13)
STATUS     (CURVE) Fig.5 from NP/A,161,305,1971
HISTORY    (20110808A) SD: fig. 5 was redigitized.
ENDBIB               7
COMMON               3          3
EN         ANG-ERR-D  ERR-DIG
MEV        ADEG       MB/SR
  3.0       0.5        0.001
ENDCOMMON            3
DATA                 4        210
E-LVL      ANG-CM     DATA-CM    DATA-ERR2
MEV        ADEG       MB/SR      MB/SR
 3.0800     30.359    0.28951    0.53427E-01
 3.0800     37.433    0.14943    0.21371E-01
 3.0800     46.894    0.99572E-01
 3.0800     56.941    0.10318
 3.0800     65.069    0.10210
 3.0800     75.405    0.13321    0.16791E-01
 3.0800     84.721    0.12456
 3.0800     94.824    0.22130
 3.0800     103.54    0.27217
 3.0800     112.31    0.30929
 3.0800     121.45    0.35102    0.45794E-01
 3.0800     130.70    0.35917
 3.0800     138.68    0.39930
 3.0800     146.48    0.49134
 3.0800     153.96    0.45511    0.48868E-01
 3.0800     159.08    0.42944
 3.0800     161.09    0.40817
 3.6800     22.573    0.31878
 3.6800     24.527    0.31276    0.42646E-01
 3.6800     30.682    0.33281
 3.6800     37.997    0.35442
 3.6800     46.921    0.35325
 3.6800     56.156    0.38255    0.45723E-01
 3.6800     65.875    0.37380
 3.6800     74.962    0.46098
 3.6800     84.317    0.44307
 3.6800     94.159    0.53790
 3.6800     103.44    0.55045    0.60923E-01
 3.6800     112.60    0.60564
 3.6800     121.62    0.56944
 3.6800     130.51    0.58045
 3.6800     138.57    0.61276
 3.6800     153.63    0.63925    0.80738E-01
 3.6800     157.62    0.59675
 3.6800     158.99    0.66840
 3.6800     161.36    0.65174
 3.8500     22.668    0.12898    0.21319E-01
 3.8500     24.179    0.13822
 3.8500     30.761    0.13864
 3.8500     38.696    0.18637    0.32004E-01
 3.8500     46.503    0.17164
 3.8500     56.050    0.20425
 3.8500     66.308    0.25213    0.42664E-01
 3.8500     74.693    0.28466
 3.8500     83.795    0.33094
 3.8500     93.818    0.34225
 3.8500     112.15    0.40436    0.60887E-01
 3.8500     121.06    0.40341
 3.8500     130.07    0.37962
 3.8500     138.11    0.40147
 3.8500     145.12    0.48570
 3.8500     152.40    0.41153
 3.8500     157.15    0.47886    0.59389E-01
 3.8500     159.76    0.41200
 6.8600     22.926    0.23837
 6.8600     24.836    0.23999
 6.8600     30.553    0.24945    0.33713E-01
 6.8600     38.483    0.28814
 6.8600     47.739    0.26558
 6.8600     56.898    0.27673
 6.8600     66.163    0.25111
 6.8600     75.963    0.30520
 6.8600     84.832    0.28416    0.52102E-01
 6.8600     93.848    0.21255
 6.8600     103.79    0.21914    0.38293E-01
 6.8600     121.81    0.20925
 6.8600     129.86    0.20962
 6.8600     137.83    0.23298
 6.8600     146.16    0.26555
 6.8600     153.48    0.25057
 6.8600     158.01    0.27377    0.39843E-01
 6.8600     159.95    0.26619
 7.5000     23.049    0.14131
 7.5000     24.592    0.14446    0.26169E-01
 7.5000     30.355    0.16320
 7.5000     39.132    0.21287
 7.5000     75.771    0.28538    0.49260E-01
 7.5000     84.832    0.23807
 7.5000     93.843    0.20769
 7.5000     103.41    0.25278
 7.5000     122.23    0.44918
 7.5000     129.54    0.46799    0.64654E-01
 7.5000     138.88    0.59159
 7.5000     145.62    0.54263
 7.5000     153.52    0.49219
 7.5000     158.06    0.53397    0.64654E-01
 7.5000     159.73    0.49094
 7.5500     22.827    0.16762
 7.5500     24.370    0.17165    0.38426E-01
 7.5500     30.914    0.19934
 7.5500     38.581    0.25791
 7.5500     65.978    0.31886
 7.5500     76.315    0.40850
 7.5500     84.411    0.43253    0.65323E-01
 7.5500     93.979    0.51823
 7.5500     104.30    0.61940    0.99953E-01
 7.5500     113.33    0.51672
 7.5500     122.02    0.68302
 7.5500     139.13    0.93105
 7.5500     145.87     1.1163    0.13833
 7.5500     153.79     1.2864
 7.5500     158.30     1.3945
 7.5500     160.44     1.2218
 7.6800     23.467    0.23209
 7.6800     25.011    0.22754    0.41647E-01
 7.6800     30.844    0.19543
 7.6800     39.274    0.19120
 7.6800     46.931    0.19002
 7.6800     57.158    0.22597
 7.6800     66.385    0.21098    0.30854E-01
 7.6800     85.297    0.28743
 7.6800     95.329    0.25860
 7.6800     121.72    0.26447    0.38546E-01
 7.6800     130.11    0.27412
 7.6800     145.80    0.40438
 7.6800     153.26    0.33997
 7.6800     157.67    0.40186    0.50844E-01
 7.6800     160.06    0.36959
 9.5200     22.550    0.65103E-01
 9.5200     24.503    0.64373E-01
 9.5200     30.679    0.74555E-010.10053E-01
 9.5200     38.405    0.86317E-01
 9.5200     47.677    0.10043
 9.5200     56.706    0.88266E-01
 9.5200     67.142    0.10318    0.20053E-01
 9.5200     76.084    0.10647
 9.5200     86.130    0.12137
 9.5200     95.410    0.13394
 9.5200     103.95    0.14031
 9.5200     112.83    0.15364    0.15253E-01
 9.5200     131.13    0.15559
 9.5200     139.24    0.16968
 9.5200     146.41    0.21002
 9.5200     153.12    0.19472    0.25053E-01
 9.5200     158.28    0.24738
 9.9000     23.133    0.30464    0.34076E-01
 9.9000     26.143    0.33266
 9.9000     30.899    0.28795
 9.9000     39.008    0.28676
 9.9000     46.427    0.25611
 9.9000     56.813    0.26897    0.27881E-01
 9.9000     67.139    0.30351
 9.9000     77.084    0.33649
 9.9000     85.969    0.33379    0.57310E-01
 9.9000     95.154    0.36208
 9.9000     104.60    0.43531
 9.9000     113.43    0.45275
 9.9000     122.67    0.46091    0.49565E-01
 9.9000     131.73    0.53412
 9.9000     139.63    0.61038
 9.9000     147.01    0.72999
 9.9000     153.66    0.69776    0.58859E-01
 9.9000     158.64    0.71347
 9.9000     160.63    0.69188
 10.760     25.506    0.99225E-010.20232E-01
 10.760     31.953    0.13370
 10.760     39.720    0.26782    0.43563E-01
 10.760     48.563    0.25880
 10.760     68.275    0.36845    0.59153E-01
 10.760     113.83    0.23466    0.48245E-01
 10.760     122.61    0.25676
 10.760     131.74    0.28977
 10.760     139.86    0.26048
 10.760     146.91    0.37124
 10.760     154.26    0.34504    0.34239E-01
 10.760     158.91    0.32186
 10.820     22.996    0.23123
 10.820     25.685    0.23910    0.17012E-01
 10.820     31.973    0.21469
 10.820     48.778    0.29293
 10.820     67.890    0.26146
 10.820     86.443    0.28102    0.40209E-01
 10.820     122.73    0.33400    0.27837E-01
 10.820     130.79    0.35918
 10.820     139.20    0.39520
 10.820     146.52    0.41106
 10.820     153.55    0.39597
 10.820     158.86    0.43183    0.34044E-01
 11.010     22.689    0.14789
 11.010     25.472    0.12236    0.15503E-01
 11.010     32.015    0.11703
 11.010     48.744    0.56826E-01
 11.010     57.937    0.60845E-01
 11.010     68.501    0.10829
 11.010     77.399    0.89053E-010.18603E-01
 11.010     79.203    0.11931
 11.010     87.322    0.10316
 11.010     95.855    0.79263E-01
 11.010     131.92    0.81373E-010.16284E-01
 11.010     140.08    0.53593E-01
 11.010     146.84    0.90906E-01
 11.010     154.16    0.84819E-01
 11.010     159.46    0.10351    0.13183E-01
 11.010     161.57    0.15470
 11.010     171.21    0.14090
 11.090     24.218    0.27288
 11.090     25.747    0.27910    0.21537E-01
 11.090     30.895    0.23004
 11.090     38.920    0.26424
 11.090     57.563    0.22497    0.32345E-01
 11.090     75.957    0.28269
 11.090     86.016    0.27694
 11.090     95.498    0.34507
 11.090     104.67    0.38547    0.58500E-01
 11.090     113.72    0.31810
 11.090     122.56    0.33540
 11.090     130.72    0.31879
 11.090     152.98    0.22578    0.32345E-01
 11.090     158.39    0.22293
 11.090     159.67    0.17679
ENDDATA            212
ENDSUBENT          228
SUBENT        F0484004   20010201   20030430   20050926       0000
BIB                  3          3
REACTION   (10-NE-20(HE3,P)11-NA-22,PAR,SIG)
SAMPLE     Natural neon (90.5% - 20Ne, 9% -22Ne, 0.5% 21Ne)
STATUS     (TABLE) Tbl.3
ENDBIB               3
COMMON               1          3
EN
MEV
  2.9
ENDCOMMON            3
DATA                 2         10
E-EXC      DATA
MEV        MICRO-B
 0.0000E+00  255.0
 0.5830      511.0
 0.6570      180.0
 0.8910      198.0
  1.528      140.0
  2.211      629.0
  2.572      430.0
  2.969      565.0
  3.059      589.0
  3.944      1.670
ENDDATA             12
ENDSUBENT           24
SUBENT        F0484005   20110808   20111215   20111123       F042
BIB                  5          7
REACTION   (10-NE-20(HE3,P)11-NA-22,PAR,DA)
SAMPLE     Natural neon (90.5% - 20Ne, 9% -22Ne, 0.5% 21Ne)
EN-SEC     (E-LVL,11-NA-22)
ERR-ANALYS (ANG-ERR-D)    Digitizing error
           (ERR-DIG)   Digitizing error
           (DATA-ERR2) Experimental error from graphic bars
STATUS     (CURVE)fig. 3 from NP/A,161,305,1971
ENDBIB               7
COMMON               2          3
ANG-ERR-D  ERR-DIG
ADEG       MU-B/SR
 0.5         0.2
ENDCOMMON            3
DATA                 5        242
EN         E-LVL      ANG-CM     DATA-CM    DATA-ERR2
MEV        MEV        ADEG       MU-B/SR    MU-B/SR
  2.800      0.000      21.90      21.78
  2.800      0.000      23.74      25.88
  2.800      0.000      29.89      30.37      2.455
  2.800      0.000      38.61      34.41
  2.800      0.000      51.32      33.93
  2.800      0.000      65.60      32.00
  2.800      0.000      79.63      24.17      3.092
  2.800      0.000      93.54      17.88
  2.800      0.000      106.1      14.67
  2.800      0.000      120.3      13.74      2.092
  2.800      0.000      145.5      19.78
  2.800      0.000      156.3      20.74
  2.800     0.5800      23.75      46.32
  2.800     0.5800      29.80      47.48      5.087
  2.800     0.5800      50.91      41.92
  2.800     0.5800      64.75      37.91
  2.800     0.5800      78.85      36.26
  2.800     0.5800      132.4      43.77      4.901
  2.800     0.5800      144.4      41.92
  2.800     0.5800      154.5      31.87
  2.800     0.5800      159.7      30.12
  2.800     0.6500      22.31      20.13
  2.800     0.6500      24.59      13.60      3.547
  2.800     0.6500      29.79      6.619
  2.800     0.6500      38.53      11.11
  2.800     0.6500      63.10      12.04
  2.800     0.6500      79.97      14.30
  2.800     0.6500      93.23      11.27      2.455
  2.800     0.6500      107.7      6.876
  2.800     0.6500      145.4      22.32
  2.800     0.6500      155.4      24.09      3.001
  2.800     0.6500      160.9      27.39
  2.800     0.6500      165.8      25.41
  2.800     0.8900      22.46      19.89
  2.800     0.8900      24.49      17.45
  2.800     0.8900      30.22      9.944
  2.800     0.8900      38.66      22.53
  2.800     0.8900      50.23      13.88      2.632
  2.800     0.8900      64.70      15.88
  2.800     0.8900      78.01      15.06
  2.800     0.8900      133.1      8.046
  2.800     0.8900      144.7      9.209      2.816
  2.800     0.8900      155.2      12.54      2.632
  2.800     0.8900      160.2      8.126
  2.800      1.520      22.14      15.61
  2.800      1.520      24.26      16.08
  2.800      1.520      30.52      22.02
  2.800      1.520      39.15      18.54      3.814
  2.800      1.520      50.98      8.076
  2.800      1.520      64.87      5.983
  2.800      1.520      78.70      4.617
  2.800      1.520      92.35      8.606
  2.800      1.520      107.4      6.158      2.450
  2.800      1.520      132.6      6.133
  2.800      1.520      159.7      5.122      2.455
  2.800      1.520      170.1      5.641
  2.800      2.210      24.17      41.56      2.741
  2.800      2.210      37.95      40.99
  2.800      2.210      51.22      43.51      5.120
  2.800      2.210      65.30      44.40
  2.800      2.210      79.49      50.77
  2.800      2.210      93.56      59.89
  2.800      2.210      107.2      45.23      5.116
  2.800      2.210      120.7      51.05
  2.800      2.210      133.4      50.64
  2.800      2.210      145.5      46.39
  2.800      2.210      155.6      47.23      2.375
  2.800      2.210      166.1      47.53
  2.800      2.570      23.87      24.54      3.062
  2.800      2.570      38.04      33.14
  2.800      2.570      65.34      41.17
  2.800      2.570      79.80      35.03      2.691
  2.800      2.570      93.52      29.43
  2.800      2.570      107.6      31.20
  2.800      2.570      119.8      28.28
  2.800      2.570      133.6      27.35
  2.800      2.570      146.1      26.23
  2.800      2.570      156.0      23.28      2.695
  2.800      2.570      160.9      19.74
  2.800      2.570      166.0      20.33
  2.800      2.970      24.06      31.18
  2.800      2.970      29.65      28.68
  2.800      2.970      38.71      39.52      2.917
  2.800      2.970      50.73      40.56
  2.800      2.970      79.37      20.46
  2.800      2.970      93.08      16.23      3.091
  2.800      2.970      106.7      22.20
  2.800      2.970      120.9      25.07
  2.800      2.970      133.5      20.10
  2.800      2.970      145.9      22.05
  2.800      2.970      160.1      14.19
  2.800      2.970      165.4      9.506      2.913
  2.800      2.970      170.2      8.099
  2.800      3.060      22.66      96.43
  2.800      3.060      29.61      87.09      3.987
  2.800      3.060      38.24      72.69
  2.800      3.060      51.04      70.30
  2.800      3.060      64.70      57.05
  2.800      3.060      79.10      51.24      3.802
  2.800      3.060      93.28      42.34
  2.800      3.060      107.4      35.26
  2.800      3.060      120.3      22.54
  2.800      3.060      133.7      22.15
  2.800      3.060      145.0      21.92
  2.800      3.060      155.5      20.77      2.354
  2.800      3.060      160.6      21.01
  3.000      0.000      21.68      15.69
  3.000      0.000      23.43      16.33
  3.000      0.000      29.86      17.37      2.546
  3.000      0.000      37.79      17.86
  3.000      0.000      51.29      20.93
  3.000      0.000      64.22      17.82      2.090
  3.000      0.000      79.14      16.80
  3.000      0.000      93.26      16.78
  3.000      0.000      106.0      15.76
  3.000      0.000      120.2      19.74
  3.000      0.000      133.8      16.72
  3.000      0.000      145.6      14.69
  3.000      0.000      155.4      9.829      2.365
  3.000      0.000      160.6      7.765
  3.000     0.5800      21.21      38.85
  3.000     0.5800      24.13      37.98      6.348
  3.000     0.5800      29.66      26.98
  3.000     0.5800      37.19      27.43
  3.000     0.5800      50.28      39.92
  3.000     0.5800      77.84      50.40      7.082
  3.000     0.5800      91.99      39.86
  3.000     0.5800      106.2      36.03
  3.000     0.5800      119.7      24.21      5.804
  3.000     0.5800      132.9      33.26
  3.000     0.5800      144.4      56.98
  3.000     0.5800      154.6      70.16
  3.000     0.5800      159.3      85.28      4.539
  3.000     0.5800      164.8      91.88
  3.000     0.6500      24.17      44.96
  3.000     0.6500      30.45      43.26      2.455
  3.000     0.6500      38.40      33.38
  3.000     0.6500      50.58      25.17
  3.000     0.6500      64.18      12.14
  3.000     0.6500      64.73      9.502
  3.000     0.6500      78.22      3.290      2.183
  3.000     0.6500      92.49      6.445
  3.000     0.6500      120.3      2.933
  3.000     0.6500      133.6      9.355      3.909
  3.000     0.6500      145.7      6.955
  3.000     0.6500      155.9      16.36
  3.000     0.6500      160.9      17.75      2.546
  3.000     0.6500      165.4      15.41
  3.000     0.8900      22.56      18.89
  3.000     0.8900      30.45      15.03      3.631
  3.000     0.8900      37.13      23.52
  3.000     0.8900      50.13      18.61
  3.000     0.8900      64.26      13.06
  3.000     0.8900      91.94      18.96
  3.000     0.8900      106.0      14.05
  3.000     0.8900      120.2      18.59
  3.000     0.8900      139.8      11.99
  3.000     0.8900      160.4      14.12
  3.000     0.8900      165.5      8.704
  3.000      1.520      21.46      11.52
  3.000      1.520      24.03      11.09      1.454
  3.000      1.520      30.31      9.491
  3.000      1.520      39.09      8.093
  3.000      1.520      51.46      14.16
  3.000      1.520      64.26      12.25      1.906
  3.000      1.520      77.96      12.15
  3.000      1.520      92.33      16.23
  3.000      1.520      105.5      21.13      2.455
  3.000      1.520      120.7      16.77
  3.000      1.520      133.4      20.21
  3.000      1.520      146.0      20.20
  3.000      1.520      155.6      17.54      2.271
  3.000      2.210      20.96      23.98
  3.000      2.210      24.79      19.09      4.751
  3.000      2.210      29.89      18.41
  3.000      2.210      39.15      30.03
  3.000      2.210      51.37      31.81
  3.000      2.210      64.14      37.80
  3.000      2.210      78.94      38.52      3.837
  3.000      2.210      93.33      48.55
  3.000      2.210      106.6      60.58
  3.000      2.210      120.4      66.95      4.942
  3.000      2.210      133.8      74.05
  3.000      2.210      133.8      66.00
  3.000      2.210      145.5      71.25
  3.000      2.210      156.1      78.68
  3.000      2.210      160.0      79.82      2.558
  3.000      2.210      166.5      88.85
  3.000      2.570      22.62      60.83
  3.000      2.570      24.08      52.58      4.859
  3.000      2.570      30.98      36.48
  3.000      2.570      51.22      14.95
  3.000      2.570      64.92      9.707
  3.000      2.570      79.17      8.424      2.875
  3.000      2.570      93.36      16.67
  3.000      2.570      108.2      42.17
  3.000      2.570      122.5      55.81
  3.000      2.570      134.6      62.77
  3.000      2.570      146.1      90.22
  3.000      2.570      157.3      92.13      3.230
  3.000      2.570      161.8      88.77
  3.000      2.570      166.9      89.36
  3.000      2.970      21.85      57.93      3.459
  3.000      2.970      24.72      67.98
  3.000      2.970      37.73      80.49
  3.000      2.970      52.00      80.28
  3.000      2.970      65.11      90.43
  3.000      2.970      80.06      100.4
  3.000      2.970      93.86      85.26      7.468
  3.000      2.970      108.1      50.99
  3.000      2.970      119.7      36.17
  3.000      2.970      133.4      32.85      4.916
  3.000      2.970      145.5      32.07
  3.000      2.970      155.6      25.25
  3.000      2.970      160.3      27.30
  3.000      2.970      165.7      21.35
  3.000      3.060      21.81      67.25
  3.000      3.060      24.94      70.19      2.901
  3.000      3.060      30.27      72.60
  3.000      3.060      38.16      74.50
  3.000      3.060      65.02      65.93      3.806
  3.000      3.060      80.13      60.49
  3.000      3.060      93.37      56.47      4.703
  3.000      3.060      107.3      52.46
  3.000      3.060      120.6      39.39
  3.000      3.060      132.8      25.76
  3.000      3.060      145.5      18.48
  3.000      3.060      160.3      19.19
  3.000      3.060      165.6      21.97      3.444
  3.000      3.940      22.70      166.7
  3.000      3.940      24.78      121.3      8.723
  3.000      3.940      30.12      110.8
  3.000      3.940      50.76      102.2
  3.000      3.940      64.84      93.03      5.088
  3.000      3.940      79.21      87.16
  3.000      3.940      92.95      110.4
  3.000      3.940      106.9      125.9
  3.000      3.940      120.6      164.4
  3.000      3.940      134.0      189.8
  3.000      3.940      146.3      226.1      3.635
  3.000      3.940      155.5      225.2
  3.000      3.940      161.8      220.2
ENDDATA            244
ENDSUBENT          260
ENDENTRY             5
