ENTRY            11163     800814
SUBENT        11163001     800814              20050926       0000
BIB                  6          8
INSTITUTE  (1USAANL)
REFERENCE  (C,68WASH,1,159,6803)
AUTHOR     (C.T.HIBDON,F.P.MOORING)
TITLE      TOTAL NEUTRON CROSS SECTIONS OF LI-6, LI-7 AND LITHIUM
           FROM 10 TO 1236 KEV.
STATUS     (SCSRS)
HISTORY    (760628T) TRANSLATED FROM SCISRS
           (800814A) CONVERTED TO REACTION FORMALISM
ENDBIB               8
NOCOMMON             0          0
ENDSUBENT           11
SUBENT        11163002     800814              20050926       0000
BIB                  2          2
REACTION   (3-LI-0(N,TOT),,SIG)
METHOD     FLAT DETECTION. 120DEG.
ENDBIB               2
NOCOMMON             0          0
DATA                 3         84
EN         DATA       DATA-ERR
MEV        B          B
 1.00   -02 1.16   +00 2.     -02
 1.20   -02 1.13   +00 2.     -02
 1.40   -02 1.09   +00 2.     -02
 1.60   -02 1.12   +00 2.     -02
 1.80   -02 1.13   +00 2.     -02
 2.00   -02 1.03   +00 2.     -02
 2.20   -02 1.08   +00 2.     -02
 2.40   -02 1.11   +00 2.     -02
 2.60   -02 1.12   +00 2.     -02
 2.80   -02 1.10   +00 2.     -02
 3.00   -02 1.08   +00 2.     -02
 3.20   -02 1.12   +00 2.     -02
 3.40   -02 1.08   +00 2.     -02
 3.60   -02 1.16   +00 2.     -02
 3.80   -02 1.08   +00 2.     -02
 4.00   -02 1.08   +00 2.     -02
 4.20   -02 1.09   +00 2.     -02
 4.40   -02 1.03   +00 2.     -02
 4.60   -02 1.08   +00 2.     -02
 4.80   -02 1.04   +00 2.     -02
 5.05   -02 1.08   +00 2.     -02
 5.25   -02 1.09   +00 2.     -02
 5.45   -02 1.05   +00 2.     -02
 5.65   -02 9.7    -01 2.     -02
 5.85   -02 1.05   +00 2.     -02
 6.05   -02 1.05   +00 2.     -02
 6.25   -02 1.04   +00 2.     -02
 6.45   -02 1.06   +00 2.     -02
 6.65   -02 1.04   +00 2.     -02
 6.85   -02 1.01   +00 2.     -02
 7.05   -02 1.12   +00 2.     -02
 7.25   -02 1.04   +00 2.     -02
 7.45   -02 1.02   +00 2.     -02
 7.65   -02 1.04   +00 2.     -02
 7.85   -02 1.01   +00 2.     -02
 8.05   -02 1.04   +00 2.     -02
 8.25   -02 1.11   +00 2.     -02
 8.45   -02 1.05   +00 2.     -02
 8.65   -02 1.09   +00 2.     -02
 8.85   -02 1.04   +00 2.     -02
 9.05   -02 1.11   +00 2.     -02
 9.25   -02 1.04   +00 2.     -02
 9.45   -02 1.10   +00 2.     -02
 9.65   -02 1.02   +00 2.     -02
 9.85   -02 1.10   +00 2.     -02
 1.010  -01 1.04   +00 2.     -02
 1.030  -01 1.04   +00 2.     -02
 1.050  -01 1.03   +00 2.     -02
 1.070  -01 1.03   +00 2.     -02
 1.090  -01 1.05   +00 2.     -02
 1.110  -01 1.04   +00 2.     -02
 1.130  -01 1.03   +00 2.     -02
 1.150  -01 1.01   +00 2.     -02
 1.170  -01 1.02   +00 2.     -02
 1.190  -01 1.03   +00 2.     -02
 1.210  -01 1.10   +00 2.     -02
 1.230  -01 1.03   +00 2.     -02
 1.250  -01 1.04   +00 2.     -02
 1.270  -01 1.00   +00 2.     -02
 1.290  -01 1.09   +00 2.     -02
 1.320  -01 1.10   +00 2.     -02
 1.340  -01 1.10   +00 2.     -02
 1.360  -01 1.05   +00 2.     -02
 1.380  -01 1.07   +00 2.     -02
 1.400  -01 1.09   +00 2.     -02
 1.420  -01 1.11   +00 2.     -02
 1.440  -01 1.16   +00 2.     -02
 1.460  -01 1.16   +00 2.     -02
 1.480  -01 1.13   +00 2.     -02
 1.500  -01 1.15   +00 2.     -02
 1.520  -01 1.15   +00 2.     -02
 1.540  -01 1.18   +00 2.     -02
 1.560  -01 1.26   +00 2.     -02
 1.580  -01 1.24   +00 2.     -02
 1.600  -01 1.25   +00 2.     -02
 1.620  -01 1.19   +00 2.     -02
 1.640  -01 1.24   +00 2.     -02
 1.660  -01 1.30   +00 2.     -02
 1.680  -01 1.27   +00 2.     -02
 1.700  -01 1.32   +00 2.     -02
 1.720  -01 1.25   +00 2.     -02
 1.740  -01 1.36   +00 2.     -02
 1.760  -01 1.40   +00 2.     -02
 1.780  -01 1.33   +00 2.     -02
ENDDATA             86
ENDSUBENT           93
SUBENT        11163003     800814              20050926       0000
BIB                  2          2
REACTION   (3-LI-0(N,TOT),,SIG)
METHOD     SELF DETECTION. 0DEG.
ENDBIB               2
NOCOMMON             0          0
DATA                 3         31
EN         DATA       DATA-ERR
MEV        B          B
 2.400  -01 6.82   +00 1.3    -01
 2.410  -01 7.06   +00 1.3    -01
 2.420  -01 7.52   +00 1.3    -01
 2.430  -01 7.65   +00 1.9    -01
 2.440  -01 8.28   +00 1.9    -01
 2.450  -01 8.40   +00 1.9    -01
 2.460  -01 8.82   +00 1.6    -01
 2.470  -01 9.19   +00 1.9    -01
 2.480  -01 9.57   +00 1.9    -01
 2.490  -01 9.66   +00 1.9    -01
 2.500  -01 1.031  +01 1.9    -01
 2.510  -01 1.058  +01 1.9    -01
 2.520  -01 1.059  +01 1.9    -01
 2.530  -01 1.149  +01 1.9    -01
 2.540  -01 1.115  +01 1.9    -01
 2.550  -01 1.111  +01 1.9    -01
 2.560  -01 1.160  +01 1.9    -01
 2.570  -01 1.106  +01 1.9    -01
 2.580  -01 1.073  +01 1.9    -01
 2.590  -01 1.065  +01 1.9    -01
 2.600  -01 1.060  +01 1.8    -01
 2.610  -01 1.023  +01 1.9    -01
 2.620  -01 1.039  +01 1.9    -01
 2.630  -01 9.36   +00 1.9    -01
 2.640  -01 1.005  +01 1.9    -01
 2.650  -01 9.02   +00 1.9    -01
 2.660  -01 9.22   +00 1.9    -01
 2.670  -01 8.18   +00 1.9    -01
 2.680  -01 8.16   +00 1.9    -01
 2.690  -01 8.04   +00 1.9    -01
 2.700  -01 8.13   +00 1.9    -01
ENDDATA             33
ENDSUBENT           40
SUBENT        11163004     800814              20050926       0000
BIB                  2          2
REACTION   (3-LI-6(N,TOT),,SIG)
METHOD     FLAT DETECTION. 120DEG.
ENDBIB               2
NOCOMMON             0          0
DATA                 3         84
EN         DATA       DATA-ERR
MEV        B          B
 1.00   -02 2.04   +00 3.     -02
 1.20   -02 1.93   +00 3.     -02
 1.40   -02 1.93   +00 3.     -02
 1.60   -02 1.80   +00 3.     -02
 1.80   -02 1.78   +00 3.     -02
 2.00   -02 1.75   +00 3.     -02
 2.20   -02 1.70   +00 3.     -02
 2.40   -02 1.60   +00 3.     -02
 2.60   -02 1.66   +00 3.     -02
 2.80   -02 1.73   +00 3.     -02
 3.00   -02 1.63   +00 3.     -02
 3.20   -02 1.63   +00 3.     -02
 3.40   -02 1.53   +00 3.     -02
 3.60   -02 1.57   +00 3.     -02
 3.80   -02 1.51   +00 2.     -02
 4.00   -02 1.47   +00 2.     -02
 4.20   -02 1.48   +00 2.     -02
 4.40   -02 1.38   +00 2.     -02
 4.60   -02 1.49   +00 2.     -02
 4.80   -02 1.40   +00 2.     -02
 5.05   -02 1.44   +00 2.     -02
 5.25   -02 1.43   +00 2.     -02
 5.45   -02 1.46   +00 2.     -02
 5.65   -02 1.41   +00 2.     -02
 5.85   -02 1.44   +00 2.     -02
 6.05   -02 1.47   +00 3.     -02
 6.25   -02 1.42   +00 3.     -02
 6.45   -02 1.41   +00 3.     -02
 6.65   -02 1.41   +00 3.     -02
 6.85   -02 1.39   +00 3.     -02
 7.05   -02 1.44   +00 3.     -02
 7.25   -02 1.41   +00 3.     -02
 7.45   -02 1.34   +00 3.     -02
 7.65   -02 1.39   +00 3.     -02
 7.85   -02 1.40   +00 3.     -02
 8.05   -02 1.34   +00 3.     -02
 8.25   -02 1.41   +00 3.     -02
 8.45   -02 1.41   +00 3.     -02
 8.65   -02 1.45   +00 3.     -02
 8.85   -02 1.36   +00 3.     -02
 9.05   -02 1.45   +00 3.     -02
 9.25   -02 1.39   +00 3.     -02
 9.45   -02 1.43   +00 3.     -02
 9.65   -02 1.38   +00 3.     -02
 9.85   -02 1.50   +00 3.     -02
 1.010  -01 1.48   +00 3.     -02
 1.030  -01 1.50   +00 3.     -02
 1.050  -01 1.57   +00 3.     -02
 1.070  -01 1.54   +00 3.     -02
 1.090  -01 1.58   +00 3.     -02
 1.110  -01 1.51   +00 3.     -02
 1.130  -01 1.53   +00 3.     -02
 1.150  -01 1.54   +00 3.     -02
 1.170  -01 1.53   +00 3.     -02
 1.190  -01 1.59   +00 3.     -02
 1.210  -01 1.67   +00 3.     -02
 1.230  -01 1.65   +00 3.     -02
 1.250  -01 1.77   +00 3.     -02
 1.270  -01 1.72   +00 3.     -02
 1.290  -01 1.70   +00 3.     -02
 1.320  -01 1.82   +00 3.     -02
 1.340  -01 1.78   +00 3.     -02
 1.360  -01 1.80   +00 3.     -02
 1.380  -01 1.89   +00 3.     -02
 1.400  -01 1.98   +00 3.     -02
 1.420  -01 1.99   +00 3.     -02
 1.440  -01 2.03   +00 3.     -02
 1.460  -01 2.10   +00 3.     -02
 1.480  -01 2.07   +00 3.     -02
 1.500  -01 2.11   +00 3.     -02
 1.520  -01 2.19   +00 3.     -02
 1.540  -01 2.23   +00 3.     -02
 1.560  -01 2.38   +00 3.     -02
 1.580  -01 2.39   +00 3.     -02
 1.600  -01 2.45   +00 3.     -02
 1.620  -01 2.53   +00 3.     -02
 1.640  -01 2.65   +00 3.     -02
 1.660  -01 2.68   +00 3.     -02
 1.680  -01 2.90   +00 4.     -02
 1.700  -01 2.92   +00 4.     -02
 1.720  -01 2.92   +00 4.     -02
 1.740  -01 3.03   +00 4.     -02
 1.760  -01 3.25   +00 4.     -02
 1.780  -01 3.37   +00 4.     -02
ENDDATA             86
ENDSUBENT           93
SUBENT        11163005     800814              20050926       0000
BIB                  2          2
REACTION   (3-LI-6(N,TOT),,SIG)
METHOD     FLAT DETECTION. 0DEG.
ENDBIB               2
NOCOMMON             0          0
DATA                 3        578
EN         DATA       DATA-ERR
MEV        B          B
 1.300  -01 1.69   +00 3.     -02
 1.310  -01 1.75   +00 3.     -02
 1.320  -01 1.75   +00 3.     -02
 1.330  -01 1.78   +00 3.     -02
 1.340  -01 1.80   +00 3.     -02
 1.350  -01 1.78   +00 3.     -02
 1.360  -01 1.76   +00 3.     -02
 1.360  -01 1.77   +00 3.     -02
 1.380  -01 1.86   +00 3.     -02
 1.400  -01 1.80   +00 3.     -02
 1.420  -01 1.89   +00 3.     -02
 1.440  -01 1.91   +00 3.     -02
 1.460  -01 1.95   +00 3.     -02
 1.480  -01 2.02   +00 3.     -02
 1.500  -01 2.04   +00 3.     -02
 1.520  -01 2.16   +00 3.     -02
 1.540  -01 2.24   +00 4.     -02
 1.560  -01 2.18   +00 4.     -02
 1.570  -01 2.28   +00 4.     -02
 1.580  -01 2.31   +00 4.     -02
 1.600  -01 2.38   +00 4.     -02
 1.620  -01 2.50   +00 3.     -02
 1.640  -01 2.62   +00 4.     -02
 1.660  -01 2.67   +00 5.     -02
 1.680  -01 2.82   +00 5.     -02
 1.700  -01 2.86   +00 5.     -02
 1.720  -01 3.12   +00 5.     -02
 1.740  -01 3.06   +00 7.     -02
 1.760  -01 3.32   +00 7.     -02
 1.780  -01 3.43   +00 7.     -02
 1.800  -01 3.78   +00 7.     -02
 1.820  -01 3.76   +00 7.     -02
 1.840  -01 3.83   +00 7.     -02
 1.860  -01 4.03   +00 7.     -02
 1.880  -01 4.29   +00 7.     -02
 1.900  -01 4.58   +00 7.     -02
 1.920  -01 4.49   +00 9.     -02
 1.940  -01 4.75   +00 1.0    -01
 1.960  -01 5.01   +00 1.0    -01
 1.980  -01 5.21   +00 1.0    -01
 2.000  -01 5.38   +00 1.0    -01
 2.020  -01 5.57   +00 1.0    -01
 2.040  -01 6.04   +00 1.1    -01
 2.060  -01 6.21   +00 1.1    -01
 2.080  -01 6.51   +00 1.0    -01
 2.100  -01 6.66   +00 1.0    -01
 2.120  -01 7.00   +00 1.0    -01
 2.140  -01 7.17   +00 1.0    -01
 2.160  -01 7.55   +00 1.0    -01
 2.160  -01 7.83   +00 1.0    -01
 2.180  -01 7.59   +00 1.0    -01
 2.180  -01 7.92   +00 1.0    -01
 2.190  -01 8.29   +00 1.9    -01
 2.200  -01 8.26   +00 1.9    -01
 2.200  -01 8.33   +00 1.0    -01
 2.210  -01 8.50   +00 1.9    -01
 2.220  -01 8.84   +00 1.0    -01
 2.240  -01 8.64   +00 1.0    -01
 2.240  -01 8.69   +00 1.0    -01
 2.260  -01 8.99   +00 1.0    -01
 2.280  -01 9.43   +00 1.6    -01
 2.300  -01 1.033  +01 1.7    -01
 2.320  -01 9.98   +00 1.7    -01
 2.330  -01 9.90   +00 1.7    -01
 2.340  -01 9.81   +00 1.7    -01
 2.350  -01 9.94   +00 1.7    -01
 2.360  -01 1.034  +01 1.7    -01
 2.370  -01 1.049  +01 1.7    -01
 2.380  -01 1.095  +01 1.7    -01
 2.390  -01 1.072  +01 1.7    -01
 2.400  -01 1.032  +01 1.6    -01
 2.410  -01 1.057  +01 1.6    -01
 2.410  -01 1.078  +01 1.6    -01
 2.420  -01 1.002  +01 1.6    -01
 2.420  -01 1.116  +01 1.6    -01
 2.430  -01 1.072  +01 1.6    -01
 2.440  -01 1.057  +01 1.6    -01
 2.450  -01 1.060  +01 1.6    -01
 2.460  -01 1.073  +01 1.6    -01
 2.470  -01 1.101  +01 1.6    -01
 2.480  -01 1.080  +01 1.6    -01
 2.490  -01 1.092  +01 1.6    -01
 2.500  -01 1.091  +01 1.6    -01
 2.510  -01 1.082  +01 1.6    -01
 2.520  -01 1.125  +01 1.6    -01
 2.530  -01 1.072  +01 1.6    -01
 2.540  -01 1.078  +01 1.7    -01
 2.550  -01 1.028  +01 1.6    -01
 2.560  -01 1.064  +01 1.7    -01
 2.570  -01 1.029  +01 1.7    -01
 2.580  -01 1.055  +01 1.7    -01
 2.590  -01 1.061  +01 1.7    -01
 2.600  -01 1.025  +01 1.6    -01
 2.610  -01 1.073  +01 1.6    -01
 2.620  -01 9.85   +00 1.6    -01
 2.630  -01 1.024  +01 1.6    -01
 2.640  -01 9.70   +00 1.6    -01
 2.650  -01 9.65   +00 1.6    -01
 2.660  -01 9.26   +00 1.6    -01
 2.670  -01 9.46   +00 1.6    -01
 2.680  -01 9.50   +00 1.6    -01
 2.690  -01 9.10   +00 1.6    -01
 2.700  -01 9.26   +00 1.6    -01
 2.710  -01 9.06   +00 1.1    -01
 2.720  -01 9.09   +00 1.1    -01
 2.740  -01 8.76   +00 1.1    -01
 2.760  -01 8.56   +00 1.1    -01
 2.780  -01 8.46   +00 1.1    -01
 2.800  -01 8.29   +00 1.1    -01
 2.820  -01 7.69   +00 1.1    -01
 2.840  -01 7.89   +00 1.1    -01
 2.860  -01 7.44   +00 1.1    -01
 2.880  -01 7.10   +00 1.1    -01
 2.900  -01 7.34   +00 1.1    -01
 2.920  -01 6.55   +00 9.     -02
 2.940  -01 6.62   +00 9.     -02
 2.960  -01 6.55   +00 9.     -02
 2.980  -01 6.69   +00 9.     -02
 3.000  -01 6.18   +00 9.     -02
 3.020  -01 5.82   +00 9.     -02
 3.040  -01 5.50   +00 9.     -02
 3.060  -01 5.45   +00 9.     -02
 3.080  -01 5.69   +00 9.     -02
 3.100  -01 5.48   +00 9.     -02
 3.120  -01 5.51   +00 9.     -02
 3.140  -01 5.12   +00 9.     -02
 3.160  -01 5.05   +00 9.     -02
 3.180  -01 5.02   +00 9.     -02
 3.200  -01 4.81   +00 9.     -02
 3.220  -01 4.84   +00 9.     -02
 3.240  -01 4.78   +00 8.     -02
 3.260  -01 4.62   +00 8.     -02
 3.280  -01 4.55   +00 8.     -02
 3.300  -01 4.46   +00 8.     -02
 3.320  -01 4.34   +00 8.     -02
 3.340  -01 4.40   +00 8.     -02
 3.360  -01 4.02   +00 8.     -02
 3.380  -01 4.08   +00 8.     -02
 3.400  -01 3.91   +00 8.     -02
 3.420  -01 3.90   +00 8.     -02
 3.440  -01 3.62   +00 8.     -02
 3.460  -01 3.68   +00 6.     -02
 3.480  -01 3.71   +00 6.     -02
 3.500  -01 3.91   +00 6.     -02
 3.510  -01 3.57   +00 7.     -02
 3.520  -01 3.56   +00 7.     -02
 3.520  -01 3.76   +00 6.     -02
 3.540  -01 3.46   +00 7.     -02
 3.540  -01 3.71   +00 6.     -02
 3.560  -01 3.42   +00 7.     -02
 3.560  -01 3.54   +00 6.     -02
 3.580  -01 3.46   +00 7.     -02
 3.600  -01 3.33   +00 7.     -02
 3.620  -01 3.47   +00 7.     -02
 3.640  -01 3.45   +00 7.     -02
 3.660  -01 3.28   +00 6.     -02
 3.680  -01 3.32   +00 6.     -02
 3.700  -01 3.14   +00 6.     -02
 3.720  -01 3.17   +00 6.     -02
 3.740  -01 3.27   +00 6.     -02
 3.760  -01 3.12   +00 6.     -02
 3.780  -01 2.93   +00 6.     -02
 3.790  -01 3.09   +00 6.     -02
 3.800  -01 3.00   +00 6.     -02
 3.820  -01 3.07   +00 6.     -02
 3.840  -01 2.99   +00 6.     -02
 3.850  -01 2.89   +00 6.     -02
 3.860  -01 3.06   +00 7.     -02
 3.870  -01 2.91   +00 6.     -02
 3.880  -01 2.84   +00 6.     -02
 3.900  -01 2.81   +00 6.     -02
 3.920  -01 2.95   +00 6.     -02
 3.940  -01 2.87   +00 6.     -02
 3.960  -01 2.77   +00 6.     -02
 3.980  -01 2.63   +00 6.     -02
 4.000  -01 2.71   +00 6.     -02
 4.020  -01 2.70   +00 6.     -02
 4.040  -01 2.71   +00 6.     -02
 4.060  -01 2.64   +00 6.     -02
 4.080  -01 2.59   +00 6.     -02
 4.110  -01 2.58   +00 6.     -02
 4.130  -01 2.62   +00 6.     -02
 4.150  -01 2.57   +00 1.2    -01
 4.160  -01 2.59   +00 5.     -02
 4.180  -01 2.59   +00 1.2    -01
 4.200  -01 2.56   +00 1.2    -01
 4.240  -01 2.48   +00 3.     -02
 4.260  -01 2.48   +00 3.     -02
 4.280  -01 2.4    +00 3.     -01
 4.300  -01 2.34   +00 3.     -02
 4.320  -01 2.34   +00 3.     -02
 4.340  -01 2.36   +00 3.     -02
 4.380  -01 2.35   +00 3.     -02
 4.400  -01 2.22   +00 3.     -02
 4.420  -01 2.28   +00 2.     -02
 4.440  -01 2.20   +00 2.     -02
 4.460  -01 2.20   +00 2.     -02
 4.480  -01 2.26   +00 2.     -02
 4.500  -01 2.29   +00 2.     -02
 4.520  -01 2.22   +00 2.     -02
 4.540  -01 2.30   +00 2.     -02
 4.560  -01 2.17   +00 2.     -02
 4.580  -01 2.17   +00 2.     -02
 4.600  -01 2.16   +00 2.     -02
 4.620  -01 2.15   +00 2.     -02
 4.640  -01 2.16   +00 2.     -02
 4.660  -01 2.16   +00 2.     -02
 4.680  -01 2.07   +00 2.     -02
 4.700  -01 2.07   +00 2.     -02
 4.720  -01 2.14   +00 2.     -02
 4.740  -01 2.14   +00 2.     -02
 4.760  -01 2.06   +00 2.     -02
 4.780  -01 2.01   +00 2.     -02
 4.800  -01 2.02   +00 2.     -02
 4.820  -01 2.04   +00 2.     -02
 4.840  -01 2.05   +00 2.     -02
 4.860  -01 2.12   +00 2.     -02
 4.880  -01 2.00   +00 2.     -02
 4.900  -01 2.01   +00 2.     -02
 4.920  -01 1.96   +00 2.     -02
 4.940  -01 1.96   +00 2.     -02
 4.960  -01 1.94   +00 2.     -02
 4.980  -01 1.97   +00 2.     -02
 5.000  -01 1.84   +00 2.     -02
 5.020  -01 1.95   +00 2.     -02
 5.040  -01 1.93   +00 2.     -02
 5.060  -01 1.96   +00 2.     -02
 5.080  -01 2.01   +00 2.     -02
 5.100  -01 1.91   +00 2.     -02
 5.120  -01 1.89   +00 2.     -02
 5.140  -01 1.91   +00 2.     -02
 5.160  -01 1.96   +00 2.     -02
 5.180  -01 1.82   +00 2.     -02
 5.200  -01 1.86   +00 2.     -02
 5.220  -01 1.90   +00 2.     -02
 5.240  -01 1.85   +00 2.     -02
 5.260  -01 1.82   +00 2.     -02
 5.280  -01 1.84   +00 2.     -02
 5.300  -01 1.51   +00 2.     -02
 5.320  -01 1.86   +00 2.     -02
 5.340  -01 1.87   +00 2.     -02
 5.360  -01 1.85   +00 2.     -02
 5.380  -01 1.75   +00 2.     -02
 5.400  -01 1.82   +00 2.     -02
 5.420  -01 1.83   +00 2.     -02
 5.440  -01 1.80   +00 2.     -02
 5.460  -01 1.77   +00 2.     -02
 5.480  -01 1.84   +00 2.     -02
 5.500  -01 1.74   +00 2.     -02
 5.520  -01 1.71   +00 2.     -02
 5.540  -01 1.84   +00 2.     -02
 5.560  -01 1.52   +00 2.     -02
 5.640  -01 1.70   +00 2.     -02
 5.720  -01 1.66   +00 2.     -02
 5.740  -01 1.70   +00 2.     -02
 5.860  -01 1.59   +00 2.     -02
 5.88   -01 1.59   +00 2.     -02
 5.880  -01 1.65   +00 2.     -02
 5.900  -01 1.62   +00 2.     -02
 5.920  -01 1.60   +00 2.     -02
 5.940  -01 1.59   +00 2.     -02
 5.960  -01 1.68   +00 2.     -02
 6.000  -01 1.64   +00 2.     -02
 6.060  -01 1.64   +00 2.     -02
 6.080  -01 1.62   +00 2.     -02
 6.100  -01 1.67   +00 2.     -02
 6.120  -01 1.62   +00 2.     -02
 6.140  -01 1.68   +00 2.     -02
 6.160  -01 1.61   +00 2.     -02
 6.180  -01 1.59   +00 2.     -02
 6.200  -01 1.65   +00 2.     -02
 6.220  -01 1.62   +00 2.     -02
 6.240  -01 1.60   +00 2.     -02
 6.260  -01 1.62   +00 2.     -02
 6.280  -01 1.57   +00 2.     -02
 6.300  -01 1.60   +00 2.     -02
 6.320  -01 1.62   +00 2.     -02
 6.340  -01 1.57   +00 2.     -02
 6.360  -01 1.62   +00 2.     -02
 6.380  -01 1.55   +00 2.     -02
 6.400  -01 1.60   +00 2.     -02
 6.420  -01 1.56   +00 2.     -02
 6.440  -01 1.60   +00 2.     -02
 6.460  -01 1.61   +00 2.     -02
 6.480  -01 1.63   +00 2.     -02
 6.500  -01 1.52   +00 2.     -02
 6.520  -01 1.58   +00 2.     -02
 6.540  -01 1.57   +00 2.     -02
 6.560  -01 1.56   +00 2.     -02
 6.580  -01 1.54   +00 2.     -02
 6.600  -01 1.58   +00 2.     -02
 6.620  -01 1.52   +00 2.     -02
 6.640  -01 1.59   +00 2.     -02
 6.660  -01 1.56   +00 2.     -02
 6.680  -01 1.51   +00 2.     -02
 6.700  -01 1.53   +00 2.     -02
 6.720  -01 1.52   +00 2.     -02
 6.740  -01 1.54   +00 2.     -02
 6.760  -01 1.57   +00 2.     -02
 6.780  -01 1.46   +00 2.     -02
 6.800  -01 1.50   +00 2.     -02
 6.820  -01 1.55   +00 2.     -02
 6.840  -01 1.54   +00 2.     -02
 6.860  -01 1.49   +00 2.     -02
 6.880  -01 1.54   +00 2.     -02
 6.900  -01 1.53   +00 2.     -02
 6.920  -01 1.49   +00 2.     -02
 6.940  -01 1.50   +00 2.     -02
 6.960  -01 1.49   +00 2.     -02
 6.980  -01 1.54   +00 2.     -02
 7.000  -01 1.49   +00 2.     -02
 7.020  -01 1.51   +00 2.     -02
 7.040  -01 1.48   +00 2.     -02
 7.060  -01 1.51   +00 2.     -02
 7.080  -01 1.49   +00 2.     -02
 7.100  -01 1.50   +00 2.     -02
 7.120  -01 1.52   +00 2.     -02
 7.140  -01 1.47   +00 2.     -02
 7.160  -01 1.50   +00 2.     -02
 7.180  -01 1.53   +00 2.     -02
 7.200  -01 1.48   +00 2.     -02
 7.220  -01 1.52   +00 2.     -02
 7.240  -01 1.50   +00 2.     -02
 7.260  -01 1.47   +00 2.     -02
 7.280  -01 1.56   +00 2.     -02
 7.300  -01 1.52   +00 2.     -02
 7.320  -01 1.50   +00 2.     -02
 7.340  -01 1.52   +00 2.     -02
 7.360  -01 1.54   +00 2.     -02
 7.380  -01 1.51   +00 2.     -02
 7.400  -01 1.47   +00 2.     -02
 7.420  -01 1.49   +00 2.     -02
 7.440  -01 1.51   +00 2.     -02
 7.460  -01 1.58   +00 2.     -02
 7.480  -01 1.51   +00 2.     -02
 7.500  -01 1.51   +00 2.     -02
 7.520  -01 1.46   +00 2.     -02
 7.540  -01 1.48   +00 2.     -02
 7.560  -01 1.52   +00 2.     -02
 7.580  -01 1.55   +00 2.     -02
 7.600  -01 1.50   +00 2.     -02
 7.620  -01 1.47   +00 2.     -02
 7.640  -01 1.47   +00 2.     -02
 7.660  -01 1.57   +00 2.     -02
 7.680  -01 1.52   +00 2.     -02
 7.700  -01 1.51   +00 2.     -02
 7.720  -01 1.51   +00 2.     -02
 7.740  -01 1.54   +00 2.     -02
 7.760  -01 1.51   +00 2.     -02
 7.780  -01 1.49   +00 2.     -02
 7.800  -01 1.53   +00 2.     -02
 7.820  -01 1.50   +00 2.     -02
 7.840  -01 1.56   +00 2.     -02
 7.860  -01 1.52   +00 2.     -02
 7.880  -01 1.57   +00 2.     -02
 7.900  -01 1.51   +00 2.     -02
 7.920  -01 1.47   +00 2.     -02
 7.940  -01 1.51   +00 2.     -02
 7.960  -01 1.54   +00 2.     -02
 7.980  -01 1.57   +00 2.     -02
 8.000  -01 1.48   +00 2.     -02
 8.020  -01 1.49   +00 2.     -02
 8.040  -01 1.51   +00 2.     -02
 8.060  -01 1.44   +00 2.     -02
 8.080  -01 1.47   +00 2.     -02
 8.100  -01 1.53   +00 2.     -02
 8.120  -01 1.51   +00 2.     -02
 8.140  -01 1.47   +00 2.     -02
 8.160  -01 1.52   +00 2.     -02
 8.180  -01 1.51   +00 2.     -02
 8.200  -01 1.49   +00 2.     -02
 8.220  -01 1.51   +00 2.     -02
 8.240  -01 1.44   +00 2.     -02
 8.260  -01 1.50   +00 2.     -02
 8.280  -01 1.51   +00 2.     -02
 8.300  -01 1.48   +00 2.     -02
 8.320  -01 1.48   +00 2.     -02
 8.340  -01 1.48   +00 2.     -02
 8.360  -01 1.49   +00 2.     -02
 8.380  -01 1.49   +00 2.     -02
 8.400  -01 1.49   +00 2.     -02
 8.420  -01 1.45   +00 2.     -02
 8.440  -01 1.50   +00 2.     -02
 8.460  -01 1.49   +00 2.     -02
 8.480  -01 1.47   +00 2.     -02
 8.500  -01 1.41   +00 2.     -02
 8.520  -01 1.45   +00 2.     -02
 8.540  -01 1.47   +00 2.     -02
 8.560  -01 1.42   +00 2.     -02
 8.580  -01 1.42   +00 2.     -02
 8.600  -01 1.47   +00 2.     -02
 8.620  -01 1.42   +00 2.     -02
 8.640  -01 1.48   +00 2.     -02
 8.660  -01 1.43   +00 2.     -02
 8.680  -01 1.43   +00 2.     -02
 8.700  -01 1.43   +00 2.     -02
 8.720  -01 1.43   +00 2.     -02
 8.740  -01 1.42   +00 2.     -02
 8.760  -01 1.43   +00 2.     -02
 8.780  -01 1.41   +00 2.     -02
 8.800  -01 1.41   +00 2.     -02
 8.820  -01 1.38   +00 2.     -02
 8.840  -01 1.39   +00 2.     -02
 8.860  -01 1.46   +00 2.     -02
 8.880  -01 1.40   +00 2.     -02
 8.900  -01 1.41   +00 2.     -02
 8.920  -01 1.47   +00 2.     -02
 8.940  -01 1.42   +00 2.     -02
 8.960  -01 1.43   +00 2.     -02
 8.980  -01 1.33   +00 2.     -02
 9.000  -01 1.37   +00 2.     -02
 9.020  -01 1.43   +00 2.     -02
 9.040  -01 1.37   +00 2.     -02
 9.060  -01 1.39   +00 2.     -02
 9.080  -01 1.39   +00 2.     -02
 9.100  -01 1.39   +00 2.     -02
 9.120  -01 1.43   +00 2.     -02
 9.140  -01 1.43   +00 2.     -02
 9.160  -01 1.39   +00 2.     -02
 9.180  -01 1.39   +00 2.     -02
 9.200  -01 1.45   +00 2.     -02
 9.220  -01 1.47   +00 2.     -02
 9.240  -01 1.42   +00 2.     -02
 9.260  -01 1.42   +00 2.     -02
 9.280  -01 1.43   +00 2.     -02
 9.300  -01 1.35   +00 2.     -02
 9.320  -01 1.32   +00 2.     -02
 9.340  -01 1.38   +00 2.     -02
 9.360  -01 1.36   +00 2.     -02
 9.380  -01 1.39   +00 2.     -02
 9.400  -01 1.42   +00 2.     -02
 9.420  -01 1.40   +00 2.     -02
 9.440  -01 1.35   +00 2.     -02
 9.460  -01 1.34   +00 2.     -02
 9.480  -01 1.35   +00 2.     -02
 9.500  -01 1.37   +00 2.     -02
 9.520  -01 1.37   +00 2.     -02
 9.540  -01 1.42   +00 2.     -02
 9.560  -01 1.38   +00 2.     -02
 9.580  -01 1.32   +00 2.     -02
 9.600  -01 1.34   +00 2.     -02
 9.620  -01 1.40   +00 2.     -02
 9.640  -01 1.36   +00 2.     -02
 9.660  -01 1.36   +00 2.     -02
 9.680  -01 1.38   +00 2.     -02
 9.700  -01 1.39   +00 2.     -02
 9.720  -01 1.38   +00 2.     -02
 9.740  -01 1.39   +00 2.     -02
 9.760  -01 1.38   +00 2.     -02
 9.780  -01 1.34   +00 2.     -02
 9.800  -01 1.33   +00 2.     -02
 9.820  -01 1.40   +00 2.     -02
 9.840  -01 1.38   +00 2.     -02
 9.860  -01 1.34   +00 2.     -02
 9.880  -01 1.29   +00 2.     -02
 9.900  -01 1.30   +00 2.     -02
 9.920  -01 1.27   +00 2.     -02
 9.940  -01 1.36   +00 2.     -02
 9.960  -01 1.32   +00 2.     -02
 9.980  -01 1.35   +00 2.     -02
 1.000  +00 1.31   +00 2.     -02
 1.002  +00 1.33   +00 2.     -02
 1.004  +00 1.35   +00 2.     -02
 1.006  +00 1.35   +00 2.     -02
 1.008  +00 1.35   +00 2.     -02
 1.010  +00 1.32   +00 2.     -02
 1.012  +00 1.31   +00 2.     -02
 1.014  +00 1.29   +00 2.     -02
 1.016  +00 1.29   +00 2.     -02
 1.018  +00 1.30   +00 2.     -02
 1.020  +00 1.30   +00 2.     -02
 1.022  +00 1.36   +00 2.     -02
 1.024  +00 1.28   +00 2.     -02
 1.026  +00 1.31   +00 2.     -02
 1.028  +00 1.33   +00 2.     -02
 1.030  +00 1.36   +00 2.     -02
 1.032  +00 1.33   +00 2.     -02
 1.038  +00 1.35   +00 2.     -02
 1.040  +00 1.36   +00 2.     -02
 1.042  +00 1.28   +00 2.     -02
 1.044  +00 1.30   +00 2.     -02
 1.046  +00 1.30   +00 2.     -02
 1.048  +00 1.33   +00 2.     -02
 1.050  +00 1.31   +00 2.     -02
 1.052  +00 1.36   +00 2.     -02
 1.056  +00 1.28   +00 2.     -02
 1.058  +00 1.35   +00 2.     -02
 1.060  +00 1.35   +00 2.     -02
 1.062  +00 1.27   +00 2.     -02
 1.064  +00 1.26   +00 2.     -02
 1.066  +00 1.32   +00 2.     -02
 1.068  +00 1.34   +00 2.     -02
 1.070  +00 1.28   +00 2.     -02
 1.072  +00 1.33   +00 2.     -02
 1.074  +00 1.31   +00 2.     -02
 1.076  +00 1.28   +00 2.     -02
 1.078  +00 1.37   +00 2.     -02
 1.080  +00 1.33   +00 2.     -02
 1.082  +00 1.29   +00 2.     -02
 1.084  +00 1.28   +00 2.     -02
 1.086  +00 1.27   +00 2.     -02
 1.088  +00 1.31   +00 2.     -02
 1.090  +00 1.30   +00 2.     -02
 1.092  +00 1.28   +00 2.     -02
 1.094  +00 1.27   +00 2.     -02
 1.096  +00 1.30   +00 2.     -02
 1.098  +00 1.31   +00 2.     -02
 1.100  +00 1.32   +00 2.     -02
 1.102  +00 1.33   +00 2.     -02
 1.104  +00 1.34   +00 2.     -02
 1.106  +00 1.32   +00 2.     -02
 1.108  +00 1.29   +00 2.     -02
 1.110  +00 1.30   +00 2.     -02
 1.112  +00 1.27   +00 2.     -02
 1.114  +00 1.29   +00 2.     -02
 1.116  +00 1.28   +00 2.     -02
 1.118  +00 1.35   +00 2.     -02
 1.120  +00 1.29   +00 2.     -02
 1.122  +00 1.34   +00 2.     -02
 1.124  +00 1.29   +00 2.     -02
 1.126  +00 1.24   +00 2.     -02
 1.128  +00 1.28   +00 2.     -02
 1.130  +00 1.30   +00 2.     -02
 1.132  +00 1.29   +00 2.     -02
 1.134  +00 1.28   +00 2.     -02
 1.136  +00 1.29   +00 2.     -02
 1.138  +00 1.28   +00 2.     -02
 1.140  +00 1.31   +00 2.     -02
 1.142  +00 1.27   +00 2.     -02
 1.144  +00 1.27   +00 2.     -02
 1.146  +00 1.32   +00 2.     -02
 1.148  +00 1.25   +00 2.     -02
 1.150  +00 1.32   +00 2.     -02
 1.152  +00 1.33   +00 2.     -02
 1.154  +00 1.24   +00 2.     -02
 1.156  +00 1.31   +00 2.     -02
 1.158  +00 1.25   +00 2.     -02
 1.160  +00 1.31   +00 2.     -02
 1.162  +00 1.33   +00 2.     -02
 1.164  +00 1.29   +00 2.     -02
 1.166  +00 1.27   +00 2.     -02
 1.168  +00 1.26   +00 2.     -02
 1.170  +00 1.25   +00 2.     -02
 1.172  +00 1.24   +00 2.     -02
 1.174  +00 1.20   +00 2.     -02
 1.176  +00 1.32   +00 2.     -02
 1.178  +00 1.27   +00 2.     -02
 1.180  +00 1.32   +00 2.     -02
 1.182  +00 1.29   +00 2.     -02
 1.184  +00 1.34   +00 2.     -02
 1.186  +00 1.25   +00 2.     -02
 1.188  +00 1.29   +00 2.     -02
 1.190  +00 1.27   +00 2.     -02
 1.192  +00 1.22   +00 2.     -02
 1.194  +00 1.25   +00 2.     -02
 1.196  +00 1.31   +00 2.     -02
 1.198  +00 1.27   +00 2.     -02
 1.200  +00 1.31   +00 2.     -02
 1.202  +00 1.30   +00 2.     -02
 1.204  +00 1.29   +00 2.     -02
 1.206  +00 1.26   +00 2.     -02
 1.208  +00 1.28   +00 2.     -02
 1.210  +00 1.23   +00 2.     -02
 1.212  +00 1.22   +00 2.     -02
 1.214  +00 1.27   +00 2.     -02
 1.216  +00 1.32   +00 2.     -02
 1.218  +00 1.32   +00 2.     -02
 1.220  +00 1.28   +00 2.     -02
 1.222  +00 1.25   +00 2.     -02
 1.224  +00 1.24   +00 2.     -02
 1.226  +00 1.31   +00 2.     -02
 1.228  +00 1.28   +00 2.     -02
 1.230  +00 1.31   +00 2.     -02
 1.232  +00 1.27   +00 2.     -02
 1.234  +00 1.26   +00 2.     -02
 1.236  +00 1.31   +00 2.     -02
 1.340  +00 1.32   +00 2.     -02
 1.360  +00 1.36   +00 2.     -02
ENDDATA            580
ENDSUBENT          587
SUBENT        11163006     800814              20050926       0000
BIB                  2          2
REACTION   (3-LI-6(N,TOT),,SIG)
METHOD     SELF DETECTION. 0DEG.
ENDBIB               2
NOCOMMON             0          0
DATA                 3         42
EN         DATA       DATA-ERR
MEV        B          B
 2.320  -01 1.014  +01 3.1    -01
 2.330  -01 1.083  +01 3.1    -01
 2.340  -01 1.036  +01 3.2    -01
 2.350  -01 1.120  +01 3.2    -01
 2.360  -01 1.080  +01 3.2    -01
 2.370  -01 1.082  +01 3.2    -01
 2.380  -01 1.188  +01 3.2    -01
 2.390  -01 1.153  +01 3.3    -01
 2.400  -01 1.160  +01 2.8    -01
 2.410  -01 1.141  +01 2.8    -01
 2.410  -01 1.155  +01 2.8    -01
 2.420  -01 1.089  +01 2.8    -01
 2.420  -01 1.166  +01 2.8    -01
 2.430  -01 1.065  +01 2.8    -01
 2.440  -01 1.160  +01 2.7    -01
 2.450  -01 1.093  +01 2.7    -01
 2.460  -01 1.128  +01 2.8    -01
 2.470  -01 1.083  +01 2.8    -01
 2.480  -01 1.166  +01 2.9    -01
 2.490  -01 1.060  +01 2.9    -01
 2.500  -01 1.096  +01 2.9    -01
 2.500  -01 1.110  +01 2.9    -01
 2.510  -01 1.132  +01 2.9    -01
 2.520  -01 1.096  +01 2.9    -01
 2.530  -01 1.153  +01 2.9    -01
 2.540  -01 1.168  +01 2.9    -01
 2.550  -01 1.033  +01 3.0    -01
 2.560  -01 1.066  +01 3.0    -01
 2.570  -01 1.109  +01 3.0    -01
 2.580  -01 1.067  +01 3.0    -01
 2.590  -01 1.123  +01 3.0    -01
 2.600  -01 1.044  +01 2.9    -01
 2.610  -01 9.97   +00 2.9    -01
 2.620  -01 1.070  +01 2.9    -01
 2.630  -01 9.80   +00 2.9    -01
 2.640  -01 1.023  +01 2.9    -01
 2.650  -01 9.79   +00 3.0    -01
 2.660  -01 9.75   +00 2.9    -01
 2.670  -01 9.99   +00 3.0    -01
 2.680  -01 9.59   +00 3.0    -01
 2.690  -01 9.47   +00 3.0    -01
 2.700  -01 9.35   +00 3.0    -01
ENDDATA             44
ENDSUBENT           51
SUBENT        11163007     800814              20050926       0000
BIB                  2          2
REACTION   (3-LI-7(N,TOT),,SIG)
METHOD     FLAT DETECTION. 120DEG.
ENDBIB               2
NOCOMMON             0          0
DATA                 3         84
EN         DATA       DATA-ERR
MEV        B          B
 1.00   -02 1.10   +00 3.     -02
 1.20   -02 1.07   +00 3.     -02
 1.40   -02 1.03   +00 3.     -02
 1.60   -02 1.06   +00 3.     -02
 1.80   -02 1.08   +00 3.     -02
 2.00   -02 9.7    -01 2.     -02
 2.20   -02 1.04   +00 2.     -02
 2.40   -02 1.06   +00 2.     -02
 2.60   -02 1.08   +00 2.     -02
 2.80   -02 1.05   +00 2.     -02
 3.00   -02 1.04   +00 2.     -02
 3.20   -02 1.08   +00 2.     -02
 3.40   -02 1.05   +00 2.     -02
 3.60   -02 1.10   +00 2.     -02
 3.80   -02 1.04   +00 2.     -02
 4.00   -02 1.05   +00 2.     -02
 4.20   -02 1.06   +00 2.     -02
 4.40   -02 1.01   +00 2.     -02
 4.60   -02 1.05   +00 2.     -02
 4.80   -02 1.01   +00 2.     -02
 5.05   -02 1.05   +00 2.     -02
 5.25   -02 1.01   +00 2.     -02
 5.45   -02 1.02   +00 2.     -02
 5.65   -02 9.5    -01 2.     -02
 5.85   -02 1.03   +00 2.     -02
 6.05   -02 1.02   +00 2.     -02
 6.25   -02 1.01   +00 2.     -02
 6.45   -02 1.03   +00 2.     -02
 6.65   -02 1.01   +00 2.     -02
 6.85   -02 9.8    -01 2.     -02
 7.05   -02 1.08   +00 2.     -02
 7.25   -02 1.01   +00 2.     -02
 7.45   -02 9.9    -01 2.     -02
 7.65   -02 1.02   +00 2.     -02
 7.85   -02 9.7    -01 2.     -02
 8.05   -02 1.02   +00 2.     -02
 8.25   -02 1.08   +00 2.     -02
 8.45   -02 1.02   +00 2.     -02
 8.65   -02 1.06   +00 2.     -02
 8.85   -02 1.01   +00 2.     -02
 9.05   -02 1.08   +00 2.     -02
 9.25   -02 1.01   +00 2.     -02
 9.45   -02 1.06   +00 2.     -02
 9.65   -02 9.9    -01 2.     -02
 9.85   -02 1.07   +00 2.     -02
 1.010  -01 1.01   +00 2.     -02
 1.030  -01 1.01   +00 2.     -02
 1.050  -01 9.8    -01 2.     -02
 1.070  -01 9.8    -01 2.     -02
 1.090  -01 1.01   +00 2.     -02
 1.110  -01 1.01   +00 2.     -02
 1.130  -01 9.9    -01 2.     -02
 1.150  -01 9.8    -01 2.     -02
 1.170  -01 9.8    -01 2.     -02
 1.190  -01 9.5    -01 2.     -02
 1.210  -01 1.04   +00 2.     -02
 1.230  -01 9.8    -01 2.     -02
 1.250  -01 9.9    -01 2.     -02
 1.270  -01 9.6    -01 2.     -02
 1.290  -01 1.04   +00 2.     -02
 1.320  -01 1.04   +00 2.     -02
 1.340  -01 1.04   +00 2.     -02
 1.360  -01 9.9    -01 2.     -02
 1.380  -01 1.01   +00 2.     -02
 1.400  -01 1.02   +00 2.     -02
 1.420  -01 1.04   +00 2.     -02
 1.440  -01 1.08   +00 2.     -02
 1.460  -01 1.08   +00 2.     -02
 1.480  -01 1.05   +00 2.     -02
 1.500  -01 1.07   +00 2.     -02
 1.520  -01 1.07   +00 2.     -02
 1.540  -01 1.09   +00 2.     -02
 1.560  -01 1.16   +00 2.     -02
 1.580  -01 1.13   +00 2.     -02
 1.600  -01 1.15   +00 2.     -02
 1.620  -01 1.08   +00 2.     -02
 1.640  -01 1.12   +00 2.     -02
 1.660  -01 1.17   +00 2.     -02
 1.680  -01 1.11   +00 2.     -02
 1.700  -01 1.18   +00 2.     -02
 1.720  -01 1.11   +00 2.     -02
 1.740  -01 1.21   +00 2.     -02
 1.760  -01 1.25   +00 2.     -02
 1.780  -01 1.17   +00 2.     -02
ENDDATA             86
ENDSUBENT           93
SUBENT        11163008     800814              20050926       0000
BIB                  2          2
REACTION   (3-LI-7(N,TOT),,SIG)
METHOD     FLAT DETECTION. 0DEG.
ENDBIB               2
NOCOMMON             0          0
DATA                 3        583
EN         DATA       DATA-ERR
MEV        B          B
 1.300  -01 9.6    -01 2.     -02
 1.310  -01 9.7    -01 2.     -02
 1.320  -01 9.8    -01 2.     -02
 1.330  -01 9.5    -01 2.     -02
 1.340  -01 9.6    -01 2.     -02
 1.350  -01 9.5    -01 2.     -02
 1.360  -01 9.7    -01 2.     -02
 1.365  -01 9.4    -01 2.     -02
 1.380  -01 1.00   +00 2.     -02
 1.400  -01 9.6    -01 2.     -02
 1.420  -01 1.02   +00 2.     -02
 1.440  -01 1.05   +00 2.     -02
 1.460  -01 1.05   +00 2.     -02
 1.480  -01 1.05   +00 2.     -02
 1.500  -01 1.01   +00 2.     -02
 1.520  -01 1.03   +00 2.     -02
 1.540  -01 1.03   +00 3.     -02
 1.560  -01 9.7    -01 3.     -02
 1.570  -01 1.02   +00 3.     -02
 1.580  -01 1.07   +00 3.     -02
 1.600  -01 1.03   +00 3.     -02
 1.620  -01 1.06   +00 3.     -02
 1.640  -01 1.07   +00 3.     -02
 1.660  -01 1.06   +00 3.     -02
 1.680  -01 1.13   +00 3.     -02
 1.700  -01 1.12   +00 3.     -02
 1.720  -01 1.12   +00 3.     -02
 1.740  -01 1.14   +00 3.     -02
 1.760  -01 1.14   +00 3.     -02
 1.780  -01 1.18   +00 3.     -02
 1.800  -01 1.22   +00 3.     -02
 1.820  -01 1.18   +00 3.     -02
 1.840  -01 1.21   +00 3.     -02
 1.860  -01 1.26   +00 3.     -02
 1.880  -01 1.32   +00 3.     -02
 1.900  -01 1.20   +00 3.     -02
 1.920  -01 1.34   +00 3.     -02
 1.940  -01 1.35   +00 3.     -02
 1.960  -01 1.36   +00 3.     -02
 1.980  -01 1.45   +00 3.     -02
 2.000  -01 1.51   +00 3.     -02
 2.020  -01 1.51   +00 3.     -02
 2.040  -01 1.62   +00 4.     -02
 2.060  -01 1.83   +00 4.     -02
 2.080  -01 1.77   +00 4.     -02
 2.100  -01 1.79   +00 4.     -02
 2.120  -01 1.95   +00 4.     -02
 2.140  -01 2.04   +00 5.     -02
 2.160  -01 2.04   +00 5.     -02
 2.160  -01 2.31   +00 4.     -02
 2.180  -01 2.34   +00 5.     -02
 2.180  -01 2.19   +00 4.     -02
 2.200  -01 2.45   +00 5.     -02
 2.200  -01 2.42   +00 4.     -02
 2.220  -01 2.76   +00 4.     -02
 2.240  -01 2.84   +00 4.     -02
 2.260  -01 3.11   +00 4.     -02
 2.280  -01 3.78   +00 6.     -02
 2.300  -01 4.11   +00 6.     -02
 2.320  -01 4.60   +00 6.     -02
 2.330  -01 4.79   +00 9.     -02
 2.340  -01 4.85   +00 9.     -02
 2.350  -01 5.07   +00 9.     -02
 2.360  -01 5.32   +00 9.     -02
 2.370  -01 5.82   +00 9.     -02
 2.380  -01 6.24   +00 9.     -02
 2.390  -01 6.31   +00 9.     -02
 2.400  -01 6.50   +00 1.0    -01
 2.410  -01 7.73   +00 1.0    -01
 2.420  -01 7.26   +00 1.0    -01
 2.430  -01 7.23   +00 1.4    -01
 2.440  -01 7.24   +00 1.4    -01
 2.450  -01 7.14   +00 1.5    -01
 2.460  -01 8.08   +00 1.5    -01
 2.470  -01 8.53   +00 1.5    -01
 2.480  -01 8.58   +00 1.5    -01
 2.490  -01 9.18   +00 1.6    -01
 2.500  -01 9.34   +00 1.6    -01
 2.510  -01 9.65   +00 1.6    -01
 2.520  -01 1.010  +01 1.6    -01
 2.530  -01 1.003  +01 1.6    -01
 2.540  -01 1.000  +01 1.6    -01
 2.550  -01 1.056  +01 1.6    -01
 2.560  -01 1.029  +01 1.6    -01
 2.570  -01 1.030  +01 1.6    -01
 2.580  -01 1.061  +01 1.6    -01
 2.590  -01 1.023  +01 1.6    -01
 2.600  -01 9.68   +00 1.5    -01
 2.610  -01 9.80   +00 1.5    -01
 2.620  -01 9.52   +00 1.5    -01
 2.630  -01 9.91   +00 1.5    -01
 2.640  -01 9.29   +00 1.5    -01
 2.650  -01 8.72   +00 1.5    -01
 2.660  -01 8.51   +00 1.5    -01
 2.670  -01 8.09   +00 1.5    -01
 2.680  -01 8.35   +00 1.5    -01
 2.690  -01 7.62   +00 1.5    -01
 2.700  -01 7.46   +00 1.5    -01
 2.710  -01 7.01   +00 1.1    -01
 2.720  -01 6.90   +00 1.1    -01
 2.740  -01 6.41   +00 1.0    -01
 2.760  -01 5.72   +00 1.0    -01
 2.780  -01 5.38   +00 1.0    -01
 2.800  -01 5.10   +00 1.0    -01
 2.820  -01 4.86   +00 1.0    -01
 2.840  -01 5.29   +00 1.0    -01
 2.860  -01 4.23   +00 9.     -02
 2.880  -01 3.90   +00 9.     -02
 2.900  -01 3.68   +00 9.     -02
 2.920  -01 3.75   +00 6.     -02
 2.940  -01 3.41   +00 6.     -02
 2.960  -01 2.96   +00 6.     -02
 2.980  -01 3.05   +00 6.     -02
 3.000  -01 3.02   +00 6.     -02
 3.020  -01 2.80   +00 6.     -02
 3.040  -01 2.68   +00 6.     -02
 3.060  -01 2.65   +00 6.     -02
 3.080  -01 2.52   +00 6.     -02
 3.100  -01 2.36   +00 6.     -02
 3.120  -01 2.52   +00 6.     -02
 3.140  -01 2.43   +00 6.     -02
 3.160  -01 2.24   +00 6.     -02
 3.180  -01 2.26   +00 6.     -02
 3.200  -01 2.21   +00 6.     -02
 3.220  -01 2.06   +00 6.     -02
 3.240  -01 2.12   +00 6.     -02
 3.260  -01 1.98   +00 6.     -02
 3.280  -01 1.99   +00 6.     -02
 3.300  -01 1.85   +00 6.     -02
 3.320  -01 1.89   +00 6.     -02
 3.340  -01 1.77   +00 4.     -02
 3.360  -01 1.65   +00 4.     -02
 3.380  -01 1.82   +00 4.     -02
 3.400  -01 1.63   +00 4.     -02
 3.420  -01 1.59   +00 4.     -02
 3.440  -01 1.57   +00 3.     -02
 3.460  -01 1.57   +00 3.     -02
 3.480  -01 1.57   +00 3.     -02
 3.500  -01 1.55   +00 3.     -02
 3.510  -01 1.55   +00 5.     -02
 3.520  -01 1.47   +00 3.     -02
 3.520  -01 1.47   +00 5.     -02
 3.540  -01 1.54   +00 3.     -02
 3.540  -01 1.49   +00 5.     -02
 3.560  -01 1.41   +00 3.     -02
 3.560  -01 1.44   +00 5.     -02
 3.580  -01 1.37   +00 5.     -02
 3.600  -01 1.47   +00 5.     -02
 3.620  -01 1.39   +00 5.     -02
 3.640  -01 1.38   +00 5.     -02
 3.660  -01 1.42   +00 4.     -02
 3.680  -01 1.39   +00 4.     -02
 3.700  -01 1.39   +00 4.     -02
 3.720  -01 1.34   +00 4.     -02
 3.740  -01 1.34   +00 4.     -02
 3.760  -01 1.33   +00 4.     -02
 3.780  -01 1.28   +00 4.     -02
 3.790  -01 1.28   +00 4.     -02
 3.800  -01 1.26   +00 4.     -02
 3.820  -01 1.32   +00 4.     -02
 3.840  -01 1.29   +00 4.     -02
 3.850  -01 1.28   +00 4.     -02
 3.860  -01 1.29   +00 4.     -02
 3.870  -01 1.31   +00 4.     -02
 3.880  -01 1.35   +00 4.     -02
 3.900  -01 1.24   +00 4.     -02
 3.920  -01 1.30   +00 4.     -02
 3.940  -01 1.30   +00 4.     -02
 3.960  -01 1.20   +00 4.     -02
 3.980  -01 1.19   +00 4.     -02
 4.000  -01 1.26   +00 4.     -02
 4.020  -01 1.25   +00 4.     -02
 4.040  -01 1.20   +00 4.     -02
 4.060  -01 1.20   +00 4.     -02
 4.080  -01 1.23   +00 4.     -02
 4.110  -01 1.15   +00 4.     -02
 4.130  -01 1.26   +00 4.     -02
 4.150  -01 1.23   +00 4.     -02
 4.160  -01 1.18   +00 3.     -02
 4.170  -01 1.18   +00 4.     -02
 4.200  -01 1.19   +00 4.     -02
 4.220  -01 1.19   +00 4.     -02
 4.240  -01 1.19   +00 2.     -02
 4.260  -01 1.15   +00 2.     -02
 4.280  -01 1.31   +00 2.     -02
 4.300  -01 1.16   +00 2.     -02
 4.320  -01 1.08   +00 2.     -02
 4.340  -01 1.10   +00 2.     -02
 4.360  -01 1.18   +00 2.     -02
 4.380  -01 1.18   +00 2.     -02
 4.400  -01 1.09   +00 2.     -02
 4.420  -01 1.09   +00 2.     -02
 4.440  -01 1.11   +00 2.     -02
 4.460  -01 1.09   +00 2.     -02
 4.480  -01 1.10   +00 2.     -02
 4.500  -01 1.09   +00 2.     -02
 4.520  -01 1.14   +00 2.     -02
 4.540  -01 1.19   +00 2.     -02
 4.560  -01 1.09   +00 2.     -02
 4.580  -01 1.12   +00 2.     -02
 4.600  -01 1.06   +00 2.     -02
 4.620  -01 1.04   +00 2.     -02
 4.640  -01 1.10   +00 2.     -02
 4.660  -01 1.08   +00 2.     -02
 4.680  -01 1.08   +00 2.     -02
 4.700  -01 1.08   +00 2.     -02
 4.720  -01 1.08   +00 2.     -02
 4.740  -01 1.10   +00 2.     -02
 4.760  -01 1.07   +00 2.     -02
 4.780  -01 1.05   +00 2.     -02
 4.800  -01 1.05   +00 2.     -02
 4.820  -01 1.06   +00 2.     -02
 4.840  -01 1.10   +00 2.     -02
 4.860  -01 1.10   +00 2.     -02
 4.880  -01 1.07   +00 2.     -02
 4.900  -01 1.05   +00 2.     -02
 4.920  -01 1.03   +00 2.     -02
 4.940  -01 1.03   +00 2.     -02
 4.960  -01 1.03   +00 2.     -02
 4.980  -01 1.08   +00 2.     -02
 5.000  -01 1.08   +00 2.     -02
 5.020  -01 1.05   +00 2.     -02
 5.040  -01 1.08   +00 2.     -02
 5.060  -01 1.04   +00 2.     -02
 5.080  -01 1.06   +00 2.     -02
 5.100  -01 1.03   +00 2.     -02
 5.120  -01 1.02   +00 2.     -02
 5.140  -01 1.04   +00 2.     -02
 5.160  -01 1.07   +00 2.     -02
 5.180  -01 1.01   +00 2.     -02
 5.200  -01 1.04   +00 2.     -02
 5.220  -01 1.07   +00 2.     -02
 5.240  -01 1.03   +00 2.     -02
 5.260  -01 1.04   +00 2.     -02
 5.280  -01 1.03   +00 2.     -02
 5.300  -01 1.02   +00 2.     -02
 5.320  -01 1.07   +00 2.     -02
 5.340  -01 1.00   +00 2.     -02
 5.360  -01 1.02   +00 2.     -02
 5.380  -01 1.06   +00 2.     -02
 5.400  -01 1.05   +00 2.     -02
 5.420  -01 1.06   +00 2.     -02
 5.440  -01 1.02   +00 2.     -02
 5.460  -01 1.00   +00 2.     -02
 5.480  -01 1.06   +00 2.     -02
 5.500  -01 1.02   +00 2.     -02
 5.520  -01 1.01   +00 2.     -02
 5.540  -01 1.07   +00 2.     -02
 5.560  -01 1.00   +00 2.     -02
 5.580  -01 1.05   +00 2.     -02
 5.600  -01 1.00   +00 2.     -02
 5.620  -01 1.06   +00 2.     -02
 5.640  -01 1.06   +00 2.     -02
 5.660  -01 1.07   +00 2.     -02
 5.680  -01 1.02   +00 2.     -02
 5.700  -01 1.07   +00 2.     -02
 5.720  -01 1.06   +00 2.     -02
 5.740  -01 1.05   +00 2.     -02
 5.760  -01 1.04   +00 2.     -02
 5.780  -01 1.04   +00 2.     -02
 5.800  -01 1.07   +00 2.     -02
 5.820  -01 1.08   +00 2.     -02
 5.840  -01 1.03   +00 2.     -02
 5.860  -01 1.04   +00 2.     -02
 5.880  -01 1.07   +00 2.     -02
 5.900  -01 1.02   +00 2.     -02
 5.920  -01 1.01   +00 2.     -02
 5.940  -01 1.04   +00 2.     -02
 5.960  -01 1.04   +00 2.     -02
 5.980  -01 1.07   +00 2.     -02
 6.000  -01 1.08   +00 2.     -02
 6.020  -01 1.07   +00 2.     -02
 6.040  -01 1.03   +00 2.     -02
 6.060  -01 1.04   +00 2.     -02
 6.080  -01 1.07   +00 2.     -02
 6.100  -01 1.08   +00 2.     -02
 6.120  -01 1.06   +00 2.     -02
 6.140  -01 1.11   +00 2.     -02
 6.160  -01 1.07   +00 2.     -02
 6.180  -01 1.03   +00 2.     -02
 6.200  -01 1.08   +00 2.     -02
 6.220  -01 1.08   +00 2.     -02
 6.240  -01 1.02   +00 2.     -02
 6.260  -01 1.07   +00 2.     -02
 6.280  -01 1.04   +00 2.     -02
 6.300  -01 1.05   +00 2.     -02
 6.320  -01 1.06   +00 2.     -02
 6.340  -01 1.05   +00 2.     -02
 6.360  -01 1.09   +00 2.     -02
 6.380  -01 1.11   +00 2.     -02
 6.400  -01 1.04   +00 2.     -02
 6.420  -01 1.06   +00 2.     -02
 6.440  -01 1.12   +00 2.     -02
 6.460  -01 1.08   +00 2.     -02
 6.480  -01 1.04   +00 2.     -02
 6.500  -01 1.10   +00 2.     -02
 6.520  -01 1.14   +00 2.     -02
 6.540  -01 1.06   +00 2.     -02
 6.560  -01 1.09   +00 2.     -02
 6.580  -01 1.09   +00 2.     -02
 6.600  -01 1.14   +00 2.     -02
 6.620  -01 1.06   +00 2.     -02
 6.640  -01 1.08   +00 2.     -02
 6.660  -01 1.08   +00 2.     -02
 6.680  -01 1.11   +00 2.     -02
 6.700  -01 1.06   +00 2.     -02
 6.720  -01 1.07   +00 2.     -02
 6.740  -01 1.10   +00 2.     -02
 6.760  -01 1.09   +00 2.     -02
 6.780  -01 1.09   +00 2.     -02
 6.800  -01 1.09   +00 2.     -02
 6.820  -01 1.11   +00 2.     -02
 6.840  -01 1.08   +00 2.     -02
 6.860  -01 1.11   +00 2.     -02
 6.880  -01 1.10   +00 2.     -02
 6.900  -01 1.06   +00 2.     -02
 6.920  -01 1.09   +00 2.     -02
 6.940  -01 1.09   +00 2.     -02
 6.960  -01 1.14   +00 2.     -02
 6.980  -01 1.17   +00 2.     -02
 7.000  -01 1.07   +00 2.     -02
 7.020  -01 1.08   +00 2.     -02
 7.040  -01 1.12   +00 2.     -02
 7.060  -01 1.15   +00 2.     -02
 7.080  -01 1.14   +00 2.     -02
 7.100  -01 1.11   +00 2.     -02
 7.120  -01 1.11   +00 2.     -02
 7.140  -01 1.15   +00 2.     -02
 7.160  -01 1.10   +00 2.     -02
 7.180  -01 1.12   +00 2.     -02
 7.200  -01 1.18   +00 2.     -02
 7.220  -01 1.18   +00 2.     -02
 7.240  -01 1.10   +00 2.     -02
 7.260  -01 1.14   +00 2.     -02
 7.280  -01 1.18   +00 2.     -02
 7.300  -01 1.15   +00 2.     -02
 7.320  -01 1.14   +00 2.     -02
 7.340  -01 1.18   +00 2.     -02
 7.360  -01 1.14   +00 2.     -02
 7.380  -01 1.18   +00 2.     -02
 7.400  -01 1.18   +00 2.     -02
 7.420  -01 1.22   +00 2.     -02
 7.440  -01 1.12   +00 2.     -02
 7.460  -01 1.20   +00 2.     -02
 7.480  -01 1.19   +00 2.     -02
 7.500  -01 1.20   +00 2.     -02
 7.520  -01 1.22   +00 2.     -02
 7.540  -01 1.25   +00 2.     -02
 7.560  -01 1.21   +00 2.     -02
 7.580  -01 1.24   +00 2.     -02
 7.600  -01 1.28   +00 2.     -02
 7.620  -01 1.23   +00 2.     -02
 7.640  -01 1.25   +00 2.     -02
 7.660  -01 1.24   +00 2.     -02
 7.680  -01 1.32   +00 2.     -02
 7.700  -01 1.30   +00 2.     -02
 7.720  -01 1.25   +00 2.     -02
 7.740  -01 1.29   +00 2.     -02
 7.760  -01 1.32   +00 2.     -02
 7.780  -01 1.26   +00 2.     -02
 7.800  -01 1.28   +00 2.     -02
 7.820  -01 1.37   +00 2.     -02
 7.840  -01 1.35   +00 2.     -02
 7.860  -01 1.29   +00 2.     -02
 7.880  -01 1.33   +00 2.     -02
 7.900  -01 1.32   +00 2.     -02
 7.920  -01 1.34   +00 2.     -02
 7.940  -01 1.37   +00 2.     -02
 7.960  -01 1.31   +00 2.     -02
 7.980  -01 1.34   +00 2.     -02
 8.000  -01 1.34   +00 2.     -02
 8.020  -01 1.35   +00 2.     -02
 8.040  -01 1.33   +00 2.     -02
 8.060  -01 1.33   +00 2.     -02
 8.080  -01 1.28   +00 2.     -02
 8.100  -01 1.35   +00 2.     -02
 8.120  -01 1.36   +00 2.     -02
 8.140  -01 1.39   +00 2.     -02
 8.160  -01 1.31   +00 2.     -02
 8.180  -01 1.34   +00 2.     -02
 8.200  -01 1.32   +00 2.     -02
 8.220  -01 1.35   +00 2.     -02
 8.240  -01 1.36   +00 2.     -02
 8.260  -01 1.36   +00 2.     -02
 8.280  -01 1.30   +00 2.     -02
 8.300  -01 1.33   +00 2.     -02
 8.320  -01 1.37   +00 2.     -02
 8.340  -01 1.36   +00 2.     -02
 8.360  -01 1.33   +00 2.     -02
 8.380  -01 1.35   +00 2.     -02
 8.400  -01 1.34   +00 2.     -02
 8.420  -01 1.32   +00 2.     -02
 8.440  -01 1.42   +00 2.     -02
 8.460  -01 1.33   +00 2.     -02
 8.480  -01 1.39   +00 2.     -02
 8.500  -01 1.37   +00 2.     -02
 8.520  -01 1.37   +00 2.     -02
 8.540  -01 1.34   +00 2.     -02
 8.560  -01 1.36   +00 2.     -02
 8.580  -01 1.35   +00 2.     -02
 8.600  -01 1.37   +00 2.     -02
 8.620  -01 1.35   +00 2.     -02
 8.640  -01 1.36   +00 2.     -02
 8.660  -01 1.40   +00 2.     -02
 8.680  -01 1.35   +00 2.     -02
 8.700  -01 1.35   +00 2.     -02
 8.720  -01 1.37   +00 2.     -02
 8.740  -01 1.41   +00 2.     -02
 8.760  -01 1.38   +00 2.     -02
 8.780  -01 1.36   +00 2.     -02
 8.800  -01 1.38   +00 2.     -02
 8.820  -01 1.42   +00 2.     -02
 8.840  -01 1.42   +00 2.     -02
 8.860  -01 1.43   +00 2.     -02
 8.880  -01 1.37   +00 2.     -02
 8.900  -01 1.38   +00 2.     -02
 8.920  -01 1.44   +00 2.     -02
 8.940  -01 1.40   +00 2.     -02
 8.960  -01 1.40   +00 2.     -02
 8.980  -01 1.29   +00 2.     -02
 9.000  -01 1.44   +00 2.     -02
 9.020  -01 1.36   +00 2.     -02
 9.040  -01 1.41   +00 2.     -02
 9.060  -01 1.42   +00 2.     -02
 9.080  -01 1.45   +00 2.     -02
 9.100  -01 1.37   +00 2.     -02
 9.120  -01 1.42   +00 2.     -02
 9.140  -01 1.48   +00 2.     -02
 9.160  -01 1.42   +00 2.     -02
 9.180  -01 1.42   +00 2.     -02
 9.200  -01 1.45   +00 2.     -02
 9.220  -01 1.42   +00 2.     -02
 9.240  -01 1.23   +00 2.     -02
 9.260  -01 1.50   +00 2.     -02
 9.280  -01 1.49   +00 2.     -02
 9.300  -01 1.47   +00 2.     -02
 9.320  -01 1.38   +00 2.     -02
 9.340  -01 1.52   +00 2.     -02
 9.360  -01 1.44   +00 2.     -02
 9.380  -01 1.42   +00 2.     -02
 9.400  -01 1.49   +00 2.     -02
 9.420  -01 1.46   +00 2.     -02
 9.440  -01 1.49   +00 2.     -02
 9.460  -01 1.48   +00 2.     -02
 9.480  -01 1.49   +00 2.     -02
 9.500  -01 1.50   +00 2.     -02
 9.520  -01 1.48   +00 2.     -02
 9.540  -01 1.48   +00 2.     -02
 9.560  -01 1.54   +00 2.     -02
 9.580  -01 1.55   +00 2.     -02
 9.600  -01 1.52   +00 2.     -02
 9.620  -01 1.52   +00 2.     -02
 9.640  -01 1.55   +00 2.     -02
 9.660  -01 1.51   +00 2.     -02
 9.680  -01 1.54   +00 2.     -02
 9.700  -01 1.54   +00 2.     -02
 9.720  -01 1.50   +00 2.     -02
 9.740  -01 1.51   +00 2.     -02
 9.760  -01 1.54   +00 2.     -02
 9.780  -01 1.54   +00 2.     -02
 9.800  -01 1.55   +00 2.     -02
 9.820  -01 1.54   +00 2.     -02
 9.840  -01 1.40   +00 2.     -02
 9.860  -01 1.50   +00 2.     -02
 9.880  -01 1.55   +00 2.     -02
 9.900  -01 1.56   +00 2.     -02
 9.920  -01 1.57   +00 2.     -02
 9.940  -01 1.56   +00 2.     -02
 9.960  -01 1.51   +00 2.     -02
 9.980  -01 1.55   +00 2.     -02
 1.000  +00 1.55   +00 2.     -02
 1.002  +00 1.49   +00 2.     -02
 1.004  +00 1.51   +00 2.     -02
 1.006  +00 1.60   +00 2.     -02
 1.008  +00 1.58   +00 2.     -02
 1.010  +00 1.60   +00 2.     -02
 1.012  +00 1.52   +00 2.     -02
 1.014  +00 1.58   +00 2.     -02
 1.016  +00 1.57   +00 2.     -02
 1.018  +00 1.58   +00 2.     -02
 1.020  +00 1.58   +00 2.     -02
 1.022  +00 1.63   +00 2.     -02
 1.024  +00 1.58   +00 2.     -02
 1.026  +00 1.52   +00 2.     -02
 1.028  +00 1.57   +00 2.     -02
 1.030  +00 1.51   +00 2.     -02
 1.032  +00 1.54   +00 2.     -02
 1.034  +00 1.51   +00 2.     -02
 1.036  +00 1.57   +00 2.     -02
 1.038  +00 1.58   +00 2.     -02
 1.040  +00 1.61   +00 2.     -02
 1.042  +00 1.58   +00 2.     -02
 1.044  +00 1.60   +00 2.     -02
 1.046  +00 1.60   +00 2.     -02
 1.048  +00 1.58   +00 2.     -02
 1.050  +00 1.61   +00 2.     -02
 1.052  +00 1.61   +00 2.     -02
 1.056  +00 1.58   +00 2.     -02
 1.058  +00 1.60   +00 2.     -02
 1.060  +00 1.60   +00 2.     -02
 1.062  +00 1.60   +00 2.     -02
 1.064  +00 1.62   +00 2.     -02
 1.066  +00 1.63   +00 2.     -02
 1.068  +00 1.62   +00 2.     -02
 1.070  +00 1.57   +00 2.     -02
 1.072  +00 1.60   +00 2.     -02
 1.074  +00 1.57   +00 2.     -02
 1.076  +00 1.61   +00 2.     -02
 1.078  +00 1.62   +00 2.     -02
 1.080  +00 1.65   +00 2.     -02
 1.082  +00 1.59   +00 2.     -02
 1.084  +00 1.65   +00 2.     -02
 1.086  +00 1.60   +00 2.     -02
 1.088  +00 1.68   +00 2.     -02
 1.090  +00 1.63   +00 2.     -02
 1.092  +00 1.69   +00 2.     -02
 1.094  +00 1.59   +00 2.     -02
 1.096  +00 1.61   +00 2.     -02
 1.098  +00 1.60   +00 2.     -02
 1.100  +00 1.60   +00 2.     -02
 1.102  +00 1.62   +00 2.     -02
 1.104  +00 1.61   +00 2.     -02
 1.106  +00 1.64   +00 2.     -02
 1.108  +00 1.63   +00 2.     -02
 1.110  +00 1.70   +00 2.     -02
 1.112  +00 1.66   +00 2.     -02
 1.114  +00 1.68   +00 2.     -02
 1.116  +00 1.64   +00 2.     -02
 1.118  +00 1.72   +00 2.     -02
 1.120  +00 1.64   +00 2.     -02
 1.122  +00 1.62   +00 2.     -02
 1.124  +00 1.62   +00 2.     -02
 1.126  +00 1.62   +00 2.     -02
 1.128  +00 1.62   +00 2.     -02
 1.130  +00 1.66   +00 2.     -02
 1.132  +00 1.64   +00 2.     -02
 1.134  +00 1.66   +00 2.     -02
 1.136  +00 1.61   +00 2.     -02
 1.138  +00 1.62   +00 2.     -02
 1.140  +00 1.65   +00 2.     -02
 1.142  +00 1.70   +00 2.     -02
 1.144  +00 1.70   +00 2.     -02
 1.146  +00 1.76   +00 2.     -02
 1.148  +00 1.68   +00 2.     -02
 1.150  +00 1.64   +00 2.     -02
 1.152  +00 1.68   +00 2.     -02
 1.154  +00 1.69   +00 2.     -02
 1.156  +00 1.72   +00 2.     -02
 1.158  +00 1.68   +00 2.     -02
 1.160  +00 1.66   +00 2.     -02
 1.162  +00 1.60   +00 2.     -02
 1.164  +00 1.69   +00 2.     -02
 1.166  +00 1.68   +00 2.     -02
 1.168  +00 1.70   +00 2.     -02
 1.170  +00 1.66   +00 2.     -02
 1.172  +00 1.69   +00 2.     -02
 1.174  +00 1.68   +00 2.     -02
 1.176  +00 1.75   +00 2.     -02
 1.178  +00 1.65   +00 2.     -02
 1.180  +00 1.66   +00 2.     -02
 1.182  +00 1.62   +00 2.     -02
 1.184  +00 1.69   +00 2.     -02
 1.186  +00 1.65   +00 2.     -02
 1.188  +00 1.69   +00 2.     -02
 1.190  +00 1.68   +00 2.     -02
 1.192  +00 1.70   +00 2.     -02
 1.194  +00 1.66   +00 2.     -02
 1.196  +00 1.68   +00 2.     -02
 1.198  +00 1.67   +00 2.     -02
 1.200  +00 1.68   +00 2.     -02
 1.202  +00 1.66   +00 2.     -02
 1.204  +00 1.63   +00 2.     -02
 1.206  +00 1.69   +00 2.     -02
 1.208  +00 1.70   +00 2.     -02
 1.210  +00 1.68   +00 2.     -02
 1.212  +00 1.69   +00 2.     -02
 1.214  +00 1.73   +00 2.     -02
 1.216  +00 1.65   +00 2.     -02
 1.218  +00 1.71   +00 2.     -02
 1.220  +00 1.65   +00 2.     -02
 1.222  +00 1.70   +00 2.     -02
 1.224  +00 1.65   +00 2.     -02
 1.226  +00 1.75   +00 2.     -02
ENDDATA            585
ENDSUBENT          592
SUBENT        11163009     800814              20050926       0000
BIB                  2          2
REACTION   (3-LI-7(N,TOT),,SIG)
METHOD     SELF DETECTION. 0DEG.
ENDBIB               2
NOCOMMON             0          0
DATA                 3         31
EN         DATA       DATA-ERR
MEV        B          B
 2.400  -01 6.19   +00 1.4    -01
 2.410  -01 6.72   +00 1.4    -01
 2.420  -01 7.24   +00 1.4    -01
 2.430  -01 7.41   +00 2.0    -01
 2.440  -01 7.33   +00 2.0    -01
 2.450  -01 8.20   +00 2.0    -01
 2.460  -01 8.62   +00 2.0    -01
 2.470  -01 9.06   +00 2.0    -01
 2.480  -01 9.39   +00 2.0    -01
 2.490  -01 9.58   +00 2.1    -01
 2.500  -01 1.025  +01 2.1    -01
 2.510  -01 1.052  +01 2.1    -01
 2.520  -01 1.052  +01 2.1    -01
 2.530  -01 1.140  +01 2.1    -01
 2.540  -01 1.110  +01 2.1    -01
 2.550  -01 1.117  +01 2.1    -01
 2.560  -01 1.149  +01 2.1    -01
 2.570  -01 1.121  +01 2.1    -01
 2.580  -01 1.091  +01 2.1    -01
 2.590  -01 1.061  +01 2.0    -01
 2.600  -01 1.060  +01 1.9    -01
 2.610  -01 1.024  +01 1.9    -01
 2.620  -01 1.036  +01 2.0    -01
 2.630  -01 9.33   +00 2.0    -01
 2.640  -01 1.003  +01 2.0    -01
 2.650  -01 8.97   +00 2.0    -01
 2.660  -01 9.97   +00 2.0    -01
 2.670  -01 8.09   +00 2.0    -01
 2.680  -01 8.02   +00 2.0    -01
 2.690  -01 7.92   +00 2.0    -01
 2.700  -01 8.03   +00 2.0    -01
ENDDATA             33
ENDSUBENT           40
SUBENT        11163010     800814              20050926       0000
BIB                  2          2
REACTION   (3-LI-0(N,TOT),,SIG)
METHOD     FLAT DETECTION. 0DEG.
ENDBIB               2
NOCOMMON             0          0
DATA                 3        585
EN         DATA       DATA-ERR
MEV        B          B
 1.300  -01 1.02   +00 2.     -02
 1.300  -01 1.03   +00 2.     -02
 1.320  -01 1.04   +00 2.     -02
 1.330  -01 1.00   +00 2.     -02
 1.340  -01 1.03   +00 2.     -02
 1.350  -01 1.01   +00 2.     -02
 1.360  -01 1.03   +00 2.     -02
 1.365  -01 1.00   +00 2.     -02
 1.380  -01 1.07   +00 2.     -02
 1.400  -01 1.03   +00 2.     -02
 1.420  -01 1.09   +00 2.     -02
 1.440  -01 1.11   +00 2.     -02
 1.480  -01 1.12   +00 2.     -02
 1.500  -01 1.08   +00 2.     -02
 1.520  -01 1.11   +00 2.     -02
 1.520  -01 1.12   +00 2.     -02
 1.540  -01 1.12   +00 3.     -02
 1.560  -01 1.06   +00 3.     -02
 1.570  -01 1.11   +00 3.     -02
 1.580  -01 1.16   +00 3.     -02
 1.600  -01 1.13   +00 3.     -02
 1.620  -01 1.16   +00 3.     -02
 1.640  -01 1.19   +00 3.     -02
 1.660  -01 1.18   +00 3.     -02
 1.680  -01 1.26   +00 3.     -02
 1.700  -01 1.25   +00 3.     -02
 1.720  -01 1.28   +00 3.     -02
 1.740  -01 1.28   +00 3.     -02
 1.760  -01 1.30   +00 3.     -02
 1.780  -01 1.35   +00 3.     -02
 1.800  -01 1.41   +00 3.     -02
 1.820  -01 1.37   +00 3.     -02
 1.840  -01 1.43   +00 3.     -02
 1.860  -01 1.47   +00 3.     -02
 1.880  -01 1.54   +00 3.     -02
 1.900  -01 1.53   +00 3.     -02
 1.920  -01 1.58   +00 3.     -02
 1.940  -01 1.61   +00 3.     -02
 1.960  -01 1.64   +00 3.     -02
 1.980  -01 1.74   +00 3.     -02
 2.000  -01 1.80   +00 3.     -02
 2.020  -01 1.82   +00 3.     -02
 2.040  -01 1.95   +00 4.     -02
 2.060  -01 2.07   +00 4.     -02
 2.080  -01 2.13   +00 4.     -02
 2.100  -01 2.16   +00 4.     -02
 2.120  -01 2.33   +00 4.     -02
 2.140  -01 2.43   +00 5.     -02
 2.160  -01 2.46   +00 5.     -02
 2.160  -01 2.69   +00 3.     -02
 2.180  -01 2.76   +00 5.     -02
 2.180  -01 2.60   +00 4.     -02
 2.200  -01 2.89   +00 5.     -02
 2.200  -01 2.86   +00 4.     -02
 2.220  -01 3.22   +00 4.     -02
 2.240  -01 3.28   +00 4.     -02
 2.260  -01 3.55   +00 4.     -02
 2.280  -01 4.16   +00 5.     -02
 2.300  -01 4.58   +00 5.     -02
 2.320  -01 5.00   +00 6.     -02
 2.330  -01 5.17   +00 8.     -02
 2.340  -01 5.22   +00 8.     -02
 2.350  -01 5.44   +00 8.     -02
 2.360  -01 5.70   +00 8.     -02
 2.370  -01 6.17   +00 8.     -02
 2.380  -01 6.59   +00 8.     -02
 2.390  -01 6.64   +00 9.     -02
 2.400  -01 6.75   +00 9.     -02
 2.410  -01 7.17   +00 1.0    -01
 2.420  -01 7.25   +00 9.     -02
 2.430  -01 7.44   +00 1.3    -01
 2.440  -01 7.76   +00 1.3    -01
 2.450  -01 7.40   +00 1.3    -01
 2.460  -01 8.29   +00 1.4    -01
 2.470  -01 8.71   +00 1.4    -01
 2.480  -01 8.75   +00 1.4    -01
 2.490  -01 9.31   +00 1.4    -01
 2.500  -01 9.46   +00 1.4    -01
 2.510  -01 9.74   +00 1.4    -01
 2.520  -01 1.018  +01 1.5    -01
 2.530  -01 1.007  +01 1.5    -01
 2.540  -01 1.005  +01 1.5    -01
 2.550  -01 1.054  +01 1.5    -01
 2.560  -01 1.090  +01 1.5    -01
 2.570  -01 1.041  +01 1.5    -01
 2.580  -01 1.050  +01 1.5    -01
 2.590  -01 1.025  +01 1.5    -01
 2.600  -01 9.72   +00 1.5    -01
 2.610  -01 9.87   +00 1.4    -01
 2.620  -01 9.55   +00 1.4    -01
 2.630  -01 9.95   +00 1.4    -01
 2.640  -01 9.32   +00 1.4    -01
 2.650  -01 8.79   +00 1.4    -01
 2.660  -01 8.56   +00 1.4    -01
 2.670  -01 8.17   +00 1.4    -01
 2.680  -01 8.43   +00 1.4    -01
 2.690  -01 7.73   +00 1.4    -01
 2.700  -01 7.58   +00 1.4    -01
 2.710  -01 7.18   +00 1.0    -01
 2.720  -01 7.06   +00 1.0    -01
 2.740  -01 6.59   +00 9.     -02
 2.760  -01 5.93   +00 9.     -02
 2.780  -01 5.61   +00 9.     -02
 2.800  -01 5.34   +00 9.     -02
 2.820  -01 5.00   +00 9.     -02
 2.840  -01 5.25   +00 9.     -02
 2.860  -01 4.51   +00 8.     -02
 2.880  -01 4.14   +00 6.     -02
 2.900  -01 3.95   +00 8.     -02
 2.920  -01 3.92   +00 6.     -02
 2.940  -01 3.65   +00 6.     -02
 2.960  -01 3.39   +00 6.     -02
 2.980  -01 3.32   +00 6.     -02
 3.000  -01 3.25   +00 6.     -02
 3.020  -01 3.01   +00 6.     -02
 3.040  -01 2.89   +00 6.     -02
 3.060  -01 2.86   +00 6.     -02
 3.080  -01 2.76   +00 6.     -02
 3.100  -01 2.59   +00 6.     -02
 3.120  -01 2.74   +00 6.     -02
 3.140  -01 2.63   +00 5.     -02
 3.160  -01 2.45   +00 5.     -02
 3.180  -01 2.47   +00 5.     -02
 3.200  -01 2.40   +00 5.     -02
 3.220  -01 2.27   +00 5.     -02
 3.240  -01 2.32   +00 5.     -02
 3.260  -01 2.17   +00 5.     -02
 3.280  -01 2.18   +00 5.     -02
 3.300  -01 2.04   +00 5.     -02
 3.320  -01 2.08   +00 5.     -02
 3.340  -01 1.97   +00 4.     -02
 3.360  -01 1.83   +00 4.     -02
 3.380  -01 1.99   +00 4.     -02
 3.400  -01 1.80   +00 4.     -02
 3.420  -01 1.76   +00 4.     -02
 3.440  -01 1.72   +00 4.     -02
 3.460  -01 1.72   +00 4.     -02
 3.480  -01 1.73   +00 4.     -02
 3.500  -01 1.73   +00 3.     -02
 3.510  -01 1.70   +00 4.     -02
 3.520  -01 1.64   +00 3.     -02
 3.520  -01 1.63   +00 4.     -02
 3.540  -01 1.70   +00 3.     -02
 3.540  -01 1.65   +00 4.     -02
 3.560  -01 1.56   +00 3.     -02
 3.560  -01 1.59   +00 4.     -02
 3.580  -01 1.53   +00 4.     -02
 3.600  -01 1.61   +00 4.     -02
 3.620  -01 1.55   +00 4.     -02
 3.640  -01 1.53   +00 4.     -02
 3.660  -01 1.56   +00 4.     -02
 3.680  -01 1.54   +00 4.     -02
 3.700  -01 1.53   +00 4.     -02
 3.720  -01 1.49   +00 4.     -02
 3.740  -01 1.48   +00 4.     -02
 3.760  -01 1.46   +00 3.     -02
 3.780  -01 1.42   +00 3.     -02
 3.790  -01 1.41   +00 3.     -02
 3.800  -01 1.40   +00 3.     -02
 3.820  -01 1.45   +00 3.     -02
 3.840  -01 1.41   +00 3.     -02
 3.850  -01 1.40   +00 3.     -02
 3.860  -01 1.42   +00 4.     -02
 3.870  -01 1.43   +00 3.     -02
 3.880  -01 1.46   +00 4.     -02
 3.900  -01 1.36   +00 4.     -02
 3.920  -01 1.42   +00 4.     -02
 3.940  -01 1.42   +00 4.     -02
 3.960  -01 1.32   +00 4.     -02
 3.980  -01 1.30   +00 4.     -02
 4.000  -01 1.37   +00 4.     -02
 4.020  -01 1.36   +00 4.     -02
 4.040  -01 1.31   +00 3.     -02
 4.060  -01 1.31   +00 3.     -02
 4.080  -01 1.33   +00 3.     -02
 4.110  -01 1.25   +00 3.     -02
 4.130  -01 1.37   +00 3.     -02
 4.150  -01 1.33   +00 1.0    -01
 4.160  -01 1.28   +00 3.     -02
 4.180  -01 1.29   +00 1.0    -01
 4.200  -01 1.30   +00 1.0    -01
 4.220  -01 1.29   +00 1.0    -01
 4.240  -01 1.22   +00 2.     -02
 4.260  -01 1.24   +00 2.     -02
 4.280  -01 1.30   +00 2.     -02
 4.300  -01 1.25   +00 2.     -02
 4.320  -01 1.18   +00 2.     -02
 4.340  -01 1.20   +00 1.     -02
 4.360  -01 1.27   +00 1.     -02
 4.380  -01 1.26   +00 1.     -02
 4.400  -01 1.18   +00 1.     -02
 4.420  -01 1.18   +00 1.     -02
 4.440  -01 1.20   +00 1.     -02
 4.460  -01 1.17   +00 1.     -02
 4.480  -01 1.19   +00 1.     -02
 4.500  -01 1.18   +00 1.     -02
 4.520  -01 1.22   +00 1.     -02
 4.540  -01 1.27   +00 1.     -02
 4.560  -01 1.17   +00 1.     -02
 4.580  -01 1.20   +00 1.     -02
 4.600  -01 1.14   +00 1.     -02
 4.620  -01 1.12   +00 1.     -02
 4.640  -01 1.18   +00 1.     -02
 4.660  -01 1.16   +00 1.     -02
 4.680  -01 1.14   +00 1.     -02
 4.700  -01 1.16   +00 1.     -02
 4.720  -01 1.16   +00 1.     -02
 4.740  -01 1.18   +00 1.     -02
 4.760  -01 1.15   +00 1.     -02
 4.780  -01 1.12   +00 1.     -02
 4.800  -01 1.11   +00 1.     -02
 4.820  -01 1.14   +00 1.     -02
 4.840  -01 1.17   +00 2.     -02
 4.860  -01 1.18   +00 2.     -02
 4.880  -01 1.14   +00 2.     -02
 4.900  -01 1.12   +00 2.     -02
 4.920  -01 1.10   +00 2.     -02
 4.940  -01 1.10   +00 2.     -02
 4.960  -01 1.09   +00 2.     -02
 4.980  -01 1.15   +00 2.     -02
 5.000  -01 1.09   +00 2.     -02
 5.020  -01 1.12   +00 2.     -02
 5.040  -01 1.14   +00 2.     -02
 5.060  -01 1.11   +00 2.     -02
 5.080  -01 1.13   +00 2.     -02
 5.100  -01 1.09   +00 2.     -02
 5.120  -01 1.08   +00 2.     -02
 5.140  -01 1.10   +00 2.     -02
 5.160  -01 1.13   +00 2.     -02
 5.180  -01 1.07   +00 2.     -02
 5.200  -01 1.10   +00 2.     -02
 5.220  -01 1.13   +00 2.     -02
 5.240  -01 1.09   +00 2.     -02
 5.260  -01 1.10   +00 2.     -02
 5.280  -01 1.09   +00 2.     -02
 5.300  -01 1.08   +00 2.     -02
 5.320  -01 1.13   +00 2.     -02
 5.340  -01 1.06   +00 2.     -02
 5.360  -01 1.08   +00 2.     -02
 5.380  -01 1.11   +00 2.     -02
 5.400  -01 1.10   +00 2.     -02
 5.420  -01 1.12   +00 2.     -02
 5.440  -01 1.08   +00 2.     -02
 5.460  -01 1.05   +00 2.     -02
 5.480  -01 1.12   +00 2.     -02
 5.500  -01 1.07   +00 2.     -02
 5.520  -01 1.06   +00 2.     -02
 5.540  -01 1.13   +00 2.     -02
 5.560  -01 1.05   +00 2.     -02
 5.580  -01 1.10   +00 2.     -02
 5.600  -01 1.05   +00 2.     -02
 5.626  -01 1.11   +00 2.     -02
 5.640  -01 1.11   +00 2.     -02
 5.660  -01 1.12   +00 2.     -02
 5.680  -01 1.07   +00 2.     -02
 5.700  -01 1.12   +00 2.     -02
 5.780  -01 1.09   +00 2.     -02
 5.800  -01 1.12   +00 2.     -02
 5.820  -01 1.12   +00 2.     -02
 5.842  -01 1.07   +00 2.     -02
 5.860  -01 1.08   +00 2.     -02
 5.880  -01 1.11   +00 2.     -02
 5.900  -01 1.06   +00 2.     -02
 5.920  -01 1.05   +00 2.     -02
 5.940  -01 1.08   +00 2.     -02
 5.960  -01 1.09   +00 2.     -02
 5.980  -01 1.11   +00 2.     -02
 6.000  -01 1.12   +00 2.     -02
 6.020  -01 1.11   +00 2.     -02
 6.040  -01 1.08   +00 2.     -02
 6.060  -01 1.08   +00 2.     -02
 6.080  -01 1.11   +00 2.     -02
 6.100  -01 1.12   +00 2.     -02
 6.120  -01 1.10   +00 2.     -02
 6.140  -01 1.16   +00 2.     -02
 6.160  -01 1.09   +00 2.     -02
 6.180  -01 1.11   +00 2.     -02
 6.200  -01 1.08   +00 2.     -02
 6.220  -01 1.12   +00 2.     -02
 6.240  -01 1.12   +00 2.     -02
 6.260  -01 1.06   +00 2.     -02
 6.280  -01 1.11   +00 2.     -02
 6.300  -01 1.07   +00 2.     -02
 6.320  -01 1.09   +00 2.     -02
 6.340  -01 1.10   +00 2.     -02
 6.360  -01 1.09   +00 2.     -02
 6.380  -01 1.13   +00 2.     -02
 6.400  -01 1.15   +00 2.     -02
 6.420  -01 1.08   +00 2.     -02
 6.440  -01 1.10   +00 2.     -02
 6.460  -01 1.17   +00 2.     -02
 6.480  -01 1.12   +00 2.     -02
 6.500  -01 1.08   +00 2.     -02
 6.520  -01 1.14   +00 2.     -02
 6.540  -01 1.17   +00 2.     -02
 6.560  -01 1.10   +00 2.     -02
 6.580  -01 1.13   +00 2.     -02
 6.600  -01 1.17   +00 2.     -02
 6.620  -01 1.10   +00 2.     -02
 6.640  -01 1.12   +00 2.     -02
 6.650  -01 1.14   +00 2.     -02
 6.660  -01 1.12   +00 2.     -02
 6.700  -01 1.09   +00 2.     -02
 6.720  -01 1.10   +00 2.     -02
 6.740  -01 1.14   +00 2.     -02
 6.760  -01 1.13   +00 2.     -02
 6.780  -01 1.12   +00 2.     -02
 6.800  -01 1.12   +00 2.     -02
 6.820  -01 1.15   +00 2.     -02
 6.840  -01 1.11   +00 2.     -02
 6.860  -01 1.14   +00 2.     -02
 6.880  -01 1.14   +00 2.     -02
 6.900  -01 1.10   +00 2.     -02
 6.920  -01 1.12   +00 2.     -02
 6.940  -01 1.12   +00 2.     -02
 6.960  -01 1.16   +00 2.     -02
 6.980  -01 1.20   +00 2.     -02
 7.000  -01 1.10   +00 2.     -02
 7.020  -01 1.11   +00 2.     -02
 7.040  -01 1.15   +00 2.     -02
 7.060  -01 1.17   +00 2.     -02
 7.080  -01 1.16   +00 2.     -02
 7.100  -01 1.14   +00 2.     -02
 7.120  -01 1.14   +00 2.     -02
 7.140  -01 1.17   +00 2.     -02
 7.160  -01 1.13   +00 2.     -02
 7.180  -01 1.15   +00 2.     -02
 7.200  -01 1.20   +00 2.     -02
 7.220  -01 1.20   +00 2.     -02
 7.240  -01 1.13   +00 2.     -02
 7.260  -01 1.16   +00 2.     -02
 7.280  -01 1.21   +00 2.     -02
 7.300  -01 1.17   +00 2.     -02
 7.320  -01 1.16   +00 2.     -02
 7.340  -01 1.20   +00 2.     -02
 7.360  -01 1.17   +00 2.     -02
 7.380  -01 1.19   +00 2.     -02
 7.400  -01 1.20   +00 2.     -02
 7.420  -01 1.24   +00 2.     -02
 7.440  -01 1.15   +00 2.     -02
 7.460  -01 1.23   +00 2.     -02
 7.480  -01 1.21   +00 2.     -02
 7.500  -01 1.22   +00 2.     -02
 7.520  -01 1.24   +00 2.     -02
 7.540  -01 1.27   +00 2.     -02
 7.560  -01 1.23   +00 2.     -02
 7.580  -01 1.27   +00 2.     -02
 7.600  -01 1.29   +00 2.     -02
 7.620  -01 1.25   +00 2.     -02
 7.640  -01 1.27   +00 2.     -02
 7.660  -01 1.27   +00 2.     -02
 7.680  -01 1.33   +00 2.     -02
 7.700  -01 1.31   +00 2.     -02
 7.720  -01 1.27   +00 2.     -02
 7.740  -01 1.31   +00 2.     -02
 7.760  -01 1.33   +00 2.     -02
 7.780  -01 1.28   +00 2.     -02
 7.800  -01 1.29   +00 2.     -02
 7.820  -01 1.38   +00 2.     -02
 7.840  -01 1.37   +00 2.     -02
 7.860  -01 1.30   +00 2.     -02
 7.880  -01 1.35   +00 2.     -02
 7.900  -01 1.33   +00 2.     -02
 7.920  -01 1.35   +00 2.     -02
 7.940  -01 1.38   +00 2.     -02
 7.960  -01 1.33   +00 2.     -02
 7.980  -01 1.36   +00 2.     -02
 8.000  -01 1.35   +00 2.     -02
 8.020  -01 1.37   +00 2.     -02
 8.040  -01 1.34   +00 2.     -02
 8.060  -01 1.34   +00 2.     -02
 8.080  -01 1.29   +00 2.     -02
 8.100  -01 1.36   +00 2.     -02
 8.120  -01 1.37   +00 2.     -02
 8.140  -01 1.40   +00 2.     -02
 8.160  -01 1.32   +00 2.     -02
 8.180  -01 1.35   +00 2.     -02
 8.200  -01 1.33   +00 2.     -02
 8.220  -01 1.36   +00 2.     -02
 8.240  -01 1.37   +00 2.     -02
 8.260  -01 1.37   +00 2.     -02
 8.280  -01 1.31   +00 2.     -02
 8.300  -01 1.34   +00 2.     -02
 8.320  -01 1.38   +00 2.     -02
 8.340  -01 1.37   +00 2.     -02
 8.360  -01 1.34   +00 2.     -02
 8.380  -01 1.36   +00 2.     -02
 8.400  -01 1.35   +00 2.     -02
 8.420  -01 1.40   +00 2.     -02
 8.440  -01 1.42   +00 2.     -02
 8.460  -01 1.34   +00 2.     -02
 8.480  -01 1.40   +00 2.     -02
 8.500  -01 1.38   +00 2.     -02
 8.520  -01 1.40   +00 2.     -02
 8.540  -01 1.35   +00 2.     -02
 8.560  -01 1.37   +00 2.     -02
 8.580  -01 1.36   +00 2.     -02
 8.600  -01 1.38   +00 2.     -02
 8.620  -01 1.36   +00 2.     -02
 8.640  -01 1.38   +00 2.     -02
 8.660  -01 1.41   +00 2.     -02
 8.680  -01 1.36   +00 2.     -02
 8.700  -01 1.36   +00 2.     -02
 8.720  -01 1.38   +00 2.     -02
 8.740  -01 1.41   +00 2.     -02
 8.760  -01 1.39   +00 2.     -02
 8.780  -01 1.37   +00 2.     -02
 8.800  -01 1.39   +00 2.     -02
 8.820  -01 1.41   +00 2.     -02
 8.840  -01 1.41   +00 2.     -02
 8.860  -01 1.44   +00 2.     -02
 8.880  -01 1.38   +00 2.     -02
 8.900  -01 1.39   +00 2.     -02
 8.920  -01 1.44   +00 2.     -02
 8.940  -01 1.40   +00 2.     -02
 8.960  -01 1.44   +00 2.     -02
 8.980  -01 1.30   +00 2.     -02
 9.000  -01 1.43   +00 2.     -02
 9.020  -01 1.37   +00 2.     -02
 9.040  -01 1.40   +00 2.     -02
 9.060  -01 1.41   +00 2.     -02
 9.080  -01 1.44   +00 2.     -02
 9.100  -01 1.39   +00 2.     -02
 9.120  -01 1.42   +00 2.     -02
 9.140  -01 1.48   +00 2.     -02
 9.160  -01 1.41   +00 2.     -02
 9.180  -01 1.41   +00 2.     -02
 9.200  -01 1.45   +00 2.     -02
 9.220  -01 1.42   +00 2.     -02
 9.240  -01 1.25   +00 2.     -02
 9.260  -01 1.50   +00 2.     -02
 9.280  -01 1.49   +00 2.     -02
 9.300  -01 1.46   +00 2.     -02
 9.320  -01 1.48   +00 2.     -02
 9.340  -01 1.51   +00 2.     -02
 9.360  -01 1.43   +00 2.     -02
 9.380  -01 1.41   +00 2.     -02
 9.400  -01 1.49   +00 2.     -02
 9.420  -01 1.45   +00 2.     -02
 9.440  -01 1.48   +00 2.     -02
 9.460  -01 1.47   +00 2.     -02
 9.480  -01 1.48   +00 2.     -02
 9.500  -01 1.49   +00 2.     -02
 9.520  -01 1.47   +00 2.     -02
 9.540  -01 1.47   +00 2.     -02
 9.560  -01 1.52   +00 2.     -02
 9.580  -01 1.53   +00 2.     -02
 9.600  -01 1.54   +00 2.     -02
 9.620  -01 1.54   +00 2.     -02
 9.640  -01 1.53   +00 2.     -02
 9.660  -01 1.50   +00 2.     -02
 9.680  -01 1.57   +00 2.     -02
 9.700  -01 1.52   +00 2.     -02
 9.720  -01 1.49   +00 2.     -02
 9.740  -01 1.50   +00 2.     -02
 9.760  -01 1.52   +00 2.     -02
 9.780  -01 1.52   +00 2.     -02
 9.800  -01 1.53   +00 2.     -02
 9.820  -01 1.53   +00 2.     -02
 9.840  -01 1.47   +00 2.     -02
 9.860  -01 1.49   +00 2.     -02
 9.880  -01 1.53   +00 2.     -02
 9.900  -01 1.54   +00 2.     -02
 9.920  -01 1.55   +00 2.     -02
 9.940  -01 1.54   +00 2.     -02
 9.960  -01 1.50   +00 2.     -02
 9.980  -01 1.53   +00 2.     -02
 1.000  +00 1.53   +00 2.     -02
 1.002  +00 1.48   +00 2.     -02
 1.004  +00 1.50   +00 2.     -02
 1.006  +00 1.58   +00 2.     -02
 1.008  +00 1.56   +00 2.     -02
 1.010  +00 1.58   +00 2.     -02
 1.012  +00 1.51   +00 2.     -02
 1.014  +00 1.56   +00 2.     -02
 1.016  +00 1.55   +00 2.     -02
 1.018  +00 1.56   +00 2.     -02
 1.020  +00 1.56   +00 2.     -02
 1.022  +00 1.61   +00 2.     -02
 1.024  +00 1.56   +00 2.     -02
 1.026  +00 1.51   +00 2.     -02
 1.028  +00 1.55   +00 2.     -02
 1.030  +00 1.50   +00 2.     -02
 1.032  +00 1.52   +00 2.     -02
 1.034  +00 1.50   +00 2.     -02
 1.036  +00 1.55   +00 2.     -02
 1.038  +00 1.56   +00 2.     -02
 1.040  +00 1.59   +00 2.     -02
 1.042  +00 1.56   +00 2.     -02
 1.044  +00 1.58   +00 2.     -02
 1.046  +00 1.58   +00 2.     -02
 1.048  +00 1.56   +00 2.     -02
 1.050  +00 1.59   +00 2.     -02
 1.052  +00 1.59   +00 2.     -02
 1.056  +00 1.56   +00 2.     -02
 1.058  +00 1.58   +00 2.     -02
 1.060  +00 1.57   +00 2.     -02
 1.062  +00 1.52   +00 2.     -02
 1.064  +00 1.59   +00 2.     -02
 1.066  +00 1.61   +00 2.     -02
 1.068  +00 1.60   +00 2.     -02
 1.070  +00 1.55   +00 2.     -02
 1.072  +00 1.58   +00 2.     -02
 1.074  +00 1.55   +00 2.     -02
 1.076  +00 1.59   +00 2.     -02
 1.078  +00 1.60   +00 2.     -02
 1.080  +00 1.63   +00 2.     -02
 1.082  +00 1.57   +00 2.     -02
 1.084  +00 1.63   +00 2.     -02
 1.086  +00 1.58   +00 2.     -02
 1.088  +00 1.65   +00 2.     -02
 1.090  +00 1.61   +00 2.     -02
 1.092  +00 1.66   +00 2.     -02
 1.094  +00 1.57   +00 2.     -02
 1.096  +00 1.59   +00 2.     -02
 1.098  +00 1.58   +00 2.     -02
 1.100  +00 1.58   +00 2.     -02
 1.102  +00 1.60   +00 2.     -02
 1.104  +00 1.59   +00 2.     -02
 1.106  +00 1.62   +00 2.     -02
 1.108  +00 1.61   +00 2.     -02
 1.110  +00 1.67   +00 2.     -02
 1.112  +00 1.64   +00 2.     -02
 1.114  +00 1.65   +00 2.     -02
 1.116  +00 1.62   +00 2.     -02
 1.118  +00 1.69   +00 2.     -02
 1.120  +00 1.62   +00 2.     -02
 1.122  +00 1.60   +00 2.     -02
 1.124  +00 1.60   +00 2.     -02
 1.126  +00 1.60   +00 2.     -02
 1.128  +00 1.60   +00 2.     -02
 1.130  +00 1.64   +00 2.     -02
 1.132  +00 1.64   +00 2.     -02
 1.134  +00 1.64   +00 2.     -02
 1.136  +00 1.59   +00 2.     -02
 1.138  +00 1.60   +00 2.     -02
 1.140  +00 1.63   +00 2.     -02
 1.142  +00 1.67   +00 2.     -02
 1.144  +00 1.67   +00 2.     -02
 1.146  +00 1.73   +00 2.     -02
 1.148  +00 1.65   +00 2.     -02
 1.150  +00 1.62   +00 2.     -02
 1.152  +00 1.65   +00 2.     -02
 1.154  +00 1.66   +00 2.     -02
 1.156  +00 1.69   +00 2.     -02
 1.158  +00 1.65   +00 2.     -02
 1.160  +00 1.64   +00 2.     -02
 1.162  +00 1.58   +00 2.     -02
 1.164  +00 1.66   +00 2.     -02
 1.166  +00 1.65   +00 2.     -02
 1.168  +00 1.67   +00 2.     -02
 1.170  +00 1.64   +00 2.     -02
 1.172  +00 1.66   +00 2.     -02
 1.174  +00 1.65   +00 2.     -02
 1.176  +00 1.72   +00 2.     -02
 1.178  +00 1.63   +00 2.     -02
 1.180  +00 1.64   +00 2.     -02
 1.182  +00 1.60   +00 2.     -02
 1.184  +00 1.66   +00 2.     -02
 1.186  +00 1.63   +00 2.     -02
 1.188  +00 1.66   +00 2.     -02
 1.190  +00 1.64   +00 2.     -02
 1.192  +00 1.67   +00 2.     -02
 1.194  +00 1.64   +00 2.     -02
 1.196  +00 1.65   +00 2.     -02
 1.198  +00 1.63   +00 2.     -02
 1.200  +00 1.65   +00 2.     -02
 1.202  +00 1.64   +00 2.     -02
 1.204  +00 1.61   +00 2.     -02
 1.206  +00 1.66   +00 2.     -02
 1.208  +00 1.67   +00 2.     -02
 1.210  +00 1.65   +00 2.     -02
 1.212  +00 1.66   +00 2.     -02
 1.214  +00 1.70   +00 2.     -02
 1.216  +00 1.63   +00 2.     -02
 1.218  +00 1.68   +00 2.     -02
 1.220  +00 1.63   +00 2.     -02
 1.222  +00 1.67   +00 2.     -02
 1.224  +00 1.63   +00 2.     -02
 1.226  +00 1.72   +00 2.     -02
 1.228  +00 1.64   +00 2.     -02
 1.230  +00 1.63   +00 2.     -02
 1.232  +00 1.67   +00 2.     -02
 1.234  +00 1.64   +00 2.     -02
 1.236  +00 1.64   +00 2.     -02
ENDDATA            587
ENDSUBENT          594
ENDENTRY            10
