ENTRY            10588   20040723
SUBENT        10588001   20040723
BIB                 10         17
INSTITUTE  (1USARPI)
REFERENCE  (P,USNDC-9,170,197312)
AUTHOR     (F.L.Green,K.A.Nadolny,P.Stoler)
TITLE      Total neutron cross section of 235U.
FACILITY   (LINAC,1USARPI)
METHOD     (TOF) Time of flight.  250-meter flight path.
DETECTOR   (SCIN) Proton recoil scintillator.
ERR-ANALYS (DATA-ERR) No information on source of uncertainty.
           Systematic errors estimated to be 1% above 1 MeV to
            about 15 MeV, and may become slightly worse at higher
            energies.
STATUS     No reply to author proof.
            Data taken from private comm., Stoler, 1976/3.
HISTORY    (19760317C)
           (19800506U) Converted to REACTION formalism.
           (19830922A) BIB update.
           (20040723A) Converted to new data formts, lower case.
ENDBIB              17
NOCOMMON             0          0
ENDSUBENT           20
SUBENT        10588002   20040723
BIB                  1          1
REACTION   (92-U-235(N,TOT),,SIG)
ENDBIB               1
NOCOMMON             0          0
DATA                 3        716
EN         DATA       DATA-ERR
MEV        B          MB
  0.5009    7.913      158.
  0.5021    8.360      158.
  0.5033    7.970      151.
  0.5045    8.238      148.
  0.5058    8.165      146.
  0.5070    8.156      146.
  0.5082    8.138      147.
  0.5095    8.407      149.
  0.5107    8.300      146.
  0.5120    7.988      138.
  0.5132    8.173      139.
  0.5145    8.040      135.
  0.5158    8.192      139.
  0.5171    7.783      137.
  0.5183    8.131      140.
  0.5196    8.416      145.
  0.5209    7.754      142.
  0.5222    8.105      149.
  0.5235    8.270      155.
  0.5248    8.001      159.
  0.5261    7.840      171.
  0.5274    7.721      165.
  0.5287    8.181      160.
  0.5301    8.127      150.
  0.5314    7.930      142.
  0.5327    8.207      139.
  0.5340    8.027      133.
  0.5354    8.110      133.
  0.5367    7.991      133.
  0.5381    7.967      133.
  0.5394    8.223      130.
  0.5408    7.945      124.
  0.5422    8.210      128.
  0.5435    8.069      130.
  0.5449    7.890      128.
  0.5463    7.939      123.
  0.5477    8.016      121.
  0.5491    7.728      113.
  0.5505    8.193      119.
  0.5519    7.922      120.
  0.5538    8.066      117.
  0.5547    7.837      114.
  0.5561    7.791      116.
  0.5576    7.800      121.
  0.5590    8.001      119.
  0.5604    8.074      121.
  0.5619    7.911      121.
  0.5633    8.034      120.
  0.5648    8.206      121.
  0.5662    7.863      120.
  0.5677    7.854      121.
  0.5692    8.045      121.
  0.5707    7.788      120.
  0.5721    7.834      117.
  0.5736    7.788      115.
  0.5751    7.680      114.
  0.5766    7.978      113.
  0.5781    7.879      108.
  0.5796    8.052      106.
  0.5812    7.881      103.
  0.5827    7.858      104.
  0.5842    7.869      105.
  0.5857    7.783      109.
  0.5873    7.893      109.
  0.5888    7.989      107.
  0.5904    7.786      103.
  0.5919    7.655       99.
  0.5951    7.822       97.
  0.5967    7.610      102.
  0.5982    7.854      101.
  0.5985    7.777       98.
  0.5998    7.868       95.
  0.6014    7.650       92.
  0.6030    7.766       90.
  0.6047    7.819       88.
  0.6063    7.918       88.
  0.6079    7.711       88.
  0.6095    7.830       88.
  0.6112    7.646       92.
  0.6128    7.803       95.
  0.6145    7.969       96.
  0.6161    7.858       95.
  0.6178    7.815       94.
  0.6194    7.568       93.
  0.6211    7.622       94.
  0.6228    7.714       93.
  0.6245    7.734       92.
  0.6262    7.603       92.
  0.6279    7.869       92.
  0.6296    7.670       92.
  0.6313    7.740       93.
  0.6330    7.695       94.
  0.6348    7.744       97.
  0.6365    7.595       91.
  0.6383    7.784       90.
  0.6400    7.509       93.
  0.6418    7.501       92.
  0.6436    7.585       94.
  0.6453    7.621       99.
  0.6471    7.578       99.
  0.6489    7.806       99.
  0.6507    7.778       99.
  0.6525    7.501       95.
  0.6543    7.495       94.
  0.6561    7.741       92.
  0.6580    7.666       89.
  0.6598    7.723       86.
  0.6616    7.486       84.
  0.6635    7.584       84.
  0.6654    7.489       84.
  0.6672    7.742       85.
  0.6691    7.551       85.
  0.6710    7.611       83.
  0.6729    7.565       81.
  0.6748    7.405       81.
  0.6767    7.527       82.
  0.6786    7.393       80.
  0.6805    7.374       78.
  0.6824    7.357       79.
  0.6844    7.481       79.
  0.6863    7.473       78.
  0.6883    7.461       76.
  0.6902    7.446       76.
  0.6922    7.509       77.
  0.6942    7.523       78.
  0.6962    7.581       75.
  0.6982    7.233       75.
  0.7002    7.331       75.
  0.7022    7.467       75.
  0.7042    7.470       77.
  0.7063    7.463       78.
  0.7083    7.261       73.
  0.7104    7.428       74.
  0.7124    7.460       72.
  0.7145    7.382       75.
  0.7166    7.359       75.
  0.7187    7.249       78.
  0.7208    7.390       79.
  0.7229    7.361       74.
  0.7250    7.428       75.
  0.7271    7.329       72.
  0.7292    7.311       72.
  0.7314    7.389       71.
  0.7335    7.321       69.
  0.7357    7.154       69.
  0.7379    7.235       68.
  0.7400    7.473       67.
  0.7422    7.362       68.
  0.7444    7.462       69.
  0.7466    7.262       68.
  0.7489    7.225       68.
  0.7511    7.338       68.
  0.7533    7.300       71.
  0.7556    7.310       71.
  0.7578    7.214       69.
  0.7601    7.418       68.
  0.7624    7.298       69.
  0.7647    7.255       69.
  0.7670    7.306       65.
  0.7693    7.372       65.
  0.7716    7.238       67.
  0.7739    7.269       69.
  0.7763    7.337       69.
  0.7786    7.187       70.
  0.7810    7.347       72.
  0.7834    7.239       74.
  0.7858    7.150       77.
  0.7882    7.080       73.
  0.7906    7.337       70.
  0.7930    7.250       68.
  0.7954    7.130       67.
  0.7978    7.139       66.
  0.8003    7.131       65.
  0.8028    7.130       64.
  0.8052    7.057       63.
  0.8077    7.112       63.
  0.8102    7.193       64.
  0.8127    7.212       66.
  0.8153    7.093       65.
  0.8178    7.171       63.
  0.8203    7.243       63.
  0.8229    7.191       63.
  0.8255    7.310       63.
  0.8280    7.061       61.
  0.8306    7.140       60.
  0.8332    7.179       60.
  0.8358    7.059       58.
  0.8385    7.184       59.
  0.8411    7.242       59.
  0.8438    7.176       59.
  0.8464    6.966       60.
  0.8491    7.159       64.
  0.8518    7.122       59.
  0.8545    7.038       60.
  0.8572    6.995       60.
  0.8600    6.886       58.
  0.8627    7.048       58.
  0.8655    6.989       56.
  0.8682    7.086       56.
  0.8719    6.986       57.
  0.8738    7.047       57.
  0.8766    7.087       55.
  0.8795    6.944       54.
  0.8823    7.018       54.
  0.8851    7.019       54.
  0.8880    7.047       52.
  0.8938    6.959       51.
  0.8967    6.943       52.
  0.8996    7.053       51.
  0.8999    6.948       51.
  0.9055    6.891       50.
  0.9085    6.994       50.
  0.9115    6.979       50.
  0.9144    7.022       50.
  0.9175    6.984       51.
  0.9205    6.862       50.
  0.9235    6.889       51.
  0.9266    7.002       52.
  0.9296    6.881       52.
  0.9327    6.888       50.
  0.9358    6.853       48.
  0.9389    6.846       50.
  0.9421    6.964       52.
  0.9452    6.935       53.
  0.9484    6.853       52.
  0.9516    6.858       51.
  0.9548    6.824       51.
  0.9580    6.914       52.
  0.9612    6.894       52.
  0.9644    6.806       52.
  0.9677    6.841       55.
  0.9710    6.983       54.
  0.9743    6.768       55.
  0.9776    6.796       55.
  0.9809    6.978       56.
  0.9843    6.761       57.
  0.9876    6.723       56.
  0.9910    6.835       56.
  0.9926    7.058       51.
  0.9944    6.910       57.
  0.9978    6.776       58.
  1.0012    6.941       59.
  1.0047    6.839       59.
  1.0081    6.726       59.
  1.0116    6.859       59.
  1.0137    6.863       58.
  1.0151    6.864       59.
  1.0222    6.768       59.
  1.0258    6.688       58.
  1.0293    6.781       56.
  1.0329    6.846       55.
  1.0365    6.768       55.
  1.0402    6.698       57.
  1.0438    6.766       56.
  1.0475    6.902       53.
  1.0512    6.765       53.
  1.0549    6.732       51.
  1.0586    6.734       51.
  1.0624    6.775       50.
  1.0661    6.745       49.
  1.0699    6.744       48.
  1.0737    6.821       47.
  1.0776    6.819       47.
  1.0814    6.803       47.
  1.0853    6.833       49.
  1.0892    6.729       50.
  1.0931    6.693       49.
  1.0970    6.741       49.
  1.1010    6.766       50.
  1.1050    6.758       51.
  1.1090    6.711       54.
  1.1130    6.846       57.
  1.1170    6.756       55.
  1.1211    6.689       53.
  1.1252    6.688       51.
  1.1293    6.765       49.
  1.1334    6.717       49.
  1.1376    6.618       47.
  1.1418    6.771       48.
  1.1460    6.669       50.
  1.1502    6.690       50.
  1.1544    6.689       49.
  1.1587    6.602       50.
  1.1630    6.626       50.
  1.1673    6.755       50.
  1.1717    6.681       49.
  1.1760    6.688       49.
  1.1804    6.683       51.
  1.1848    6.740       48.
  1.1893    6.761       48.
  1.1937    6.591       47.
  1.1982    6.700       48.
  1.2027    6.633       49.
  1.2073    6.671       49.
  1.2119    6.770       49.
  1.2165    6.755       48.
  1.2211    6.732       50.
  1.2257    6.564       50.
  1.2304    6.714       52.
  1.2351    6.720       51.
  1.2398    6.677       50.
  1.2446    6.735       49.
  1.2494    6.749       52.
  1.2542    6.574       52.
  1.2590    6.669       52.
  1.2639    6.759       52.
  1.2688    6.705       51.
  1.2737    6.670       53.
  1.2786    6.647       52.
  1.2836    6.619       52.
  1.2886    6.624       55.
  1.2937    6.637       54.
  1.2987    6.695       55.
  1.3038    6.709       55.
  1.3090    6.708       55.
  1.3141    6.625       55.
  1.3193    6.696       55.
  1.3245    6.735       53.
  1.3298    6.583       52.
  1.3351    6.771       52.
  1.3404    6.692       54.
  1.3457    6.730       54.
  1.3511    6.615       52.
  1.3565    6.678       49.
  1.3619    6.648       47.
  1.3674    6.711       47.
  1.3729    6.708       49.
  1.3785    6.695       49.
  1.3840    6.771       50.
  1.3896    6.730       49.
  1.3953    6.681       50.
  1.4010    6.803       49.
  1.4067    6.828       48.
  1.4124    6.695       47.
  1.4182    6.700       47.
  1.4240    6.791       47.
  1.4299    6.728       48.
  1.4358    6.736       48.
  1.4417    6.712       47.
  1.4477    6.821       47.
  1.4537    6.775       45.
  1.4597    6.773       46.
  1.4658    6.699       46.
  1.4719    6.768       45.
  1.4781    6.725       44.
  1.4842    6.762       44.
  1.4905    6.796       44.
  1.4967    6.718       43.
  1.5031    6.765       44.
  1.5094    6.729       45.
  1.5159    6.839       45.
  1.5222    6.733       46.
  1.5287    6.765       46.
  1.5352    6.718       47.
  1.5418    6.761       46.
  1.5484    6.832       44.
  1.5550    6.765       45.
  1.5617    6.871       44.
  1.5684    6.821       44.
  1.5752    6.821       44.
  1.5820    6.849       45.
  1.5888    6.854       48.
  1.5957    6.875       49.
  1.6027    6.762       47.
  1.6097    6.912       46.
  1.6167    6.891       44.
  1.6238    6.847       44.
  1.6309    6.797       44.
  1.6381    6.761       44.
  1.6453    6.947       49.
  1.6526    6.896       47.
  1.6599    6.815       45.
  1.6673    6.814       45.
  1.6747    6.831       44.
  1.6822    6.974       45.
  1.6897    7.000       46.
  1.6973    6.948       46.
  1.7049    6.939       46.
  1.7126    6.971       46.
  1.7203    6.897       46.
  1.7281    6.978       47.
  1.7359    6.828       50.
  1.7438    6.954       50.
  1.7517    7.015       49.
  1.7673    6.973       48.
  1.7759    6.990       49.
  1.7840    7.003       48.
  1.7923    6.950       47.
  1.8005    6.953       46.
  1.8089    6.977       45.
  1.8172    7.027       45.
  1.8257    7.102       47.
  1.8342    7.020       46.
  1.8423    7.099       45.
  1.8514    7.037       46.
  1.8601    6.985       45.
  1.8688    7.016       45.
  1.8776    7.137       45.
  1.8865    7.067       46.
  1.8954    7.058       48.
  1.9044    7.182       48.
  1.9135    7.166       48.
  1.9226    7.116       48.
  1.9318    7.107       48.
  1.9411    7.146       47.
  1.9502    7.195       47.
  1.9598    7.262       45.
  1.9692    7.190       45.
  1.9788    7.218       45.
  1.9884    7.147       46.
  1.9980    7.138       47.
  2.0078    7.200       47.
  2.0176    7.142       47.
  2.0275    7.194       47.
  2.0374    7.187       48.
  2.0475    7.297       47.
  2.0576    7.233       47.
  2.0677    7.276       52.
  2.0780    7.212       51.
  2.0883    7.213       48.
  2.0987    7.272       48.
  2.1092    7.260       47.
  2.1198    7.298       47.
  2.1304    7.241       47.
  2.1412    7.276       47.
  2.1520    7.237       48.
  2.1629    7.288       48.
  2.1738    7.353       49.
  2.1849    7.329       48.
  2.1960    7.361       49.
  2.2073    7.357       49.
  2.2186    7.383       49.
  2.2300    7.348       48.
  2.2415    7.262       48.
  2.2530    7.432       48.
  2.2647    7.384       49.
  2.2765    7.396       49.
  2.2883    7.463       49.
  2.3003    7.358       50.
  2.3123    7.341       48.
  2.3244    7.441       49.
  2.3367    7.458       49.
  2.3414    7.490       48.
  2.3490    7.422       49.
  2.3739    7.494       49.
  2.3865    7.560       51.
  2.3993    7.466       52.
  2.4121    7.611       52.
  2.4250    7.471       52.
  2.4381    7.463       51.
  2.4512    7.605       51.
  2.4644    7.472       52.
  2.4778    7.652       54.
  2.4913    7.678       56.
  2.5048    7.547       56.
  2.5185    7.514       55.
  2.5323    7.582       55.
  2.5462    7.640       57.
  2.5602    7.643       58.
  2.5744    7.638       57.
  2.5886    7.642       56.
  2.6030    7.608       55.
  2.6175    7.704       55.
  2.6321    7.671       55.
  2.6469    7.709       56.
  2.6617    7.697       55.
  2.6767    7.732       55.
  2.6919    7.788       55.
  2.7071    7.726       55.
  2.7225    7.861       55.
  2.7380    7.715       55.
  2.7536    7.737       57.
  2.7694    7.835       59.
  2.7853    7.676       57.
  2.8014    7.790       57.
  2.8176    7.755       56.
  2.8339    7.814       57.
  2.8504    7.814       58.
  2.8670    7.788       59.
  2.8838    7.886       60.
  2.9007    7.771       61.
  2.9177    7.817       61.
  2.9349    7.983       63.
  2.9523    7.768       62.
  2.9698    7.803       59.
  2.9875    7.917       58.
  3.0053    7.896       59.
  3.0233    7.847       57.
  3.0415    7.851       57.
  3.0698    7.836       59.
  3.0783    7.958       59.
  3.0970    7.816       59.
  3.1158    7.855       60.
  3.1348    7.995       62.
  3.1540    7.872       60.
  3.1733    7.805       61.
  3.1929    8.044       65.
  3.2126    7.900       64.
  3.2325    7.905       65.
  3.2526    7.983       66.
  3.2728    7.886       65.
  3.2933    7.989       66.
  3.3139    7.989       66.
  3.3346    7.836       66.
  3.3558    7.930       67.
  3.3771    7.999       67.
  3.3985    7.917       66.
  3.4202    8.051       66.
  3.4421    7.945       67.
  3.4641    7.877       67.
  3.4864    8.074       69.
  3.5089    8.003       68.
  3.5316    7.953       68.
  3.5546    7.893       70.
  3.5778    7.972       69.
  3.6012    8.030       69.
  3.6248    8.133       68.
  3.6486    8.094       67.
  3.6727    7.889       67.
  3.6971    7.863       67.
  3.7217    7.991       67.
  3.7465    8.052       71.
  3.7716    8.006       69.
  3.7969    7.970       66.
  3.8225    7.984       65.
  3.8483    7.958       65.
  3.8744    7.942       64.
  3.9008    7.814       64.
  3.9275    8.019       64.
  3.9544    8.017       64.
  3.9816    7.940       64.
  4.0091    8.039       64.
  4.0368    8.023       63.
  4.0649    7.952       62.
  4.0933    7.913       62.
  4.1219    7.860       62.
  4.1509    7.894       64.
  4.1801    8.054       64.
  4.2097    7.925       62.
  4.2396    8.007       62.
  4.2698    7.847       61.
  4.3003    7.965       63.
  4.3312    7.873       63.
  4.3624    7.910       61.
  4.3939    7.926       60.
  4.4258    7.910       59.
  4.4581    7.854       58.
  4.4906    7.862       59.
  4.5236    7.987       60.
  4.5569    7.849       58.
  4.5906    7.822       58.
  4.6246    7.737       58.
  4.6591    7.846       57.
  4.6939    7.897       56.
  4.7291    7.743       55.
  4.7647    7.771       55.
  4.8007    7.770       56.
  4.8372    7.736       55.
  4.8740    7.709       54.
  4.9113    7.707       54.
  4.9490    7.680       54.
  4.9871    7.690       54.
  5.0257    7.713       55.
  5.0647    7.642       56.
  5.1042    7.673       58.
  5.1442    7.579       55.
  5.1846    7.696       54.
  5.2255    7.541       54.
  5.2669    7.502       54.
  5.3088    7.502       54.
  5.3512    7.571       54.
  5.3941    7.516       52.
  5.4375    7.460       51.
  5.4815    7.419       51.
  5.5260    7.410       51.
  5.5710    7.348       53.
  5.6166    7.285       53.
  5.6627    7.366       52.
  5.7095    7.293       50.
  5.7568    7.266       50.
  5.8047    7.225       50.
  5.8532    7.210       50.
  5.9023    7.120       51.
  5.9520    7.178       49.
  6.0024    7.031       49.
  6.0534    7.098       49.
  6.1051    7.025       48.
  6.1574    7.029       48.
  6.2104    6.938       48.
  6.2642    6.942       49.
  6.3186    6.967       48.
  6.3737    6.988       48.
  6.4295    6.800       47.
  6.4861    6.889       47.
  6.5435    6.812       47.
  6.6016    6.833       46.
  6.6605    6.737       46.
  6.7201    6.713       47.
  6.7806    6.641       46.
  6.8419    6.682       46.
  6.9041    6.683       46.
  6.9671    6.655       46.
  7.0310    6.619       46.
  7.0957    6.615       47.
  7.1614    6.499       48.
  7.2280    6.546       48.
  7.2955    6.457       49.
  7.3640    6.396       49.
  7.4334    6.497       49.
  7.5039    6.488       49.
  7.5753    6.394       49.
  7.6478    6.412       50.
  7.7213    6.262       51.
  7.7959    6.392       51.
  7.8716    6.375       51.
  7.9484    6.226       49.
  8.0264    6.195       49.
  8.1054    6.338       50.
  8.1857    6.219       50.
  8.2672    6.141       50.
  8.3499    6.155       50.
  8.4339    6.115       51.
  8.5191    6.093       52.
  8.6056    6.055       52.
  8.6935    6.083       53.
  8.7827    6.045       53.
  8.8733    6.002       54.
  8.9654    6.008       54.
  9.0589    5.970       55.
  9.1538    5.888       55.
  9.2503    5.979       56.
  9.3483    5.893       57.
  9.4479    5.877       58.
  9.5491    5.831       59.
  9.6520    5.917       60.
  9.7565    5.841       61.
  9.8627    5.967       61.
  9.9707    5.959       63.
 10.0804    5.763       63.
 10.1921    5.804       65.
 10.3055    5.813       65.
 10.4209    5.878       66.
 10.5383    5.613       66.
 10.6576    5.776       67.
 10.7790    5.708       63.
 10.9025    5.887       70.
 11.0281    5.785       71.
 11.1560    5.715       72.
 11.2862    5.685       73.
 11.4186    5.908       75.
 11.5533    5.683       76.
 11.6905    5.788       78.
 11.8302    5.788       78.
 11.9724    5.778       79.
 12.1171    5.772       80.
 12.2646    5.789       82.
 12.4147    5.742       84.
 12.5677    5.669       85.
 12.7236    5.913       86.
 12.8822    5.803       88.
 13.0441    6.095       90.
 13.2089    5.643       90.
 13.3769    5.819       91.
 13.5482    6.039       93.
 13.7228    5.811       95.
 13.9009    6.025       97.
 14.0824    5.881       99.
 14.2675    5.740      100.
 14.4564    5.916      102.
 14.6491    5.846      103.
 14.8456    5.998      104.
 15.0463    6.057      108.
 15.2510    5.913      109.
 15.4599    5.892      113.
 15.6732    6.092      114.
 15.8910    6.145      116.
 16.1135    6.041      117.
 16.3406    6.088      121.
 16.5727    5.832      122.
 16.8097    6.268      125.
 17.0519    6.301      129.
 17.2994    6.271      131.
 17.5525    6.234      135.
 17.8111    6.318      138.
 18.0756    6.088      141.
 18.3461    6.013      143.
 18.6227    6.168      147.
 18.9057    6.556      153.
 19.1953    5.895      154.
 19.4918    6.834      159.
 19.7950    6.565      167.
 20.1056    6.469      168.
 20.4237    6.300      174.
 20.7494    6.197      175.
 21.0830    6.429      184.
 21.4249    6.232      185.
 21.7752    6.374      194.
 22.1342    6.334      193.
 22.5025    6.144      205.
 22.8800    5.875      211.
 23.2672    6.376      224.
 23.6644    6.279      224.
 24.0721    5.785      234.
 24.4905    6.136      246.
 24.9202    6.540      258.
 25.3613    6.240      260.
 25.8144    5.810      261.
 26.2799    5.870      270.
 26.7584    6.374      298.
 27.2502    5.513      300.
 27.7559    6.021      334.
 28.2759    5.693      343.
 28.8110    5.989      359.
 29.3617    6.481      383.
 29.9285    5.597      393.
 30.5122    5.612      399.
ENDDATA            718
ENDSUBENT          724
ENDENTRY             2
