ENTRY            C2622   20210914   20220328   20220327       C209
SUBENT        C2622001   20210914   20220328   20220327       C209
BIB                  6          8
TITLE      Study of structure in the 28Si(p,n)28P and
           28Si(p,alpha)25Al excitation functions
AUTHOR     (G.D.Gunn,K.W.Kemper,J.D.Fox)
INSTITUTE  (1USAFSU)
REFERENCE  (J,NP/A,232,176,1974)
           #doi:10.1016/0375-9474(74)90651-4
FACILITY   (VDGT,1USAFSU)
HISTORY    (20210914C) OG
ENDBIB               8
NOCOMMON             0          0
ENDSUBENT           11
SUBENT        C2622002   20210914   20220328   20220327       C209
BIB                  8         14
REACTION   (14-SI-28(P,N)15-P-28,,SIG,,REL)
DECAY-DATA (15-P-28,0.270SEC,B+,11250.)
SAMPLE     A large surface-area SiO2 target, approximately
           0.9 mg/cm2.
METHOD     (ACTIV)
DETECTOR   (SCIN) A plastic scintillator was used to observe the
           decay of 28P via the 11.25 MeV beta+. A thin aluminum
           window stopped the protons, the high-energy positrons
           to reach the detector, placed at 90 degrees to the
           incident beam.
CORRECTION The background yield was subtracted.
ERR-ANALYS No information on uncertainties.
STATUS     (CURVE) Fig.1 (p.177) in Nucl.Phys.A,232,176,1974 was
           digitized by GSYS2.4.7.
ENDBIB              14
NOCOMMON             0          0
DATA                 2         43
EN         DATA
MEV        ARB-UNITS
     15.799  1.674E+03
     15.831  2.375E+03
     15.887  3.841E+03
     15.943  4.928E+03
     15.996  5.474E+03
     16.049  5.172E+03
     16.143  7.904E+03
     16.250  6.412E+03
     16.297  7.407E+03
     16.354  8.558E+03
     16.402  8.634E+03
     16.450  9.061E+03
     16.502  9.804E+03
     16.559  1.143E+04
     16.598  1.043E+04
     16.661  9.108E+03
     16.704  1.029E+04
     16.765  1.237E+04
     16.808  1.380E+04
     16.837  1.513E+04
     16.879  1.673E+04
     16.946  1.834E+04
     17.000  1.616E+04
     17.034  1.488E+04
     17.091  1.501E+04
     17.149  1.521E+04
     17.181  1.909E+04
     17.200  2.102E+04
     17.262  2.460E+04
     17.319  2.571E+04
     17.386  2.617E+04
     17.439  3.090E+04
     17.520  3.358E+04
     17.577  3.403E+04
     17.607  2.784E+04
     17.651  2.563E+04
     17.684  2.897E+04
     17.727  3.175E+04
     17.774  3.589E+04
     17.879  4.058E+04
     17.971  3.920E+04
     18.005  3.576E+04
     18.068  3.138E+04
ENDDATA             45
ENDSUBENT           64
SUBENT        C2622003   20210914   20220328   20220327       C209
BIB                  7         27
REACTION   (14-SI-28(P,A)13-AL-25,PAR,DA)
SAMPLE     Thin SiO2, targets, 50-100 mu-g/cm2, were used and
           placed in a large volume scattering chamber.
DETECTOR   (SIBAR) Six surface barrier detectors (100 mu-m) spaced
           10 degrees apart.
CORRECTION Impurity peaks due to the 29Si and 30Si in the natural
           targets contributed to the under-lying background, and
           contributed to the uncertainty in the background
           subtraction. Proton background and dead time
           corrections were made.
LEVEL-PROP (13-AL-25,E-LVL=0.0,SPIN=2.5,PARITY=+1.)
           (13-AL-25,E-LVL=0.455,SPIN=0.5,PARITY=+1.)
           (13-AL-25,E-LVL=0.949,SPIN=1.5,PARITY=+1.)
ERR-ANALYS The largest source of error was due to the background
           subtraction and the statistical errors.
           (ERR-T,5.,15.) A combination of background subtraction,
           statistical, beam integration, and relative solid angle
           determination errors gives a relative uncertainty in
           the data which varies between 5 and 15 %.
           The absolute error is 15 % and arises from the
           uncertainty in the determination of the target
           thickness-solid angle product.
           (ERR-1) Background subtraction errors (about 5%)
           (ERR-S) Statistical errors vary from 2% to 15%.
STATUS     (CURVE) Figs.3-5 in Nucl.Phys.A,232,176,1974 was
           digitized by GSYS2.4.7.
           (COREL,C2622004) Angular distribution
ENDBIB              27
COMMON               1          3
ERR-1
PER-CENT
5.
ENDCOMMON            3
DATA                 5       2194
E-LVL      ANG        EN         DATA       ERR-S
MEV        ADEG       MEV        MB/SR      MB/SR
        0.0        30.     17.490      1.165
        0.0        30.     17.507      1.571
        0.0        30.     17.529      1.645
        0.0        30.     17.546      1.301
        0.0        30.     17.568      1.277
        0.0        30.     17.586      1.480
        0.0        30.     17.608      1.370
        0.0        30.     17.631      1.228
        0.0        30.     17.647      1.069
        0.0        30.     17.672      1.057
        0.0        30.     17.692      0.836
        0.0        30.     17.711      0.689
        0.0        30.     17.730      0.627
        0.0        30.     17.755      0.572
        0.0        30.     17.765      0.462
        0.0        30.     17.793      0.462
        0.0        30.     17.815      0.481
        0.0        30.     17.830      0.641
        0.0        30.     17.849      0.653
        0.0        30.     17.874      0.801
        0.0        30.     17.892      0.912
        0.0        30.     17.908      0.765
        0.0        30.     17.936      1.005
        0.0        30.     17.955      0.980
        0.0        30.     17.971      0.894
        0.0        30.     17.993      0.765
        0.0        30.     18.021      0.864
        0.0        40.     15.962      2.215      0.117
        0.0        40.     16.008      2.450      0.136
        0.0        40.     16.053      1.956      0.081
        0.0        40.     16.152      2.036      0.126
        0.0        40.     16.205      1.980      0.097
        0.0        40.     16.260      2.515      0.117
        0.0        40.     16.310      2.575      0.165
        0.0        40.     16.359      1.683      0.116
        0.0        40.     16.403      0.607
        0.0        40.     16.456      0.608
        0.0        40.     16.508      0.940
        0.0        40.     16.560      0.980
        0.0        40.     16.603      1.186
        0.0        40.     16.655      1.536
        0.0        40.     16.704      1.790      0.087
        0.0        40.     16.754      1.986      0.107
        0.0        40.     16.807      2.046      0.126
        0.0        40.     16.855      1.503
        0.0        40.     16.905      1.408
        0.0        40.     16.955      1.458
        0.0        40.     17.005      2.255      0.146
        0.0        40.     17.053      1.995      0.116
        0.0        40.     17.108      1.132
        0.0        40.     17.156      0.959
        0.0        40.     17.208      1.242
        0.0        40.     17.267      1.166
        0.0        40.     17.307      1.361
        0.0        40.     17.363      1.382
        0.0        40.     17.406      1.762      0.088
        0.0        40.     17.455      1.715      0.078
        0.0        40.     17.470      2.026
        0.0        40.     17.504      2.076      0.097
        0.0        40.     17.521      1.833
        0.0        40.     17.561      1.951      0.136
        0.0        40.     17.577      1.709
        0.0        40.     17.600      1.389
        0.0        40.     17.608      1.855      0.136
        0.0        40.     17.616      1.244
        0.0        40.     17.632      1.128
        0.0        40.     17.651      0.944
        0.0        40.     17.663      1.080
        0.0        40.     17.679      0.887
        0.0        40.     17.698      0.800
        0.0        40.     17.726      0.830
        0.0        40.     17.763      0.899
        0.0        40.     17.807      0.988
        0.0        40.     17.853      1.232
        0.0        40.     17.865      1.106
        0.0        40.     17.887      1.194
        0.0        40.     17.899      1.437
        0.0        40.     17.915      1.263
        0.0        40.     17.924      1.438
        0.0        40.     17.946      1.390
        0.0        40.     17.955      1.322
        0.0        40.     17.980      1.294
        0.0        40.     18.008      1.323
        0.0        40.     18.062      1.073
        0.0        40.     18.119      0.812
        0.0        40.     18.162      0.765
        0.0        50.     15.963      1.352      0.134
        0.0        50.     16.013      1.116
        0.0        50.     16.066      1.077      0.083
        0.0        50.     16.111      1.666
        0.0        50.     16.160      2.121      0.134
        0.0        50.     16.216      2.071      0.103
        0.0        50.     16.264      2.815      0.124
        0.0        50.     16.315      2.270      0.175
        0.0        50.     16.362      1.024
        0.0        50.     16.416      0.686
        0.0        50.     16.471      1.120
        0.0        50.     16.516      1.740      0.114
        0.0        50.     16.567      1.432
        0.0        50.     16.614      1.176
        0.0        50.     16.668      0.889
        0.0        50.     16.715      0.880
        0.0        50.     16.819      1.533      0.134
        0.0        50.     16.864      0.823
        0.0        50.     16.921      0.639
        0.0        50.     16.968      0.692
        0.0        50.     17.014      1.756      0.124
        0.0        50.     17.068      1.675      0.093
        0.0        50.     17.115      1.480      0.103
        0.0        50.     17.165      1.204
        0.0        50.     17.222      1.030
        0.0        50.     17.266      0.866
        0.0        50.     17.324      1.147
        0.0        50.     17.368      1.024
        0.0        50.     17.417      1.438
        0.0        50.     17.474      1.275
        0.0        50.     17.511      1.235
        0.0        50.     17.520      1.379
        0.0        50.     17.561      1.195
        0.0        50.     17.567      1.298
        0.0        50.     17.592      1.176
        0.0        50.     17.593      0.990
        0.0        50.     17.624      1.001
        0.0        50.     17.665      0.848
        0.0        50.     17.675      0.745
        0.0        50.     17.696      0.808
        0.0        50.     17.724      0.829
        0.0        50.     17.730      0.943
        0.0        50.     17.742      1.046
        0.0        50.     17.773      1.078
        0.0        50.     17.805      1.027
        0.0        50.     17.826      1.121
        0.0        50.     17.839      0.936
        0.0        50.     17.861      0.947
        0.0        50.     17.889      0.896
        0.0        50.     17.926      0.959
        0.0        50.     17.960      0.991
        0.0        50.     17.985      1.023
        0.0        50.     18.026      1.034
        0.0        50.     18.073      0.912
        0.0        50.     18.120      0.872
        0.0        50.     18.169      1.008
        0.0        60.     15.970      1.002
        0.0        60.     16.021      0.721
        0.0        60.     16.067      0.844
        0.0        60.     16.110      1.188
        0.0        60.     16.166      1.190
        0.0        60.     16.218      1.444
        0.0        60.     16.261      2.364      0.121
        0.0        60.     16.313      1.690
        0.0        60.     16.362      1.015
        0.0        60.     16.424      1.058
        0.0        60.     16.460      1.544
        0.0        60.     16.511      2.081      0.161
        0.0        60.     16.562      1.699
        0.0        60.     16.623      1.045
        0.0        60.     16.665      0.683
        0.0        60.     16.718      0.695
        0.0        60.     16.763      1.050
        0.0        60.     16.818      1.324
        0.0        60.     16.867      0.650
        0.0        60.     16.921      0.510
        0.0        60.     16.971      0.512
        0.0        60.     17.019      0.907
        0.0        60.     17.068      1.040
        0.0        60.     17.106      1.738      0.131
        0.0        60.     17.167      1.397
        0.0        60.     17.217      1.096
        0.0        60.     17.268      0.886
        0.0        60.     17.314      0.948
        0.0        60.     17.371      0.859
        0.0        60.     17.417      0.952
        0.0        60.     17.470      0.853
        0.0        60.     17.471      0.681
        0.0        60.     17.519      1.006
        0.0        60.     17.532      0.905
        0.0        60.     17.563      0.947
        0.0        60.     17.594      0.938
        0.0        60.     17.616      1.040
        0.0        60.     17.641      1.010
        0.0        60.     17.666      0.930
        0.0        60.     17.687      1.012
        0.0        60.     17.715      1.094
        0.0        60.     17.724      1.265
        0.0        60.     17.745      1.327
        0.0        60.     17.764      1.297
        0.0        60.     17.780      1.227
        0.0        60.     17.802      1.117
        0.0        60.     17.817      1.238
        0.0        60.     17.827      0.976
        0.0        60.     17.856      0.897
        0.0        60.     17.869      0.776
        0.0        60.     17.878      0.655
        0.0        60.     17.918      0.798
        0.0        60.     17.928      0.687
        0.0        60.     17.969      0.638
        0.0        60.     17.978      0.507
        0.0        60.     18.019      0.549
        0.0        60.     18.068      0.692
        0.0        60.     18.114      0.865
        0.0        60.     18.169      1.049
        0.0        70.     15.985      1.010
        0.0        70.     16.036      0.668
        0.0        70.     16.083      0.580
        0.0        70.     16.139      0.649
        0.0        70.     16.186      0.385
        0.0        70.     16.242      0.679
        0.0        70.     16.282      1.219
        0.0        70.     16.335      1.092
        0.0        70.     16.392      1.249
        0.0        70.     16.435      1.152
        0.0        70.     16.485      1.368
        0.0        70.     16.535      1.653      0.118
        0.0        70.     16.588      1.565
        0.0        70.     16.635      1.095
        0.0        70.     16.689      0.841
        0.0        70.     16.735      1.076
        0.0        70.     16.785      1.322
        0.0        70.     16.835      1.715      0.157
        0.0        70.     16.882      1.333
        0.0        70.     16.945      1.108
        0.0        70.     16.992      0.844
        0.0        70.     17.042      0.775
        0.0        70.     17.095      0.766
        0.0        70.     17.138      1.463      0.088
        0.0        70.     17.194      1.395
        0.0        70.     17.245      1.268
        0.0        70.     17.301      1.121
        0.0        70.     17.345      0.994
        0.0        70.     17.395      0.916
        0.0        70.     17.442      1.024
        0.0        70.     17.495      0.947
        0.0        70.     17.501      0.751
        0.0        70.     17.533      0.770
        0.0        70.     17.551      0.967
        0.0        70.     17.601      0.967
        0.0        70.     17.639      0.987
        0.0        70.     17.670      0.988
        0.0        70.     17.689      1.066
        0.0        70.     17.717      1.027
        0.0        70.     17.735      1.135
        0.0        70.     17.748      1.047
        0.0        70.     17.767      1.214
        0.0        70.     17.801      1.283
        0.0        70.     17.817      1.126
        0.0        70.     17.842      1.077
        0.0        70.     17.848      1.215
        0.0        70.     17.861      0.940
        0.0        70.     17.879      0.892
        0.0        70.     17.895      0.813
        0.0        70.     17.923      0.784
        0.0        70.     17.942      0.814
        0.0        70.     17.958      0.726
        0.0        70.     17.970      0.628
        0.0        70.     17.989      0.500
        0.0        70.     18.005      0.628
        0.0        70.     18.024      0.432
        0.0        70.     18.049      0.442
        0.0        70.     18.095      0.492
        0.0        70.     18.148      0.708
        0.0        70.     18.198      0.836
        0.0        80.     15.972      0.882      0.109
        0.0        80.     16.032      0.478
        0.0        80.     16.073      0.311
        0.0        80.     16.123      0.342
        0.0        80.     16.174      0.047
        0.0        80.     16.233      0.207
        0.0        80.     16.276      0.357
        0.0        80.     16.323      0.299
        0.0        80.     16.369      0.617
        0.0        80.     16.418      0.935      0.119
        0.0        80.     16.475      0.729
        0.0        80.     16.524      0.800
        0.0        80.     16.574      0.910
        0.0        80.     16.625      0.674
        0.0        80.     16.675      0.675
        0.0        80.     16.731      0.707
        0.0        80.     16.774      0.926
        0.0        80.     16.823      1.215
        0.0        80.     16.873      1.246      0.089
        0.0        80.     16.917      1.118
        0.0        80.     16.974      0.833
        0.0        80.     17.027      0.686
        0.0        80.     17.072      0.450
        0.0        80.     17.124      0.659
        0.0        80.     17.176      0.938
        0.0        80.     17.223      0.969
        0.0        80.     17.279      1.070
        0.0        80.     17.326      0.853
        0.0        80.     17.375      1.102
        0.0        80.     17.427      1.450      0.089
        0.0        80.     17.473      0.937
        0.0        80.     17.478      1.194
        0.0        80.     17.501      0.720
        0.0        80.     17.529      0.750
        0.0        80.     17.538      0.830
        0.0        80.     17.570      0.821
        0.0        80.     17.607      0.792
        0.0        80.     17.635      0.803
        0.0        80.     17.660      0.764
        0.0        80.     17.682      0.735
        0.0        80.     17.701      0.845
        0.0        80.     17.719      0.954
        0.0        80.     17.741      1.024
        0.0        80.     17.772      1.065
        0.0        80.     17.775      1.154
        0.0        80.     17.784      0.986
        0.0        80.     17.810      0.897
        0.0        80.     17.832      0.789
        0.0        80.     17.851      0.730
        0.0        80.     17.873      0.662
        0.0        80.     17.898      0.692
        0.0        80.     17.929      0.733
        0.0        80.     17.960      0.634
        0.0        80.     17.976      0.546
        0.0        80.     17.991      0.655
        0.0        80.     18.001      0.487
        0.0        80.     18.033      0.448
        0.0        80.     18.083      0.391
        0.0        80.     18.123      0.520
        0.0        80.     18.179      0.572
        0.0        90.     15.992      0.653
        0.0        90.     16.045      0.726
        0.0        90.     16.092      0.576
        0.0        90.     16.148      0.774
        0.0        90.     16.198      0.677
        0.0        90.     16.245      0.723
        0.0        90.     16.289      0.581
        0.0        90.     16.348      0.583
        0.0        90.     16.398      0.521
        0.0        90.     16.441      0.612
        0.0        90.     16.491      0.720
        0.0        90.     16.541      0.623
        0.0        90.     16.587      0.839
        0.0        90.     16.641      0.742
        0.0        90.     16.697      0.619
        0.0        90.     16.745      0.441
        0.0        90.     16.794      0.621
        0.0        90.     16.840      0.774
        0.0        90.     16.891      0.624
        0.0        90.     16.947      0.697
        0.0        90.     16.997      0.698
        0.0        90.     17.053      0.610
        0.0        90.     17.094      0.495
        0.0        90.     17.147      0.515
        0.0        90.     17.196      0.739
        0.0        90.     17.246      0.607
        0.0        90.     17.293      0.760
        0.0        90.     17.342      0.859
        0.0        90.     17.392      1.048
        0.0        90.     17.444      1.362      0.080
        0.0        90.     17.488      1.122
        0.0        90.     17.517      0.846
        0.0        90.     17.539      0.740
        0.0        90.     17.558      0.606
        0.0        90.     17.574      0.517
        0.0        90.     17.593      0.598
        0.0        90.     17.596      0.652
        0.0        90.     17.618      0.545
        0.0        90.     17.639      0.653
        0.0        90.     17.652      0.573
        0.0        90.     17.677      0.574
        0.0        90.     17.699      0.592
        0.0        90.     17.714      0.664
        0.0        90.     17.739      0.807
        0.0        90.     17.757      0.879
        0.0        90.     17.782      0.925
        0.0        90.     17.810      0.881
        0.0        90.     17.826      0.801
        0.0        90.     17.849      0.641
        0.0        90.     17.889      0.561
        0.0        90.     17.896      0.481
        0.0        90.     17.921      0.518
        0.0        90.     17.949      0.554
        0.0        90.     17.971      0.474
        0.0        90.     17.992      0.537
        0.0        90.     18.011      0.466
        0.0        90.     18.049      0.503
        0.0        90.     18.092      0.620
        0.0        90.     18.151      0.702
        0.0        90.     18.198      0.695
        0.0       100.     15.983      0.602
        0.0       100.     16.038      0.755
        0.0       100.     16.095      0.836
        0.0       100.     16.144      1.269      0.090
        0.0       100.     16.195      1.214
        0.0       100.     16.237      1.006
        0.0       100.     16.288      0.853
        0.0       100.     16.345      0.930
        0.0       100.     16.397      0.554
        0.0       100.     16.438      0.419
        0.0       100.     16.490      0.743
        0.0       100.     16.538      1.095      0.090
        0.0       100.     16.593      1.167      0.108
        0.0       100.     16.641      0.797
        0.0       100.     16.689      0.580
        0.0       100.     16.735      0.346
        0.0       100.     16.794      0.390
        0.0       100.     16.843      0.814
        0.0       100.     16.887      0.633
        0.0       100.     16.935      0.542
        0.0       100.     16.987      0.542
        0.0       100.     17.038      0.506
        0.0       100.     17.080      0.478
        0.0       100.     17.134      0.577
        0.0       100.     17.186      0.649
        0.0       100.     17.230      0.405
        0.0       100.     17.282      0.459
        0.0       100.     17.340      0.441
        0.0       100.     17.378      0.567
        0.0       100.     17.420      0.711
        0.0       100.     17.474      0.539
        0.0       100.     17.493      0.395
        0.0       100.     17.522      0.395
        0.0       100.     17.542      0.304
        0.0       100.     17.574      0.259
        0.0       100.     17.577      0.187
        0.0       100.     17.612      0.186
        0.0       100.     17.635      0.259
        0.0       100.     17.660      0.204
        0.0       100.     17.673      0.294
        0.0       100.     17.699      0.222
        0.0       100.     17.709      0.340
        0.0       100.     17.724      0.493
        0.0       100.     17.737      0.366
        0.0       100.     17.757      0.465
        0.0       100.     17.779      0.556
        0.0       100.     17.814      0.573
        0.0       100.     17.840      0.528
        0.0       100.     17.846      0.438
        0.0       100.     17.882      0.456
        0.0       100.     17.885      0.365
        0.0       100.     17.898      0.293
        0.0       100.     17.936      0.293
        0.0       100.     17.955      0.248
        0.0       100.     17.965      0.184
        0.0       100.     18.000      0.184
        0.0       100.     18.029      0.148
        0.0       100.     18.080      0.256
        0.0       100.     18.129      0.463
        0.0       100.     18.180      0.445
        0.0       110.     15.982      0.920
        0.0       110.     16.029      0.912
        0.0       110.     16.082      0.883
        0.0       110.     16.129      1.273
        0.0       110.     16.179      1.244
        0.0       110.     16.230      0.942
        0.0       110.     16.280      1.001
        0.0       110.     16.327      0.972
        0.0       110.     16.372      0.670
        0.0       110.     16.425      0.560
        0.0       110.     16.475      0.649
        0.0       110.     16.525      1.009
        0.0       110.     16.573      1.282      0.103
        0.0       110.     16.626      0.826
        0.0       110.     16.673      0.737
        0.0       110.     16.721      0.443
        0.0       110.     16.777      0.443
        0.0       110.     16.818      1.334      0.088
        0.0       110.     16.868      1.540      0.081
        0.0       110.     16.921      1.260
        0.0       110.     16.969      0.966
        0.0       110.     17.016      0.782
        0.0       110.     17.072      0.694
        0.0       110.     17.114      0.775
        0.0       110.     17.173      0.893
        0.0       110.     17.220      0.724
        0.0       110.     17.270      0.562
        0.0       110.     17.321      0.400
        0.0       110.     17.371      0.437
        0.0       110.     17.421      0.673
        0.0       110.     17.471      0.666
        0.0       110.     17.499      0.622
        0.0       110.     17.521      0.636
        0.0       110.     17.549      0.578
        0.0       110.     17.569      0.511
        0.0       110.     17.585      0.431
        0.0       110.     17.611      0.416
        0.0       110.     17.619      0.261
        0.0       110.     17.641      0.298
        0.0       110.     17.666      0.262
        0.0       110.     17.686      0.291
        0.0       110.     17.711      0.328
        0.0       110.     17.728      0.387
        0.0       110.     17.747      0.468
        0.0       110.     17.772      0.519
        0.0       110.     17.792      0.586
        0.0       110.     17.823      0.549
        0.0       110.     17.825      0.637
        0.0       110.     17.853      0.674
        0.0       110.     17.864      0.453
        0.0       110.     17.915      0.395
        0.0       110.     17.965      0.476
        0.0       120.     15.983      1.123
        0.0       120.     16.033      0.923
        0.0       120.     16.083      0.831
        0.0       120.     16.133      0.977
        0.0       120.     16.186      0.647
        0.0       120.     16.224      0.855
        0.0       120.     16.283      0.909
        0.0       120.     16.330      0.640
        0.0       120.     16.380      0.617
        0.0       120.     16.427      0.602
        0.0       120.     16.480      0.564
        0.0       120.     16.524      0.894
        0.0       120.     16.572      0.787
        0.0       120.     16.630      0.626
        0.0       120.     16.675      0.618
        0.0       120.     16.730      0.611
        0.0       120.     16.774      0.888
        0.0       120.     16.827      1.818      0.092
        0.0       120.     16.871      1.980      0.085
        0.0       120.     16.921      1.826      0.108
        0.0       120.     17.641      0.599
        0.0       120.     17.661      0.353
        0.0       120.     17.672      0.461
        0.0       120.     17.683      0.568
        0.0       120.     17.708      0.630
        0.0       120.     17.730      0.615
        0.0       120.     17.744      0.730
        0.0       120.     17.772      0.630
        0.0       120.     17.788      0.615
        0.0       120.     17.811      0.530
        0.0       120.     17.814      0.430
        0.0       120.     17.850      0.415
        0.0       120.     17.875      0.392
        0.0       120.     17.902      0.408
        0.0       120.     17.922      0.461
        0.0       120.     17.947      0.531
        0.0       120.     17.969      0.462
        0.0       120.     18.011      0.470
        0.0       120.     18.058      0.470
        0.0       120.     18.111      0.585
        0.0       120.     18.166      0.493
        0.0       130.     16.779      0.571
        0.0       130.     16.822      1.308      0.063
        0.0       130.     16.929      0.726
        0.0       130.     17.026      0.872
        0.0       130.     17.068      0.915
        0.0       130.     17.121      0.957
        0.0       130.     17.171      0.978
        0.0       130.     17.224      1.055
        0.0       130.     17.274      1.111
        0.0       130.     17.319      0.966
        0.0       130.     17.374      1.293
        0.0       130.     17.424      1.578      0.097
        0.0       130.     17.468      1.676
        0.0       130.     17.476      1.870      0.097
        0.0       130.     17.510      1.620
        0.0       130.     17.524      1.746      0.090
        0.0       130.     17.549      1.531
        0.0       130.     17.577      1.350      0.097
        0.0       130.     17.611      1.094
        0.0       130.     17.622      1.011
        0.0       130.     17.650      0.830
        0.0       130.     17.676      0.858
        0.0       130.     17.678      1.011
        0.0       130.     17.714      1.046
        0.0       130.     17.716      1.345      0.097
        0.0       130.     17.728      1.220
        0.0       130.     17.750      1.304
        0.0       130.     17.778      1.457      0.083
        0.0       130.     17.781      1.262
        0.0       130.     17.792      1.026
        0.0       130.     17.812      0.783
        0.0       130.     17.815      0.582
        0.0       130.     17.838      0.541
        0.0       130.     17.849      0.471
        0.0       130.     17.871      0.333
        0.0       130.     17.874      0.444
        0.0       130.     17.919      0.410
        0.0       130.     17.977      0.549
        0.0       130.     18.021      0.744
        0.0       130.     18.065      0.974
        0.0       130.     18.113      1.016
        0.0       130.     18.168      1.002
        0.0       140.     16.379      0.933
        0.0       140.     16.431      1.051
        0.0       140.     16.485      0.852
        0.0       140.     16.532      0.970
        0.0       140.     16.580      0.557
        0.0       140.     16.633      0.496
        0.0       140.     16.677      0.807
        0.0       140.     16.730      0.849
        0.0       140.     16.774      0.849
        0.0       140.     16.824      0.940
        0.0       140.     16.877      0.989
        0.0       140.     16.922      0.858
        0.0       140.     16.978      0.521
        0.0       140.     17.028      0.742
        0.0       140.     17.075      0.791
        0.0       140.     17.131      0.661
        0.0       140.     17.176      0.717
        0.0       140.     17.226      0.711
        0.0       140.     17.276      0.698
        0.0       140.     17.326      0.926
        0.0       140.     17.369      1.299      0.069
        0.0       140.     17.425      1.244
        0.0       140.     17.470      1.176
        0.0       140.     17.487      1.287
        0.0       140.     17.520      1.294
        0.0       140.     17.548      1.308
        0.0       140.     17.565      1.095
        0.0       140.     17.593      1.178
        0.0       140.     17.613      0.985
        0.0       140.     17.621      1.061
        0.0       140.     17.651      1.048
        0.0       140.     17.662      1.124
        0.0       140.     17.693      1.262
        0.0       140.     17.701      1.345
        0.0       140.     17.717      1.504
        0.0       140.     17.742      1.773
        0.0       140.     17.764      1.746      0.083
        0.0       140.     17.789      1.739
        0.0       140.     17.793      1.436
        0.0       140.     17.816      0.898
        0.0       140.     17.827      0.974
        0.0       140.     17.850      0.878
        0.0       140.     17.872      0.651
        0.0       140.     17.895      0.403
        0.0       140.     17.915      0.403
        0.0       140.     17.937      0.396
        0.0       140.     17.942      0.507
        0.0       140.     17.976      0.576
        0.0       140.     17.989      0.680
        0.0       140.     18.017      0.825
        0.0       140.     18.069      1.246
        0.0       140.     18.121      1.364      0.083
        0.0       140.     18.172      0.951
        0.0       150.     15.987      0.718
        0.0       150.     16.031      0.578
        0.0       150.     16.081      1.057
        0.0       150.     16.130      1.189
        0.0       150.     16.178      1.070
        0.0       150.     16.227      1.354      0.119
        0.0       150.     16.282      1.996      0.152
        0.0       150.     16.330      1.345      0.120
        0.0       150.     16.378      0.890
        0.0       150.     16.428      0.912
        0.0       150.     16.475      0.924
        0.0       150.     16.525      0.893
        0.0       150.     16.573      0.372
        0.0       150.     16.626      0.384
        0.0       150.     16.670      0.603
        0.0       150.     16.723      0.756
        0.0       150.     16.772      1.007      0.131
        0.0       150.     16.825      0.899
        0.0       150.     16.867      0.715
        0.0       150.     16.914      0.760
        0.0       150.     16.973      0.631
        0.0       150.     17.020      0.914
        0.0       150.     17.067      0.905
        0.0       150.     17.115      0.601
        0.0       150.     17.168      0.461
        0.0       150.     17.218      0.451
        0.0       150.     17.270      0.420
        0.0       150.     17.320      0.867
        0.0       150.     17.367      1.031      0.109
        0.0       150.     17.406      0.597
        0.0       150.     17.462      0.500
        0.0       150.     17.481      0.588
        0.0       150.     17.512      0.686
        0.0       150.     17.512      0.480
        0.0       150.     17.542      0.643
        0.0       150.     17.565      0.524
        0.0       150.     17.581      0.601
        0.0       150.     17.614      0.753
        0.0       150.     17.615      0.634
        0.0       150.     17.645      0.863
        0.0       150.     17.664      0.983
        0.0       150.     17.681      1.135
        0.0       150.     17.708      1.408
        0.0       150.     17.711      1.179
        0.0       150.     17.747      1.571
        0.0       150.     17.755      1.485
        0.0       150.     17.769      1.594      0.131
        0.0       150.     17.786      1.420
        0.0       150.     17.805      1.334
        0.0       150.     17.816      1.280
        0.0       150.     17.842      1.237
        0.0       150.     17.853      0.954
        0.0       150.     17.879      0.629
        0.0       150.     17.906      0.629
        0.0       150.     17.940      0.565
        0.0       150.     17.970      0.576
        0.0       150.     17.990      0.642
        0.0       150.     18.012      0.784
        0.0       150.     18.066      1.263
        0.0       150.     18.108      1.438      0.130
        0.0       150.     18.159      0.874
        0.0       160.     15.959      0.451
        0.0       160.     16.015      0.270
        0.0       160.     16.064      0.797
        0.0       160.     16.114      1.034      0.060
        0.0       160.     16.156      0.913      0.060
        0.0       160.     16.208      0.930
        0.0       160.     16.266      1.414      0.088
        0.0       160.     16.317      0.777
        0.0       160.     16.356      0.574
        0.0       160.     16.412      0.552
        0.0       160.     16.462      0.591
        0.0       160.     16.509      0.520
        0.0       160.     16.568      0.163
        0.0       160.     16.612      0.218
        0.0       160.     16.654      0.350
        0.0       160.     16.706      0.444
        0.0       160.     16.761      1.048      0.088
        0.0       160.     16.800      1.065      0.077
        0.0       160.     16.855      1.011      0.082
        0.0       160.     16.900      1.203      0.077
        0.0       160.     16.950      0.808
        0.0       160.     17.006      0.901      0.055
        0.0       160.     17.048      0.665
        0.0       160.     17.095      0.369
        0.0       160.     17.148      0.226
        0.0       160.     17.201      0.249
        0.0       160.     17.251      0.315
        0.0       160.     17.303      0.546
        0.0       160.     17.350      0.744      0.066
        0.0       160.     17.395      0.514
        0.0       160.     17.445      0.569
        0.0       160.     17.456      0.371
        0.0       160.     17.481      0.470
        0.0       160.     17.498      0.305
        0.0       160.     17.504      0.377
        0.0       160.     17.523      0.355
        0.0       160.     17.548      0.284
        0.0       160.     17.568      0.267
        0.0       160.     17.584      0.328
        0.0       160.     17.598      0.306
        0.0       160.     17.651      0.509
        0.0       160.     17.659      0.625
        0.0       160.     17.689      0.674
        0.0       160.     17.700      0.911
        0.0       160.     17.719      1.037
        0.0       160.     17.747      1.037      0.044
        0.0       160.     17.780      1.054
        0.0       160.     17.797      1.148      0.071
        0.0       160.     17.847      1.159      0.099
        0.0       160.     17.864      0.807
        0.0       160.     17.883      0.928
        0.0       160.     17.897      0.873
        0.0       160.     17.908      0.945
        0.0       160.     17.950      0.956      0.077
        0.0       160.     17.992      0.945      0.088
        0.0       160.     18.053      0.951      0.093
        0.0       160.     18.100      0.880      0.066
        0.0       160.     18.145      0.584
        0.0       170.     15.947      0.604
        0.0       170.     15.994      0.264
        0.0       170.     16.036      0.681
        0.0       170.     16.089      0.978
        0.0       170.     16.133      0.989
        0.0       170.     16.186      0.692
        0.0       170.     16.244      1.165      0.121
        0.0       170.     16.289      0.527
        0.0       170.     16.336      0.440
        0.0       170.     16.389      0.462
        0.0       170.     16.428      0.330
        0.0       170.     16.483      0.253
        0.0       170.     16.533      0.198
        0.0       170.     16.583      0.264
        0.0       170.     16.628      0.176
        0.0       170.     16.686      0.451
        0.0       170.     16.736      1.396      0.121
        0.0       170.     16.786      1.879      0.176
        0.0       170.     16.831      2.275      0.176
        0.0       170.     16.881      2.593      0.165
        0.0       170.     16.936      1.429      0.110
        0.0       170.     16.989      1.121      0.154
        0.0       170.     17.028      0.505
        0.0       170.     17.072      0.231
        0.0       170.     17.128      0.176
        0.0       170.     17.175      0.396
        0.0       170.     17.225      0.637
        0.0       170.     17.278      0.626
        0.0       170.     17.322      1.066      0.132
        0.0       170.     17.378      1.187      0.110
        0.0       170.     17.431      1.264      0.099
        0.0       170.     17.444      0.945
        0.0       170.     17.467      1.220
        0.0       170.     17.472      0.835
        0.0       170.     17.483      0.560
        0.0       170.     17.497      0.637
        0.0       170.     17.514      0.451
        0.0       170.     17.556      0.440
        0.0       170.     17.558      0.253
        0.0       170.     17.589      0.242
        0.0       170.     17.619      0.154
        0.0       170.     17.650      0.242
        0.0       170.     17.658      0.352
        0.0       170.     17.667      0.527
        0.0       170.     17.708      0.692
        0.0       170.     17.725      0.637
        0.0       170.     17.747      0.505
        0.0       170.     17.764      0.802
        0.0       170.     17.783      0.615
        0.0       170.     17.803      0.791
        0.0       170.     17.822      0.956
        0.0       170.     17.847      1.066
        0.0       170.     17.872      1.385      0.154
        0.0       170.     17.886      1.714
        0.0       170.     17.919      1.802      0.198
        0.0       170.     17.942      1.890      0.176
        0.0       170.     17.975      1.879      0.187
        0.0       170.     18.017      0.879
        0.0       170.     18.069      0.505
        0.0       170.     18.119      0.516
      0.455        50.     15.993      0.573
      0.455        50.     16.040      0.836
      0.455        50.     16.089      1.023      0.082
      0.455        50.     16.144      0.938      0.077
      0.455        50.     16.243      0.791      0.074
      0.455        50.     16.291      0.579
      0.455        50.     16.390      0.691
      0.455        50.     16.589      0.567
      0.455        50.     16.641      0.256
      0.455        50.     16.693      0.114
      0.455        50.     16.745      0.152
      0.455        50.     16.899      0.103
      0.455        50.     16.945      0.084
      0.455        50.     16.994      0.130
      0.455        50.     17.046      0.092
      0.455        50.     17.096      0.195
      0.455        50.     17.148      0.167
      0.455        50.     17.197      0.241
      0.455        50.     17.249      0.194
      0.455        50.     17.301      0.156
      0.455        50.     17.345      0.155
      0.455        50.     17.400      0.136
      0.455        50.     17.449      0.145
      0.455        50.     17.498      0.276
      0.455        50.     17.501      0.135
      0.455        50.     17.519      0.050
      0.455        50.     17.547      0.066
      0.455        50.     17.567      0.033
      0.455        50.     17.595      0.082
      0.455        50.     17.600      0.173
      0.455        50.     17.623      0.181
      0.455        50.     17.636      0.313
      0.455        50.     17.651      0.197
      0.455        50.     17.659      0.322
      0.455        50.     17.682      0.305
      0.455        50.     17.697      0.222
      0.455        50.     17.702      0.122
      0.455        50.     17.723      0.131
      0.455        50.     17.735      0.064
      0.455        50.     17.756      0.130
      0.455        50.     17.771      0.047
      0.455        50.     17.804      0.055
      0.455        50.     17.829      0.038
      0.455        50.     17.852      0.038
      0.455        50.     17.878      0.030
      0.455        50.     17.906      0.079
      0.455        50.     17.929      0.021
      0.455        50.     17.944      0.087
      0.455        50.     17.970      0.095
      0.455        50.     18.000      0.120
      0.455        50.     18.026      0.152
      0.455        50.     18.051      0.127
      0.455        50.     18.102      0.177
      0.455        50.     18.148      0.184
      0.455        50.     18.202      0.225
      0.455        60.     15.992      0.323
      0.455        60.     16.043      0.323
      0.455        60.     16.097      0.375
      0.455        60.     16.146      0.419      0.048
      0.455        60.     16.189      0.346
      0.455        60.     16.245      0.390
      0.455        60.     16.296      0.357
      0.455        60.     16.347      0.422      0.053
      0.455        60.     16.396      0.462      0.048
      0.455        60.     16.451      0.223
      0.455        60.     16.497      0.093
      0.455        60.     16.548      0.117
      0.455        60.     16.596      0.149
      0.455        60.     16.647      0.097
      0.455        60.     16.698      0.169
      0.455        60.     16.747      0.330      0.061
      0.455        60.     16.805      0.148
      0.455        60.     16.849      0.180
      0.455        60.     16.902      0.123
      0.455        60.     16.950      0.082
      0.455        60.     16.999      0.159
      0.455        60.     17.055      0.094
      0.455        60.     17.103      0.126
      0.455        60.     17.144      0.223
      0.455        60.     17.201      0.315      0.053
      0.455        60.     17.254      0.137
      0.455        60.     17.300      0.222
      0.455        60.     17.348      0.128
      0.455        60.     17.397      0.221
      0.455        60.     17.460      0.055
      0.455        60.     17.509      0.156
      0.455        60.     17.524      0.071
      0.455        60.     17.547      0.099
      0.455        60.     17.560      0.151
      0.455        60.     17.565      0.054
      0.455        60.     17.598      0.058
      0.455        60.     17.623      0.038
      0.455        60.     17.651      0.066
      0.455        60.     17.679      0.058
      0.455        60.     17.697      0.049
      0.455        60.     17.707      0.082
      0.455        60.     17.725      0.053
      0.455        60.     17.743      0.093
      0.455        60.     17.756      0.057
      0.455        60.     17.771      0.097
      0.455        60.     17.802      0.085
      0.455        60.     17.822      0.073
      0.455        60.     17.855      0.065
      0.455        60.     17.875      0.036
      0.455        60.     17.896      0.101
      0.455        60.     17.914      0.080
      0.455        60.     17.955      0.153
      0.455        60.     17.993      0.169
      0.455        60.     18.008      0.205
      0.455        60.     18.026      0.241
      0.455        60.     18.047      0.289
      0.455        60.     18.106      0.386      0.057
      0.455        60.     18.159      0.293
      0.455        60.     18.205      0.301
      0.455        70.     15.991      0.181
      0.455        70.     16.047      0.060
      0.455        70.     16.095      0.092
      0.455        70.     16.146      0.124
      0.455        70.     16.197      0.075
      0.455        70.     16.251      0.119
      0.455        70.     16.351      0.251      0.053
      0.455        70.     16.402      0.287      0.053
      0.455        70.     16.458      0.125
      0.455        70.     16.506      0.048
      0.455        70.     16.555      0.116
      0.455        70.     16.606      0.168
      0.455        70.     16.652      0.135
      0.455        70.     16.703      0.244
      0.455        70.     16.754      0.329      0.048
      0.455        70.     16.805      0.199
      0.455        70.     16.859      0.235
      0.455        70.     16.902      0.174
      0.455        70.     16.958      0.088
      0.455        70.     17.007      0.137
      0.455        70.     17.058      0.205
      0.455        70.     17.107      0.289      0.053
      0.455        70.     17.162      0.159
      0.455        70.     17.200      0.135
      0.455        70.     17.252      0.134
      0.455        70.     17.308      0.150
      0.455        70.     17.361      0.081
      0.455        70.     17.410      0.145
      0.455        70.     17.456      0.100
      0.455        70.     17.507      0.169
      0.455        70.     17.509      0.128
      0.455        70.     17.527      0.108
      0.455        70.     17.545      0.116
      0.455        70.     17.560      0.055
      0.455        70.     17.571      0.188
      0.455        70.     17.601      0.220
      0.455        70.     17.630      0.236
      0.455        70.     17.647      0.184
      0.455        70.     17.663      0.224
      0.455        70.     17.670      0.147
      0.455        70.     17.691      0.139
      0.455        70.     17.708      0.106
      0.455        70.     17.711      0.066
      0.455        70.     17.728      0.021
      0.455        70.     17.762      0.021
      0.455        70.     17.780      0.037
      0.455        70.     17.798      0.069
      0.455        70.     17.805      0.126
      0.455        70.     17.831      0.089
      0.455        70.     17.851      0.105
      0.455        70.     17.869      0.137
      0.455        70.     17.879      0.101
      0.455        70.     17.892      0.068
      0.455        70.     17.912      0.088
      0.455        70.     17.915      0.064
      0.455        70.     17.935      0.056
      0.455        70.     17.958      0.052
      0.455        70.     17.981      0.019
      0.455        70.     17.984      0.060
      0.455        70.     18.004      0.088
      0.455        70.     18.012      0.128
      0.455        70.     18.040      0.128
      0.455        70.     18.061      0.136
      0.455        70.     18.110      0.256
      0.455        70.     18.166      0.248
      0.455        70.     18.207      0.377      0.053
      0.455        80.     15.991      0.138
      0.455        80.     16.042      0.156
      0.455        80.     16.093      0.188
      0.455        80.     16.144      0.221
      0.455        80.     16.190      0.293
      0.455        80.     16.243      0.296
      0.455        80.     16.297      0.278
      0.455        80.     16.345      0.227
      0.455        80.     16.396      0.208
      0.455        80.     16.444      0.153
      0.455        80.     16.492      0.113
      0.455        80.     16.546      0.175
      0.455        80.     16.597      0.309
      0.455        80.     16.643      0.320
      0.455        80.     16.699      0.250
      0.455        80.     16.740      0.363
      0.455        80.     16.799      0.341
      0.455        80.     16.855      0.402
      0.455        80.     16.890      0.355
      0.455        80.     16.953      0.140
      0.455        80.     17.002      0.208
      0.455        80.     17.043      0.354
      0.455        80.     17.099      0.375
      0.455        80.     17.147      0.142
      0.455        80.     17.202      0.058
      0.455        80.     17.253      0.047
      0.455        80.     17.304      0.050
      0.455        80.     17.350      0.097
      0.455        80.     17.399      0.053
      0.455        80.     17.447      0.137
      0.455        80.     17.493      0.242
      0.455        80.     17.519      0.282
      0.455        80.     17.539      0.307
      0.455        80.     17.562      0.343
      0.455        80.     17.585      0.343
      0.455        80.     17.590      0.423
      0.455        80.     17.595      0.387
      0.455        80.     17.621      0.441
      0.455        80.     17.639      0.321
      0.455        80.     17.654      0.459      0.047
      0.455        80.     17.672      0.408
      0.455        80.     17.705      0.303
      0.455        80.     17.705      0.441
      0.455        80.     17.725      0.252
      0.455        80.     17.743      0.164
      0.455        80.     17.745      0.204
      0.455        80.     17.765      0.160
      0.455        80.     17.776      0.204
      0.455        80.     17.804      0.197
      0.455        80.     17.822      0.244
      0.455        80.     17.847      0.269
      0.455        80.     17.855      0.204
      0.455        80.     17.870      0.236
      0.455        80.     17.893      0.200
      0.455        80.     17.900      0.160
      0.455        80.     17.928      0.167
      0.455        80.     17.931      0.141
      0.455        80.     17.943      0.083
      0.455        80.     17.969      0.108
      0.455        80.     18.004      0.043
      0.455        80.     18.053      0.050
      0.455        80.     18.101      0.046
      0.455        80.     18.147      0.071
      0.455        80.     18.206      0.136
      0.455        90.     15.999      0.087
      0.455        90.     16.040      0.205
      0.455        90.     16.091      0.201
      0.455        90.     16.145      0.274
      0.455        90.     16.194      0.447      0.038
      0.455        90.     16.243      0.409
      0.455        90.     16.297      0.464      0.042
      0.455        90.     16.347      0.401
      0.455        90.     16.395      0.220
      0.455        90.     16.446      0.182
      0.455        90.     16.498      0.160
      0.455        90.     16.554      0.171
      0.455        90.     16.600      0.240
      0.455        90.     16.648      0.170
      0.455        90.     16.702      0.142
      0.455        90.     16.753      0.298
      0.455        90.     16.795      0.441      0.045
      0.455        90.     16.851      0.378      0.035
      0.455        90.     16.899      0.259
      0.455        90.     16.947      0.081
      0.455        90.     17.008      0.092
      0.455        90.     17.055      0.216
      0.455        90.     17.104      0.272      0.042
      0.455        90.     17.144      0.112
      0.455        90.     17.205      0.097
      0.455        90.     17.251      0.073
      0.455        90.     17.307      0.034
      0.455        90.     17.351      0.048
      0.455        90.     17.407      0.020
      0.455        90.     17.458      0.096
      0.455        90.     17.507      0.266
      0.455        90.     17.528      0.249
      0.455        90.     17.543      0.301
      0.455        90.     17.561      0.325
      0.455        90.     17.576      0.248
      0.455        90.     17.576      0.290
      0.455        90.     17.600      0.335
      0.455        90.     17.615      0.293
      0.455        90.     17.635      0.269
      0.455        90.     17.643      0.345
      0.455        90.     17.646      0.398
      0.455        90.     17.687      0.411
      0.455        90.     17.712      0.425      0.045
      0.455        90.     17.727      0.383
      0.455        90.     17.760      0.324
      0.455        90.     17.788      0.289
      0.455        90.     17.809      0.268
      0.455        90.     17.834      0.282
      0.455        90.     17.857      0.261
      0.455        90.     17.880      0.240
      0.455        90.     17.908      0.236
      0.455        90.     17.929      0.194
      0.455        90.     17.952      0.278
      0.455        90.     17.957      0.198
      0.455        90.     17.975      0.236
      0.455        90.     17.990      0.142
      0.455        90.     18.010      0.107
      0.455        90.     18.015      0.079
      0.455        90.     18.038      0.055
      0.455        90.     18.061      0.068
      0.455        90.     18.110      0.047
      0.455        90.     18.161      0.019
      0.455        90.     18.212      0.085
      0.455       100.     15.996      0.071
      0.455       100.     16.045      0.112
      0.455       100.     16.098      0.088
      0.455       100.     16.145      0.176
      0.455       100.     16.196      0.326
      0.455       100.     16.247      0.305
      0.455       100.     16.296      0.400      0.038
      0.455       100.     16.352      0.345
      0.455       100.     16.392      0.280
      0.455       100.     16.446      0.289
      0.455       100.     16.499      0.139
      0.455       100.     16.550      0.145
      0.455       100.     16.603      0.131
      0.455       100.     16.649      0.076
      0.455       100.     16.695      0.096
      0.455       100.     16.749      0.297
      0.455       100.     16.804      0.464      0.044
      0.455       100.     16.849      0.306
      0.455       100.     16.904      0.217
      0.455       100.     16.960      0.111
      0.455       100.     17.003      0.127
      0.455       100.     17.054      0.110
      0.455       100.     17.105      0.113
      0.455       100.     17.151      0.147
      0.455       100.     17.202      0.177
      0.455       100.     17.256      0.217      0.031
      0.455       100.     17.304      0.104
      0.455       100.     17.350      0.080
      0.455       100.     17.406      0.059
      0.455       100.     17.447      0.127
      0.455       100.     17.495      0.137
      0.455       100.     17.524      0.147
      0.455       100.     17.542      0.177
      0.455       100.     17.562      0.194
      0.455       100.     17.567      0.153
      0.455       100.     17.587      0.143
      0.455       100.     17.600      0.119
      0.455       100.     17.628      0.115
      0.455       100.     17.640      0.088
      0.455       100.     17.648      0.159
      0.455       100.     17.669      0.135
      0.455       100.     17.689      0.142
      0.455       100.     17.700      0.176
      0.455       100.     17.720      0.196
      0.455       100.     17.738      0.165
      0.455       100.     17.761      0.206
      0.455       100.     17.773      0.172
      0.455       100.     17.799      0.165
      0.455       100.     17.819      0.103
      0.455       100.     17.842      0.113
      0.455       100.     17.873      0.106
      0.455       100.     17.901      0.102
      0.455       100.     17.921      0.126
      0.455       100.     17.939      0.160
      0.455       100.     17.960      0.174
      0.455       100.     17.982      0.153
      0.455       100.     18.003      0.122
      0.455       100.     18.026      0.149
      0.455       100.     18.054      0.156
      0.455       100.     18.102      0.159
      0.455       100.     18.150      0.086
      0.455       100.     18.204      0.100
      0.455       110.     16.006      0.110
      0.455       110.     16.049      0.130
      0.455       110.     16.095      0.182
      0.455       110.     16.147      0.216
      0.455       110.     16.203      0.236
      0.455       110.     16.252      0.215
      0.455       110.     16.303      0.170
      0.455       110.     16.357      0.197
      0.455       110.     16.403      0.283
      0.455       110.     16.452      0.317      0.038
      0.455       110.     16.505      0.162
      0.455       110.     16.546      0.103
      0.455       110.     16.607      0.123
      0.455       110.     16.651      0.167
      0.455       110.     16.702      0.229
      0.455       110.     16.749      0.329
      0.455       110.     16.800      0.515      0.045
      0.455       110.     16.856      0.300
      0.455       110.     16.910      0.297
      0.455       110.     16.953      0.217
      0.455       110.     17.007      0.341
      0.455       110.     17.048      0.430      0.031
      0.455       110.     17.110      0.399
      0.455       110.     17.155      0.222
      0.455       110.     17.203      0.181
      0.455       110.     17.250      0.208
      0.455       110.     17.303      0.173
      0.455       110.     17.354      0.180
      0.455       110.     17.405      0.155
      0.455       110.     17.452      0.158
      0.455       110.     17.503      0.134
      0.455       110.     17.508      0.092
      0.455       110.     17.536      0.092
      0.455       110.     17.538      0.068
      0.455       110.     17.561      0.040
      0.455       110.     17.566      0.078
      0.455       110.     17.584      0.040
      0.455       110.     17.605      0.023
      0.455       110.     17.628      0.029
      0.455       110.     17.646      0.022
      0.455       110.     17.676      0.012
      0.455       110.     17.704      0.015
      0.455       110.     17.735      0.039
      0.455       110.     17.753      0.015
      0.455       110.     17.773      0.035
      0.455       110.     17.802      0.035
      0.455       110.     17.827      0.055
      0.455       110.     17.845      0.042
      0.455       110.     17.855      0.007
      0.455       110.     17.891      0.027
      0.455       110.     17.917      0.041
      0.455       110.     17.942      0.024
      0.455       110.     17.953      0.082
      0.455       110.     17.976      0.061
      0.455       110.     17.984      0.113
      0.455       110.     17.999      0.199
      0.455       110.     18.002      0.151
      0.455       110.     18.032      0.175
      0.455       110.     18.058      0.223
      0.455       110.     18.104      0.098
      0.455       110.     18.155      0.036
      0.455       110.     18.211      0.004
      0.455       120.     15.960      0.285
      0.455       120.     16.018      0.258
      0.455       120.     16.056      0.310
      0.455       120.     16.101      0.308
      0.455       120.     16.165      0.261
      0.455       120.     16.217      0.215
      0.455       120.     16.271      0.140
      0.455       120.     16.323      0.150
      0.455       120.     16.364      0.199
      0.455       120.     16.417      0.210
      0.455       120.     16.475      0.192
      0.455       120.     16.517      0.174
      0.455       120.     16.569      0.242
      0.455       120.     16.626      0.253
      0.455       120.     16.668      0.302
      0.455       120.     16.719      0.419
      0.455       120.     16.771      0.497
      0.455       120.     16.829      0.498
      0.455       120.     16.871      0.422
      0.455       120.     16.930      0.357
      0.455       120.     16.980      0.646      0.058
      0.455       120.     17.036      0.819      0.063
      0.455       120.     17.081      0.399
      0.455       120.     17.130      0.131
      0.455       120.     17.188      0.152
      0.455       120.     17.239      0.229
      0.455       120.     17.288      0.221
      0.455       120.     17.341      0.240
      0.455       120.     17.385      0.170
      0.455       120.     17.439      0.154
      0.455       120.     17.492      0.146
      0.455       120.     17.536      0.121
      0.455       120.     17.580      0.095
      0.455       120.     17.619      0.070
      0.455       120.     17.648      0.070
      0.455       120.     17.682      0.080
      0.455       120.     17.691      0.052
      0.455       120.     17.721      0.072
      0.455       120.     17.748      0.088
      0.455       120.     17.764      0.126
      0.455       120.     17.798      0.127
      0.455       120.     17.817      0.181
      0.455       120.     17.851      0.155
      0.455       120.     17.862      0.196
      0.455       120.     17.879      0.144
      0.455       120.     17.904      0.121
      0.455       120.     17.940      0.105
      0.455       120.     17.946      0.070
      0.455       120.     17.972      0.082
      0.455       120.     17.991      0.112
      0.455       120.     17.997      0.194
      0.455       120.     18.031      0.159
      0.455       120.     18.050      0.213
      0.455       120.     18.106      0.149
      0.455       120.     18.160      0.098
      0.455       120.     18.205      0.128
      0.455       130.     16.003      0.130
      0.455       130.     16.060      0.090
      0.455       130.     16.106      0.203
      0.455       130.     16.158      0.361
      0.455       130.     16.217      0.271
      0.455       130.     16.261      0.410
      0.455       130.     16.314      0.354
      0.455       130.     16.365      0.160
      0.455       130.     16.421      0.076
      0.455       130.     16.465      0.130
      0.455       130.     16.519      0.243
      0.455       130.     16.573      0.252
      0.455       130.     16.619      0.207
      0.455       130.     16.673      0.256
      0.455       130.     16.727      0.305
      0.455       130.     16.773      0.369
      0.455       130.     16.820      0.502
      0.455       130.     16.881      0.308
      0.455       130.     16.984      0.505
      0.455       130.     17.030      0.425
      0.455       130.     17.087      0.831      0.064
      0.455       130.     17.139      0.885      0.069
      0.455       130.     17.183      0.354
      0.455       130.     17.234      0.056
      0.455       130.     17.285      0.194
      0.455       130.     17.337      0.248
      0.455       130.     17.388      0.302
      0.455       130.     17.439      0.173
      0.455       130.     17.482      0.053
      0.455       130.     17.539      0.013
      0.455       130.     17.569      0.042
      0.455       130.     17.593      0.112
      0.455       130.     17.623      0.091
      0.455       130.     17.644      0.086
      0.455       130.     17.670      0.076
      0.455       130.     17.695      0.125
      0.455       130.     17.711      0.075
      0.455       130.     17.728      0.031
      0.455       130.     17.752      0.070
      0.455       130.     17.775      0.090
      0.455       130.     17.790      0.208
      0.455       130.     17.811      0.183
      0.455       130.     17.827      0.267
      0.455       130.     17.852      0.257
      0.455       130.     17.875      0.242
      0.455       130.     17.903      0.276
      0.455       130.     17.911      0.247
      0.455       130.     17.926      0.207
      0.455       130.     17.944      0.182
      0.455       130.     17.957      0.221
      0.455       130.     17.995      0.062
      0.455       130.     18.044      0.032
      0.455       130.     18.100      0.160
      0.455       130.     18.147      0.259
      0.455       130.     18.193      0.169
      0.455       130.     18.254      0.158
      0.455       140.     15.985      0.081
      0.455       140.     16.042      0.050
      0.455       140.     16.093      0.252
      0.455       140.     16.147      0.196
      0.455       140.     16.193      0.292
      0.455       140.     16.250      0.337
      0.455       140.     16.298      0.160
      0.455       140.     16.355      0.074
      0.455       140.     16.411      0.023
      0.455       140.     16.452      0.260
      0.455       140.     16.503      0.285
      0.455       140.     16.557      0.159
      0.455       140.     16.608      0.078
      0.455       140.     16.660      0.118
      0.455       140.     16.711      0.269
      0.455       140.     16.760      0.304
      0.455       140.     16.816      0.440
      0.455       140.     16.868      0.662      0.066
      0.455       140.     16.919      0.556      0.045
      0.455       140.     16.960      0.434
      0.455       140.     17.021      0.308
      0.455       140.     17.070      0.419
      0.455       140.     17.119      0.317
      0.455       140.     17.170      0.110
      0.455       140.     17.216      0.110
      0.455       140.     17.267      0.175
      0.455       140.     17.321      0.114
      0.455       140.     17.375      0.144
      0.455       140.     17.421      0.043
      0.455       140.     17.469      0.003
      0.455       140.     17.575      0.022
      0.455       140.     17.680      0.133
      0.455       140.     17.790      0.385
      0.455       150.     15.989      0.186
      0.455       150.     16.035      0.363
      0.455       150.     16.092      0.529
      0.455       150.     16.138      0.417
      0.455       150.     16.187      0.477
      0.455       150.     16.246      0.563      0.066
      0.455       150.     16.296      0.199
      0.455       150.     16.345      0.259
      0.455       150.     16.393      0.178
      0.455       150.     16.453      0.415
      0.455       150.     16.501      0.309
      0.455       150.     16.555      0.238
      0.455       150.     16.600      0.036
      0.455       150.     16.654      0.050
      0.455       150.     16.698      0.272
      0.455       150.     16.752      0.307
      0.455       150.     16.811      0.251
      0.455       150.     16.860      0.412
      0.455       150.     16.914      0.462
      0.455       150.     16.962      0.507      0.045
      0.455       150.     17.016      0.416
      0.455       150.     17.067      0.335
      0.455       150.     17.113      0.233
      0.455       150.     17.164      0.152
      0.455       150.     17.210      0.223
      0.455       150.     17.631      0.623      0.071
      0.455       150.     17.779      0.546      0.050
      0.455       150.     17.981      0.504      0.040
      0.455       150.     18.032      0.403
      0.455       150.     18.088      0.393
      0.455       150.     18.132      0.271
      0.455       150.     18.178      0.205
      0.455       150.     18.237      0.250
      0.455       160.     15.976      0.340
      0.455       160.     16.033      0.953
      0.455       160.     16.087      1.067      0.067
      0.455       160.     16.133      0.819
      0.455       160.     16.182      0.855
      0.455       160.     16.233      1.076      0.082
      0.455       160.     16.289      0.360
      0.455       160.     16.336      0.360
      0.455       160.     16.395      0.365
      0.455       160.     16.438      0.473
      0.455       160.     16.487      0.267
      0.455       160.     16.536      0.122
      0.455       160.     16.590      0.040
      0.455       160.     16.649      0.076
      0.455       160.     16.693      0.246
      0.455       160.     16.739      0.178
      0.455       160.     16.801      0.323
      0.455       160.     16.842      0.147
      0.455       160.     16.901      0.065
      0.455       160.     17.161      1.388
      0.455       160.     17.208      1.460
      0.455       160.     17.257      1.368      0.103
      0.455       160.     17.359      0.697
      0.455       160.     17.469      0.625
      0.455       160.     17.562      0.285
      0.455       160.     17.616      0.655
      0.455       160.     17.639      0.609
      0.455       160.     17.657      0.784
      0.455       160.     17.719      1.021      0.072
      0.455       160.     17.745      0.939
      0.455       160.     17.757      0.743
      0.455       160.     17.770      0.583
      0.455       160.     17.791      0.614
      0.455       160.     17.798      0.439
      0.455       160.     17.819      0.413
      0.455       160.     17.850      0.413
      0.455       160.     17.868      0.279
      0.455       160.     17.896      0.232
      0.455       160.     17.919      0.175
      0.455       160.     17.940      0.320
      0.455       160.     17.955      0.515
      0.455       160.     17.971      0.479
      0.455       160.     17.984      0.577
      0.455       160.     18.009      0.479
      0.455       160.     18.022      0.392
      0.455       160.     18.035      0.361
      0.455       160.     18.071      0.278
      0.455       160.     18.171      0.144
      0.455       160.     18.225      0.200
      0.455       170.     15.962      0.475
      0.455       170.     16.032      1.782      0.094
      0.455       170.     16.081      1.915      0.124
      0.455       170.     16.127      1.425      0.074
      0.455       170.     16.178      1.628      0.084
      0.455       170.     16.227      2.098      0.109
      0.455       170.     16.283      0.752
      0.455       170.     16.329      0.697
      0.455       170.     16.380      0.717
      0.455       170.     16.424      0.672
      0.455       170.     17.493      0.971
      0.455       170.     17.539      1.169
      0.455       170.     17.578      1.169
      0.455       170.     17.596      1.233
      0.455       170.     17.621      1.199
      0.455       170.     17.634      1.471
      0.455       170.     17.657      1.416      0.084
      0.455       170.     17.657      1.491
      0.455       170.     17.681      1.580
      0.455       170.     17.709      1.599      0.099
      0.455       170.     17.724      1.124
      0.455       170.     17.742      1.263
      0.455       170.     17.744      0.397
      0.455       170.     17.772      0.293
      0.455       170.     17.790      0.228
      0.455       170.     17.810      0.268
      0.455       170.     17.833      0.238
      0.455       170.     17.856      0.159
      0.455       170.     17.857      1.342      0.079
      0.455       170.     17.874      0.104
      0.455       170.     17.898      0.144
      0.455       170.     17.918      0.337
      0.455       170.     17.941      0.426
      0.455       170.     17.962      0.386
      0.455       170.     17.980      0.332
      0.455       170.     17.992      0.223
      0.455       170.     18.013      0.233
      0.455       170.     18.046      0.173
      0.455       170.     18.103      0.133
      0.455       170.     18.146      0.153
      0.455       170.     18.198      0.217
      0.949        40.     17.440      0.534
      0.949        40.     17.460      0.334
      0.949        40.     17.480      0.444
      0.949        40.     17.499      0.342
      0.949        40.     17.518      0.299
      0.949        40.     17.543      0.131
      0.949        40.     17.559      0.544
      0.949        40.     17.578      0.484
      0.949        40.     17.602      0.568
      0.949        40.     17.619      0.480
      0.949        40.     17.642      0.518
      0.949        40.     17.661      0.426
      0.949        40.     17.678      0.363
      0.949        40.     17.699      0.400
      0.949        40.     17.721      0.409
      0.949        40.     17.738      0.387
      0.949        40.     17.759      0.396
      0.949        40.     17.782      0.337
      0.949        40.     17.800      0.393
      0.949        40.     17.823      0.273
      0.949        40.     17.832      0.455
      0.949        40.     17.855      0.427
      0.949        40.     17.895      0.339
      0.949        40.     17.917      0.320
      0.949        40.     17.944      0.401
      0.949        40.     17.965      0.165
      0.949        40.     17.985      0.503
      0.949        50.     17.484      0.311
      0.949        50.     17.507      0.234
      0.949        50.     17.526      0.223
      0.949        50.     17.545      0.281
      0.949        50.     17.567      0.256
      0.949        50.     17.585      0.420
      0.949        50.     17.607      0.408
      0.949        50.     17.623      0.476
      0.949        50.     17.640      0.457
      0.949        50.     17.666      0.449
      0.949        50.     17.677      0.401
      0.949        50.     17.707      0.410
      0.949        50.     17.730      0.429
      0.949        50.     17.740      0.451
      0.949        50.     17.764      0.451
      0.949        50.     17.791      0.451
      0.949        50.     17.805      0.398
      0.949        50.     17.843      0.374
      0.949        50.     17.866      0.381
      0.949        50.     17.892      0.295
      0.949        50.     17.907      0.182
      0.949        50.     17.932      0.255
      0.949        50.     17.952      0.242
      0.949        50.     17.967      0.214
      0.949        50.     17.990      0.180
      0.949        50.     18.009      0.161
      0.949        60.     17.499      0.222
      0.949        60.     17.514      0.189
      0.949        60.     17.544      0.213
      0.949        60.     17.575      0.207
      0.949        60.     17.597      0.243
      0.949        60.     17.635      0.252
      0.949        60.     17.656      0.254
      0.949        60.     17.673      0.265
      0.949        60.     17.698      0.259
      0.949        60.     17.730      0.265
      0.949        60.     17.745      0.276
      0.949        60.     17.775      0.336
      0.949        60.     17.813      0.310
      0.949        60.     17.834      0.326
      0.949        60.     17.854      0.291
      0.949        60.     17.875      0.291
      0.949        60.     17.888      0.212
      0.949        60.     17.934      0.216
      0.949        60.     17.958      0.234
      0.949        60.     17.979      0.219
      0.949        60.     17.998      0.240
      0.949        60.     18.020      0.189
      0.949        70.     17.501      0.223
      0.949        70.     17.515      0.223
      0.949        70.     17.537      0.200
      0.949        70.     17.554      0.227
      0.949        70.     17.579      0.200
      0.949        70.     17.590      0.234
      0.949        70.     17.618      0.227
      0.949        70.     17.639      0.232
      0.949        70.     17.666      0.228
      0.949        70.     17.698      0.200
      0.949        70.     17.719      0.230
      0.949        70.     17.732      0.166
      0.949        70.     17.758      0.173
      0.949        70.     17.785      0.208
      0.949        70.     17.798      0.189
      0.949        70.     17.817      0.192
      0.949        70.     17.839      0.219
      0.949        70.     17.860      0.217
      0.949        70.     17.877      0.211
      0.949        70.     17.896      0.209
      0.949        70.     17.921      0.168
      0.949        70.     17.938      0.168
      0.949        70.     17.955      0.185
      0.949        70.     17.975      0.202
      0.949        70.     17.996      0.192
      0.949        70.     18.015      0.181
      0.949        80.     15.990      0.285
      0.949        80.     16.042      0.132
      0.949        80.     16.090      0.107
      0.949        80.     16.136      0.144
      0.949        80.     16.193      0.251
      0.949        80.     16.236      0.246
      0.949        80.     16.293      0.259
      0.949        80.     16.339      0.345
      0.949        80.     16.387      0.320
      0.949        80.     16.443      0.332
      0.949        80.     16.487      0.295
      0.949        80.     16.535      0.216
      0.949        80.     16.591      0.228
      0.949        80.     16.641      0.405
      0.949        80.     16.696      0.750      0.074
      0.949        80.     16.746      0.795      0.066
      0.949        80.     16.794      0.905      0.074
      0.949        80.     16.844      0.605
      0.949        80.     16.900      0.276
      0.949        80.     16.949      0.177
      0.949        80.     16.993      0.082
      0.949        80.     17.052      0.140
      0.949        80.     17.097      0.111
      0.949        80.     17.145      0.176
      0.949        80.     17.198      0.192
      0.949        80.     17.243      0.196
      0.949        80.     17.293      0.192
      0.949        80.     17.346      0.270
      0.949        80.     17.398      0.454      0.058
      0.949        80.     17.444      0.582      0.058
      0.949        80.     17.494      0.544      0.053
      0.949        80.     17.496      0.446
      0.949        80.     17.508      0.367
      0.949        80.     17.538      0.355
      0.949        80.     17.544      0.404
      0.949        80.     17.563      0.371
      0.949        80.     17.590      0.437
      0.949        80.     17.598      0.351
      0.949        80.     17.617      0.437
      0.949        80.     17.646      0.449
      0.949        80.     17.661      0.387
      0.949        80.     17.671      0.342
      0.949        80.     17.700      0.346
      0.949        80.     17.702      0.276
      0.949        80.     17.721      0.231
      0.949        80.     17.752      0.206
      0.949        80.     17.790      0.239
      0.949        80.     17.819      0.197
      0.949        80.     17.838      0.234
      0.949        80.     17.865      0.267
      0.949        80.     17.888      0.296
      0.949        80.     17.907      0.255
      0.949        80.     17.917      0.209
      0.949        80.     17.944      0.238
      0.949        80.     17.963      0.205
      0.949        80.     18.002      0.287
      0.949        80.     18.040      0.279
      0.949        80.     18.098      0.171
      0.949        80.     18.150      0.188
      0.949        80.     18.211      0.169
      0.949        90.     15.990      0.560
      0.949        90.     16.042      0.299
      0.949        90.     16.090      0.232
      0.949        90.     16.136      0.367
      0.949        90.     16.186      0.282
      0.949        90.     16.243      0.240
      0.949        90.     16.295      0.144
      0.949        90.     16.343      0.186
      0.949        90.     16.393      0.266
      0.949        90.     16.443      0.295
      0.949        90.     16.491      0.279
      0.949        90.     16.543      0.173
      0.949        90.     16.594      0.253
      0.949        90.     16.646      0.439
      0.949        90.     16.692      0.620      0.051
      0.949        90.     16.744      0.586      0.059
      0.949        90.     16.794      0.658      0.051
      0.949        90.     16.846      0.464
      0.949        90.     16.897      0.229
      0.949        90.     16.949      0.178
      0.949        90.     16.997      0.094
      0.949        90.     17.043      0.081
      0.949        90.     17.095      0.161
      0.949        90.     17.151      0.119
      0.949        90.     17.195      0.162
      0.949        90.     17.250      0.120
      0.949        90.     17.298      0.149
      0.949        90.     17.346      0.208
      0.949        90.     17.400      0.339      0.059
      0.949        90.     17.450      0.486      0.059
      0.949        90.     17.500      0.482      0.055
      0.949        90.     17.521      0.351
      0.949        90.     17.534      0.276
      0.949        90.     17.557      0.335
      0.949        90.     17.565      0.229
      0.949        90.     17.580      0.200
      0.949        90.     17.605      0.309
      0.949        90.     17.619      0.276
      0.949        90.     17.636      0.305
      0.949        90.     17.649      0.360
      0.949        90.     17.667      0.364
      0.949        90.     17.699      0.318
      0.949        90.     17.722      0.259
      0.949        90.     17.726      0.204
      0.949        90.     17.753      0.225
      0.949        90.     17.770      0.280
      0.949        90.     17.795      0.301
      0.949        90.     17.812      0.217
      0.949        90.     17.820      0.280
      0.949        90.     17.851      0.280
      0.949        90.     17.853      0.230
      0.949        90.     17.872      0.272
      0.949        90.     17.904      0.297
      0.949        90.     17.939      0.327
      0.949        90.     17.968      0.293
      0.949        90.     18.004      0.314
      0.949        90.     18.056      0.280
      0.949        90.     18.104      0.184
      0.949        90.     18.152      0.125
      0.949        90.     18.202      0.121
      0.949       100.     15.990      0.543
      0.949       100.     16.044      0.491
      0.949       100.     16.096      0.417
      0.949       100.     16.142      0.526
      0.949       100.     16.189      0.452
      0.949       100.     16.245      0.326
      0.949       100.     16.295      0.148
      0.949       100.     16.347      0.257
      0.949       100.     16.395      0.343
      0.949       100.     16.447      0.465
      0.949       100.     16.492      0.448
      0.949       100.     16.542      0.270
      0.949       100.     16.592      0.161
      0.949       100.     16.644      0.278
      0.949       100.     16.693      0.326
      0.949       100.     16.739      0.278
      0.949       100.     16.797      0.409
      0.949       100.     16.839      0.365
      0.949       100.     16.888      0.183
      0.949       100.     16.988      0.139      0.078
      0.949       100.     17.042      0.148
      0.949       100.     17.089      0.196
      0.949       100.     17.143      0.217
      0.949       100.     17.191      0.248
      0.949       100.     17.239      0.170
      0.949       100.     17.297      0.161
      0.949       100.     17.340      0.161
      0.949       100.     17.390      0.204
      0.949       100.     17.442      0.204
      0.949       100.     17.492      0.244
      0.949       100.     17.511      0.178
      0.949       100.     17.533      0.200
      0.949       100.     17.554      0.170
      0.949       100.     17.581      0.139
      0.949       100.     17.600      0.178
      0.949       100.     17.631      0.204
      0.949       100.     17.645      0.265
      0.949       100.     17.674      0.300
      0.949       100.     17.706      0.296
      0.949       100.     17.735      0.257
      0.949       100.     17.751      0.265
      0.949       100.     17.778      0.244
      0.949       100.     17.795      0.287
      0.949       100.     17.815      0.309
      0.949       100.     17.838      0.348
      0.949       100.     17.849      0.304
      0.949       100.     17.865      0.348
      0.949       100.     17.890      0.343
      0.949       100.     17.917      0.326
      0.949       100.     17.938      0.357
      0.949       100.     17.956      0.313
      0.949       100.     17.990      0.339
      0.949       100.     18.008      0.287
      0.949       100.     18.039      0.291
      0.949       100.     18.093      0.200
      0.949       100.     18.135      0.187
      0.949       100.     18.189      0.200
      0.949       110.     15.998      0.677
      0.949       110.     16.048      0.531
      0.949       110.     16.096      0.456
      0.949       110.     16.151      0.672
      0.949       110.     16.194      0.718
      0.949       110.     16.248      0.545      0.047
      0.949       110.     16.302      0.459
      0.949       110.     16.349      0.552
      0.949       110.     16.403      0.749
      0.949       110.     16.453      0.917      0.078
      0.949       110.     16.495      0.854      0.067
      0.949       110.     16.553      0.567
      0.949       110.     16.599      0.276
      0.949       110.     16.653      0.264
      0.949       110.     16.702      0.228
      0.949       110.     16.751      0.310
      0.949       110.     16.799      0.345
      0.949       110.     16.856      0.313
      0.949       110.     16.898      0.164
      0.949       110.     16.952      0.104
      0.949       110.     17.007      0.277
      0.949       110.     17.051      0.213
      0.949       110.     17.110      0.221
      0.949       110.     17.154      0.224
      0.949       110.     17.201      0.334
      0.949       110.     17.252      0.385
      0.949       110.     17.304      0.380
      0.949       110.     17.355      0.258
      0.949       110.     17.405      0.246
      0.949       110.     17.451      0.140
      0.949       110.     17.500      0.186
      0.949       110.     17.536      0.225
      0.949       110.     17.550      0.186
      0.949       110.     17.569      0.209
      0.949       110.     17.585      0.217
      0.949       110.     17.609      0.193
      0.949       110.     17.643      0.221
      0.949       110.     17.654      0.276
      0.949       110.     17.676      0.248
      0.949       110.     17.686      0.291
      0.949       110.     17.710      0.322
      0.949       110.     17.759      0.314
      0.949       110.     17.789      0.259
      0.949       110.     17.807      0.306
      0.949       110.     17.825      0.270
      0.949       110.     17.844      0.298
      0.949       110.     17.859      0.313
      0.949       110.     17.910      0.312
      0.949       110.     17.928      0.313
      0.949       110.     17.959      0.360
      0.949       110.     17.989      0.293
      0.949       110.     17.999      0.257
      0.949       110.     18.006      0.223
      0.949       110.     18.013      0.304
      0.949       110.     18.021      0.265
      0.949       110.     18.063      0.321
      0.949       110.     18.110      0.229
      0.949       110.     18.161      0.221
      0.949       110.     18.209      0.201
      0.949       120.     15.988      0.554
      0.949       120.     16.036      0.454
      0.949       120.     16.083      0.481
      0.949       120.     16.133      0.765      0.065
      0.949       120.     16.190      0.588      0.050
      0.949       120.     16.238      0.635
      0.949       120.     16.287      0.681
      0.949       120.     16.337      0.942      0.058
      0.949       120.     16.388      0.965      0.054
      0.949       120.     16.436      1.165      0.065
      0.949       120.     16.485      0.750      0.058
      0.949       120.     16.543      0.473      0.046
      0.949       120.     16.588      0.438
      0.949       120.     16.634      0.515
      0.949       120.     16.691      0.388
      0.949       120.     16.739      0.450
      0.949       120.     16.792      0.350
      0.949       120.     16.842      0.242
      0.949       120.     16.895      0.150
      0.949       120.     16.939      0.235
      0.949       120.     16.996      0.319
      0.949       120.     17.044      0.238
      0.949       120.     17.089      0.162
      0.949       120.     17.141      0.265
      0.949       120.     17.186      0.373
      0.949       120.     17.248      0.431
      0.949       120.     17.293      0.377
      0.949       120.     17.341      0.365
      0.949       120.     17.392      0.312
      0.949       120.     17.448      0.265
      0.949       120.     17.491      0.304
      0.949       120.     17.509      0.300
      0.949       120.     17.539      0.292
      0.949       120.     17.570      0.296
      0.949       120.     17.596      0.296
      0.949       120.     17.620      0.269
      0.949       120.     17.644      0.227
      0.949       120.     17.669      0.262
      0.949       120.     17.691      0.273
      0.949       120.     17.735      0.277
      0.949       120.     17.751      0.250
      0.949       120.     17.780      0.246
      0.949       120.     17.798      0.227
      0.949       120.     17.814      0.173
      0.949       120.     17.826      0.219
      0.949       120.     17.844      0.250
      0.949       120.     17.865      0.235
      0.949       120.     17.893      0.250
      0.949       120.     17.919      0.288
      0.949       120.     17.941      0.308
      0.949       120.     17.962      0.269
      0.949       120.     17.996      0.223
      0.949       120.     18.036      0.177
      0.949       120.     18.095      0.181
      0.949       120.     18.137      0.185
      0.949       120.     18.196      0.192
      0.949       130.     15.990      0.689      0.049
      0.949       130.     16.091      0.574
      0.949       130.     16.190      0.861      0.061
      0.949       130.     16.244      0.820      0.074
      0.949       130.     16.291      0.869      0.053
      0.949       130.     16.339      0.959      0.061
      0.949       130.     16.390      1.143      0.070
      0.949       130.     16.440      1.180      0.057
      0.949       130.     16.495      1.115      0.061
      0.949       130.     16.543      0.676      0.061
      0.949       130.     16.596      0.422
      0.949       130.     16.642      0.566
      0.949       130.     16.697      0.791      0.061
      0.949       130.     16.743      0.762      0.057
      0.949       130.     16.794      0.475
      0.949       130.     16.848      0.791      0.057
      0.949       130.     16.945      0.320
      0.949       130.     16.998      0.439
      0.949       130.     17.048      0.504
      0.949       130.     17.101      0.357
      0.949       130.     17.145      0.439
      0.949       130.     17.192      0.352
      0.949       130.     17.248      0.348
      0.949       130.     17.295      0.332
      0.949       130.     17.345      0.381
      0.949       130.     17.392      0.344
      0.949       130.     17.442      0.377
      0.949       130.     17.497      0.287
      0.949       130.     17.551      0.189
      0.949       130.     17.574      0.160
      0.949       130.     17.598      0.213
      0.949       130.     17.600      0.160
      0.949       130.     17.624      0.197
      0.949       130.     17.644      0.164
      0.949       130.     17.667      0.139
      0.949       130.     17.681      0.057
      0.949       130.     17.689      0.123
      0.949       130.     17.709      0.135
      0.949       130.     17.745      0.168
      0.949       130.     17.764      0.172
      0.949       130.     17.778      0.139
      0.949       130.     17.798      0.131
      0.949       130.     17.800      0.193
      0.949       130.     17.818      0.127
      0.949       130.     17.836      0.143
      0.949       130.     17.848      0.197
      0.949       130.     17.855      0.111
      0.949       130.     17.877      0.143
      0.949       130.     17.893      0.168
      0.949       130.     17.907      0.205
      0.949       130.     17.949      0.275
      0.949       130.     17.994      0.234
      0.949       130.     18.048      0.180
      0.949       130.     18.097      0.217
      0.949       130.     18.149      0.213
      0.949       130.     18.194      0.201
      0.949       140.     15.996      0.618
      0.949       140.     16.046      0.719
      0.949       140.     16.093      0.951      0.049
      0.949       140.     16.144      1.056      0.061
      0.949       140.     16.200      0.711
      0.949       140.     16.248      0.788
      0.949       140.     16.293      0.564
      0.949       140.     16.343      0.674
      0.949       140.     16.392      0.702
      0.949       140.     16.448      0.548
      0.949       140.     16.496      0.365
      0.949       140.     16.547      0.243
      0.949       140.     16.601      0.397
      0.949       140.     16.646      0.519
      0.949       140.     16.694      0.560
      0.949       140.     16.745      0.543
      0.949       140.     16.793      0.425
      0.949       140.     16.840      0.441
      0.949       140.     16.898      0.307
      0.949       140.     16.944      0.364
      0.949       140.     16.991      0.409
      0.949       140.     17.046      0.587
      0.949       140.     17.092      0.656
      0.949       140.     17.150      0.555
      0.949       140.     17.195      0.254
      0.949       140.     17.241      0.140
      0.949       140.     17.296      0.233
      0.949       140.     17.348      0.315
      0.949       140.     17.403      0.241
      0.949       140.     17.443      0.225
      0.949       140.     17.477      0.164
      0.949       140.     17.497      0.176
      0.949       140.     17.554      0.087
      0.949       140.     17.592      0.119
      0.949       140.     17.643      0.156
      0.949       140.     17.675      0.164
      0.949       140.     17.693      0.200
      0.949       140.     17.717      0.237
      0.949       140.     17.740      0.224
      0.949       140.     17.774      0.208
      0.949       140.     17.794      0.180
      0.949       140.     17.822      0.200
      0.949       140.     17.841      0.240
      0.949       140.     17.863      0.245
      0.949       140.     17.887      0.228
      0.949       140.     17.901      0.269
      0.949       140.     17.917      0.236
      0.949       140.     17.939      0.200
      0.949       140.     17.968      0.167
      0.949       140.     17.992      0.147
      0.949       140.     18.042      0.183
      0.949       140.     18.095      0.216
      0.949       140.     18.145      0.211
      0.949       140.     18.196      0.150
      0.949       150.     16.000      0.748
      0.949       150.     16.049      1.100      0.084
      0.949       150.     16.100      1.461      0.092
      0.949       150.     16.144      1.301      0.101
      0.949       150.     16.203      0.864
      0.949       150.     16.255      0.624
      0.949       150.     16.303      0.334
      0.949       150.     16.354      0.468
      0.949       150.     16.405      0.590
      0.949       150.     16.453      0.627
      0.949       150.     16.508      0.455
      0.949       150.     16.552      0.366
      0.949       150.     16.611      0.349
      0.949       150.     16.656      0.420
      0.949       150.     16.706      0.424
      0.949       150.     16.755      0.457
      0.949       150.     16.806      0.486
      0.949       150.     16.861      0.558
      0.949       150.     16.905      0.297
      0.949       150.     16.960      0.271
      0.949       150.     17.004      0.338
      0.949       150.     17.057      0.665
      0.949       150.     17.110      0.900      0.080
      0.949       150.     17.157      0.761
      0.949       150.     17.207      0.434
      0.949       150.     17.260      0.320
      0.949       150.     17.308      0.374
      0.949       150.     17.359      0.466
      0.949       150.     17.412      0.285
      0.949       150.     17.454      0.222
      0.949       150.     17.513      0.243
      0.949       150.     17.529      0.289
      0.949       150.     17.551      0.238
      0.949       150.     17.553      0.314
      0.949       150.     17.580      0.314
      0.949       150.     17.602      0.343
      0.949       150.     17.618      0.385
      0.949       150.     17.633      0.351
      0.949       150.     17.645      0.414
      0.949       150.     17.659      0.477
      0.949       150.     17.673      0.385
      0.949       150.     17.681      0.553
      0.949       150.     17.706      0.582
      0.949       150.     17.724      0.607
      0.949       150.     17.756      0.502
      0.949       150.     17.777      0.531
      0.949       150.     17.789      0.434
      0.949       150.     17.805      0.384
      0.949       150.     17.829      0.426
      0.949       150.     17.854      0.430
      0.949       150.     17.858      0.497
      0.949       150.     17.902      0.455
      0.949       150.     17.914      0.404
      0.949       150.     17.930      0.349
      0.949       150.     17.967      0.307
      0.949       150.     17.981      0.253
      0.949       150.     18.011      0.236
      0.949       150.     18.036      0.261
      0.949       150.     18.060      0.286
      0.949       150.     18.109      0.340
      0.949       150.     18.157      0.352
      0.949       150.     18.214      0.306
      0.949       160.     16.001      0.602
      0.949       160.     16.051      1.159      0.078
      0.949       160.     16.100      1.606      0.086
      0.949       160.     16.150      1.159      0.074
      0.949       160.     16.207      0.638      0.057
      0.949       160.     16.253      0.351
      0.949       160.     16.310      0.170
      0.949       160.     16.353      0.407
      0.949       160.     16.403      0.719
      0.949       160.     16.451      1.272      0.078
      0.949       160.     16.507      1.029      0.045
      0.949       160.     16.557      0.853
      0.949       160.     16.611      0.402
      0.949       160.     16.659      0.283
      0.949       160.     16.708      0.205
      0.949       160.     16.758      0.303
      0.949       160.     16.799      0.352
      0.949       160.     16.856      0.372      0.045
      0.949       160.     16.902      0.216
      0.949       160.     16.956      0.150
      0.949       160.     17.009      0.203
      0.949       160.     17.060      0.407
      0.949       160.     17.100      0.559
      0.949       160.     17.159      0.669
      0.949       160.     17.199      0.698
      0.949       160.     17.254      0.705
      0.949       160.     17.304      0.631
      0.949       160.     17.355      0.680
      0.949       160.     17.401      0.610
      0.949       160.     17.454      0.610
      0.949       160.     17.507      0.712
      0.949       160.     17.527      0.876
      0.949       160.     17.559      0.876
      0.949       160.     17.564      0.970
      0.949       160.     17.580      1.044
      0.949       160.     17.608      0.961
      0.949       160.     17.622      0.933
      0.949       160.     17.650      0.920
      0.949       160.     17.654      0.744
      0.949       160.     17.671      0.908
      0.949       160.     17.685      0.961
      0.949       160.     17.713      0.957
      0.949       160.     17.727      0.908
      0.949       160.     17.739      0.772
      0.949       160.     17.749      0.727
      0.949       160.     17.783      0.690
      0.949       160.     17.810      0.645
      0.949       160.     17.852      0.595
      0.949       160.     17.868      0.644
      0.949       160.     17.904      0.456
      0.949       160.     17.922      0.427
      0.949       160.     17.953      0.464
      0.949       160.     17.959      0.509
      0.949       160.     17.979      0.496
      0.949       160.     18.001      0.463
      0.949       160.     18.027      0.439
      0.949       160.     18.050      0.418
      0.949       160.     18.104      0.430
      0.949       160.     18.153      0.512
      0.949       160.     18.201      0.569
      0.949       170.     15.998      0.646
      0.949       170.     16.049      1.381      0.172
      0.949       170.     16.103      1.961      0.114
      0.949       170.     16.143      1.266      0.114
      0.949       170.     16.196      0.596
      0.949       170.     16.250      0.220
      0.949       170.     16.305      0.113
      0.949       170.     16.351      0.677
      0.949       170.     16.400      1.290
      0.949       170.     16.451      2.769      0.196
      0.949       170.     16.511      2.442      0.155
      0.949       170.     16.547      1.821      0.131
      0.949       170.     16.597      0.692
      0.949       170.     16.652      0.357
      0.949       170.     16.702      0.177
      0.949       170.     16.757      0.275
      0.949       170.     16.803      0.430
      0.949       170.     16.850      0.324
      0.949       170.     16.904      0.225
      0.949       170.     16.955      0.225
      0.949       170.     16.997      0.184
      0.949       170.     17.049      0.290
      0.949       170.     17.104      0.405
      0.949       170.     17.148      0.699
      0.949       170.     17.201      1.467
      0.949       170.     17.250      1.614      0.090
      0.949       170.     17.298      1.213
      0.949       170.     17.346      1.376
      0.949       170.     17.397      1.352
      0.949       170.     17.451      1.425
      0.949       170.     17.498      1.474
      0.949       170.     17.500      1.302
      0.949       170.     17.518      1.834
      0.949       170.     17.548      1.850
      0.949       170.     17.575      1.882
      0.949       170.     17.595      1.711
      0.949       170.     17.619      1.702
      0.949       170.     17.643      1.187
      0.949       170.     17.643      1.441
      0.949       170.     17.687      1.236
      0.949       170.     17.702      1.081
      0.949       170.     17.720      1.048
      0.949       170.     17.740      1.023
      0.949       170.     17.754      0.966
      0.949       170.     17.770      0.893
      0.949       170.     17.798      0.925
      0.949       170.     17.814      0.852
      0.949       170.     17.839      0.925
      0.949       170.     17.845      0.753
      0.949       170.     17.863      0.794
      0.949       170.     17.875      0.639
      0.949       170.     17.895      0.434
      0.949       170.     17.919      0.639
      0.949       170.     17.948      0.810
      0.949       170.     17.950      1.031
      0.949       170.     17.980      1.096
      0.949       170.     18.000      0.982
      0.949       170.     18.010      0.875
      0.949       170.     18.045      0.712
      0.949       170.     18.097      0.769
      0.949       170.     18.144      0.932
      0.949       170.     18.194      0.842
ENDDATA           2196
ENDSUBENT         2232
SUBENT        C2622004   20210914   20220328   20220327       C209
BIB                  7         27
REACTION   (14-SI-28(P,A)13-AL-25,PAR,DA)
SAMPLE     Thin SiO2, targets, 50-100 mu-g/cm2, were used and
           placed in a large volume scattering chamber.
DETECTOR   (SIBAR) Six surface barrier detectors (100 mu-m) spaced
           10 degrees apart.
CORRECTION Impurity peaks due to the 29Si and 30Si in the natural
           targets contributed to the under-lying background, and
           contributed to the uncertainty in the background
           subtraction. Proton background and dead time
           corrections were made.
LEVEL-PROP (13-AL-25,E-LVL=0.0,SPIN=2.5,PARITY=+1.)
           (13-AL-25,E-LVL=0.455,SPIN=0.5,PARITY=+1.)
           (13-AL-25,E-LVL=0.949,SPIN=1.5,PARITY=+1.)
ERR-ANALYS The largest source of error was due to the background
           subtraction and the statistical errors.
           (ERR-T,5.,15.) A combination of background subtraction,
           statistical, beam integration, and relative solid angle
           determination errors gives a relative uncertainty in
           the data which varies between 5 and 15 %.
           The absolute error is 15 % and arises from the
           uncertainty in the determination of the target
           thickness-solid angle product.
           (ERR-1) Background subtraction errors (about 5%)
           (ERR-S) Statistical errors vary from 2% to 15%.
STATUS     (CURVE) Fig.6 (p.184) in Nucl.Phys.A,232,176,1974 was
           digitized by GSYS2.4.7.
           (COREL,C2622003) Excitation function
ENDBIB              27
COMMON               1          3
ERR-1
PER-CENT
5.
ENDCOMMON            3
DATA                 5        318
E-LVL      EN         ANG-CM     DATA-CM    ERR-S
MEV        MEV        ADEG       MB/SR      MB/SR
        0.0       16.0     40.056  1.649E+00
        0.0       16.0     51.229  1.115E+00
        0.0       16.0     62.484  9.199E-01
        0.0       16.0     73.136  8.834E-01
        0.0       16.0     84.160  9.313E-01
        0.0       16.0     94.386  7.165E-01  1.272E-01
        0.0       16.0    104.371  6.883E-01  1.130E-01
        0.0       16.0    113.193  9.957E-01
        0.0       16.0    123.289  1.251E+00
        0.0       16.0    152.495  9.099E-01
        0.0       16.0    160.369  6.690E-01
        0.0       16.0    168.480  8.715E-01
        0.0       16.5     38.925  7.339E-01
        0.0       16.5     50.403  9.798E-01
        0.0       16.5     62.135  1.108E+00  9.247E-02
        0.0       16.5     73.450  1.055E+00
        0.0       16.5     84.055  9.185E-01
        0.0       16.5     95.031  8.643E-01
        0.0       16.5    105.728  9.102E-01  7.879E-02
        0.0       16.5    113.709  8.671E-01
        0.0       16.5    123.691  8.256E-01
        0.0       16.5    142.457  9.951E-01  7.988E-02
        0.0       16.5    151.840  1.093E+00
        0.0       16.5    162.078  8.865E-01
        0.0       16.5    169.668  7.500E-01  5.905E-02
        0.0       17.0     40.476  1.502E+00
        0.0       17.0     52.080  9.089E-01
        0.0       17.0     62.737  6.813E-01  1.045E-01
        0.0       17.0     72.929  1.053E+00
        0.0       17.0     84.026  1.139E+00
        0.0       17.0     93.720  9.955E-01
        0.0       17.0    104.765  8.965E-01
        0.0       17.0    113.276  1.372E+00
        0.0       17.0    143.038  9.435E-01
        0.0       17.0    154.156  1.096E+00
        0.0       17.0    162.606  1.355E+00
        0.0       17.0    171.432  1.931E+00
        0.0       17.5     29.165  1.543E+00
        0.0       17.5     41.200  1.636E+00
        0.0       17.5     52.547  1.328E+00
        0.0       17.5     64.219  9.568E-01
        0.0       17.5     74.250  1.025E+00
        0.0       17.5     85.962  1.248E+00
        0.0       17.5    104.993  9.829E-01
        0.0       17.5    114.358  1.085E+00
        0.0       17.5    134.458  2.021E+00
        0.0       17.5    144.134  1.641E+00
        0.0       17.5    153.454  1.009E+00
        0.0       17.5    163.824  1.147E+00
        0.0       17.5    171.882  1.863E+00
        0.0       17.6     29.281  1.744E+00
        0.0       17.6     40.601  1.638E+00
        0.0       17.6     51.870  1.195E+00
        0.0       17.6     62.855  1.111E+00
        0.0       17.6     73.196  1.155E+00
        0.0       17.6     83.850  1.085E+00
        0.0       17.6     94.797  8.411E-01
        0.0       17.6    104.409  6.458E-01
        0.0       17.6    113.482  9.179E-01
        0.0       17.6    133.933  1.625E+00
        0.0       17.6    142.922  1.543E+00
        0.0       17.6    152.497  9.877E-01
        0.0       17.6    161.753  6.787E-01
        0.0       17.6    169.823  9.551E-01
        0.0       17.7     29.034  1.217E+00
        0.0       17.7     40.640  1.014E+00
        0.0       17.7     52.253  9.348E-01
        0.0       17.7     63.553  1.143E+00
        0.0       17.7     73.518  1.264E+00
        0.0       17.7     83.470  1.142E+00
        0.0       17.7    104.343  6.350E-01
        0.0       17.7    112.968  5.913E-01
        0.0       17.7    122.956  9.121E-01
        0.0       17.7    131.613  1.324E+00
        0.0       17.7    140.919  1.571E+00
        0.0       17.7    151.537  1.478E+00
        0.0       17.7    160.473  9.964E-01
        0.0       17.7    167.400  5.274E-01
        0.0       17.8     31.168  7.968E-01
        0.0       17.8     42.147  9.576E-01
        0.0       17.8     52.805  1.250E+00
        0.0       17.8     62.116  1.412E+00
        0.0       17.8     73.738  1.454E+00
        0.0       17.8     84.346  1.310E+00
        0.0       17.8     94.294  1.205E+00
        0.0       17.8    103.566  1.021E+00
        0.0       17.8    113.520  9.888E-01
        0.0       17.8    122.828  1.095E+00
        0.0       17.8    133.511  1.719E+00
        0.0       17.8    142.835  2.132E+00
        0.0       17.8    151.796  2.107E+00
        0.0       17.8    160.388  1.578E+00
        0.0       17.8    168.982  1.206E+00
        0.0       17.9     31.508  1.293E+00
        0.0       17.9     43.190  1.250E+00
        0.0       17.9     53.834  1.059E+00
        0.0       17.9     64.511  1.014E+00
        0.0       17.9     75.547  1.064E+00
        0.0       17.9     85.547  9.883E-01
        0.0       17.9     95.192  8.461E-01
        0.0       17.9    105.212  8.440E-01
        0.0       17.9    124.576  8.145E-01
        0.0       17.9    134.913  7.642E-01
        0.0       17.9    144.035  1.112E+00
        0.0       17.9    153.465  1.475E+00
        0.0       17.9    162.531  1.750E+00
        0.0       17.9    171.178  1.530E+00
        0.0       18.0     31.977  1.306E+00
        0.0       18.0     43.693  1.442E+00
        0.0       18.0     53.346  1.259E+00
        0.0       18.0     64.299  9.516E-01
        0.0       18.0     74.986  9.421E-01
        0.0       18.0     86.701  1.040E+00
        0.0       18.0     94.697  9.551E-01
        0.0       18.0    105.993  7.468E-01
        0.0       18.0    124.460  1.097E+00
        0.0       18.0    144.860  1.210E+00
        0.0       18.0    153.889  1.260E+00
        0.0       18.0    162.966  1.592E+00
        0.0       18.0    172.072  2.265E+00
      0.455       16.0     47.773  5.835E-01
      0.455       16.0     57.252  3.193E-01
      0.455       16.0     69.018  1.885E-01
      0.455       16.0     79.804  1.373E-01
      0.455       16.0     90.916  7.746E-02
      0.455       16.0    100.068  7.983E-02
      0.455       16.0    108.892  1.313E-01
      0.455       16.0    123.927  1.573E-01
      0.455       16.0    136.020  1.217E-01
      0.455       16.0    148.440  3.099E-01
      0.455       16.0    156.611  4.797E-01
      0.455       16.0    165.109  7.097E-01
      0.455       16.5     59.848  1.083E-01
      0.455       16.5     71.761  5.354E-02
      0.455       16.5     81.792  1.268E-01
      0.455       16.5     90.246  1.998E-01
      0.455       16.5    100.427  1.804E-01
      0.455       16.5    111.886  2.012E-01
      0.455       16.5    127.961  1.905E-01
      0.455       16.5    137.040  3.652E-01
      0.455       16.5    149.144  4.393E-01
      0.455       16.5    159.596  5.695E-01
      0.455       16.5    166.849  4.419E-01
      0.455       17.0     50.508  1.534E-01  3.983E-02
      0.455       17.0     61.262  1.878E-01  4.515E-02
      0.455       17.0     71.085  1.472E-01  5.005E-02
      0.455       17.0     82.139  2.306E-01  3.892E-02
      0.455       17.0     91.035  1.103E-01  2.924E-02
      0.455       17.0    102.109  1.438E-01
      0.455       17.0    112.770  4.235E-01
      0.455       17.0    126.413  8.239E-01
      0.455       17.0    137.224  5.978E-01
      0.455       17.0    149.654  4.908E-01
      0.455       17.0    158.099  7.453E-01
      0.455       17.5     53.088  1.769E-01
      0.455       17.5     64.240  1.642E-01
      0.455       17.5     74.077  1.645E-01
      0.455       17.5     84.543  2.447E-01
      0.455       17.5    104.896  1.703E-01
      0.455       17.5    114.426  1.220E-01
      0.455       17.5    124.908  1.444E-01
      0.455       17.5    134.809  5.376E-02
      0.455       17.5    169.716  8.121E-01
      0.455       17.6     53.290  2.000E-01
      0.455       17.6     64.762  7.977E-02
      0.455       17.6     74.883  2.360E-01
      0.455       17.6     84.686  4.445E-01
      0.455       17.6     94.835  3.389E-01
      0.455       17.6    106.305  1.480E-01
      0.455       17.6    115.823  3.929E-02  7.472E-03
      0.455       17.6    124.973  6.965E-02
      0.455       17.6    135.104  1.254E-01
      0.455       17.6    161.238  9.441E-01
      0.455       17.6    170.715  1.699E+00
      0.455       17.7     56.165  1.732E-01
      0.455       17.7     66.367  9.790E-02
      0.455       17.7     76.541  8.434E-02
      0.455       17.7     86.289  3.272E-01
      0.455       17.7    107.309  1.909E-01
      0.455       17.7    117.933  2.584E-02  4.908E-03
      0.455       17.7    128.103  2.364E-02  6.433E-03
      0.455       17.7    136.870  8.765E-02
      0.455       17.7    164.225  1.490E+00
      0.455       17.7    173.374  2.414E+00
      0.455       17.8     44.132  8.712E-02
      0.455       17.8     54.684  9.501E-02
      0.455       17.8     65.582  1.065E-01
      0.455       17.8     75.433  1.805E-01
      0.455       17.8     85.411  2.239E-01
      0.455       17.8     95.299  1.445E-01
      0.455       17.8    105.496  5.440E-02
      0.455       17.8    116.166  1.189E-01
      0.455       17.8    125.871  2.676E-01
      0.455       17.8    153.039  4.078E-01
      0.455       17.8    162.790  2.128E-01
      0.455       17.9     56.387  1.164E-01
      0.455       17.9     67.207  1.112E-01
      0.455       17.9     77.371  7.871E-02
      0.455       17.9     87.864  1.855E-01
      0.455       17.9     98.028  2.469E-01
      0.455       17.9    108.520  1.164E-01
      0.455       17.9    118.357  3.339E-02  7.921E-03
      0.455       17.9    128.194  9.012E-02
      0.455       17.9    138.030  2.544E-01
      0.455       17.9    164.261  2.583E-01
      0.455       17.9    175.409  1.332E-01
      0.455       18.0     61.282  1.490E-01
      0.455       18.0     71.663  2.012E-01
      0.455       18.0     81.834  1.293E-01
      0.455       18.0     92.451  3.837E-02  8.999E-03
      0.455       18.0    102.440  7.970E-02
      0.455       18.0    112.089  1.810E-01
      0.455       18.0    121.884  1.612E-01
      0.455       18.0    131.747  9.197E-02
      0.455       18.0    168.300  5.292E-01
      0.455       18.0    178.825  2.845E-01
      0.949       16.0     83.144  3.064E+00
      0.949       16.0     91.360  7.007E+00
      0.949       16.0    101.539  6.749E+00
      0.949       16.0    111.065  8.774E+00
      0.949       16.0    122.258  8.013E+00
      0.949       16.0    131.107  1.060E+01
      0.949       16.0    138.910  1.022E+01
      0.949       16.0    158.943  1.111E+01
      0.949       16.5     84.136  2.964E+00
      0.949       16.5     94.297  2.827E+00
      0.949       16.5    102.766  4.757E+00
      0.949       16.5    113.607  9.823E+00
      0.949       16.5    122.752  9.518E+00
      0.949       16.5    132.237  1.325E+01
      0.949       16.5    141.378  4.832E+00
      0.949       16.5    151.201  6.121E+00
      0.949       16.5    158.994  1.389E+01
      0.949       16.5    166.787  3.413E+01
      0.949       17.0     86.156  6.637E-02
      0.949       17.0     96.317  7.069E-02
      0.949       17.0    105.803  1.555E-01
      0.949       17.0    114.273  2.743E-01
      0.949       17.0    123.757  3.474E-01
      0.949       17.0    133.581  5.317E-01
      0.949       17.0    141.710  5.402E-01
      0.949       17.0    151.870  4.762E-01
      0.949       17.0    161.352  2.657E-01
      0.949       17.0    169.480  2.380E-01
      0.949       17.5     55.436  3.562E-01
      0.949       17.5     64.593  2.698E-01
      0.949       17.5     75.092  2.743E-01
      0.949       17.5     85.571  4.368E-01
      0.949       17.5    105.242  2.356E-01
      0.949       17.5    115.409  2.052E-01
      0.949       17.5    125.553  3.071E-01
      0.949       17.5    134.018  3.269E-01
      0.949       17.5    143.860  2.057E-01
      0.949       17.5    153.662  3.326E-01
      0.949       17.5    162.085  9.242E-01
      0.949       17.5    169.167  1.884E+00
      0.949       17.6     53.764  4.625E-01
      0.949       17.6     64.236  2.604E-01
      0.949       17.6     74.060  2.686E-01
      0.949       17.6     84.916  3.931E-01
      0.949       17.6     95.391  2.359E-01
      0.949       17.6    104.846  1.308E-01
      0.949       17.6    115.024  1.854E-01
      0.949       17.6    124.184  2.547E-01
      0.949       17.6    133.309  1.682E-01
      0.949       17.6    142.780  1.282E-01
      0.949       17.6    151.647  4.577E-01
      0.949       17.6    160.499  1.170E+00
      0.949       17.6    169.333  2.073E+00
      0.949       17.7     55.999  5.065E-01
      0.949       17.7     65.798  3.147E-01
      0.949       17.7     75.609  2.536E-01
      0.949       17.7     86.447  2.495E-01
      0.949       17.7    105.767  3.332E-01
      0.949       17.7    115.929  3.380E-01
      0.949       17.7    126.077  2.602E-01
      0.949       17.7    136.198  1.190E-01
      0.949       17.7    143.014  2.720E-01
      0.949       17.7    153.564  7.470E-01
      0.949       17.7    162.059  1.276E+00
      0.949       17.7    170.873  1.509E+00
      0.949       17.8     57.703  5.203E-01
      0.949       17.8     78.862  2.338E-01
      0.949       17.8     90.091  2.235E-01
      0.949       17.8     99.951  2.347E-01
      0.949       17.8    109.803  2.668E-01
      0.949       17.8    119.998  2.985E-01
      0.949       17.8    128.185  2.287E-01
      0.949       17.8    139.458  1.320E-01
      0.949       17.8    147.572  2.295E-01
      0.949       17.8    157.711  4.824E-01
      0.949       17.8    165.484  8.523E-01
      0.949       17.8    173.955  1.227E+00
      0.949       17.9     53.124  3.280E-01
      0.949       17.9     63.413  2.552E-01
      0.949       17.9     73.713  2.549E-01
      0.949       17.9     84.352  2.319E-01
      0.949       17.9     94.319  2.838E-01
      0.949       17.9    104.973  3.529E-01
      0.949       17.9    114.581  3.111E-01
      0.949       17.9    124.519  2.103E-01
      0.949       17.9    134.464  1.611E-01
      0.949       17.9    143.764  3.007E-01
      0.949       17.9    153.059  5.110E-01
      0.949       17.9    163.021  5.695E-01
      0.949       17.9    171.600  5.101E-01
      0.949       18.0     53.409  2.056E-01
      0.949       18.0     65.122  2.659E-01
      0.949       18.0     74.373  2.345E-01
      0.949       18.0     84.353  2.726E-01
      0.949       18.0     94.658  2.803E-01
      0.949       18.0    103.946  3.160E-01
      0.949       18.0    114.242  3.055E-01
      0.949       18.0    124.522  2.653E-01
      0.949       18.0    144.021  1.639E-01
      0.949       18.0    153.371  2.797E-01
      0.949       18.0    161.405  7.008E-01
      0.949       18.0    171.779  1.142E+00
ENDDATA            320
ENDSUBENT          356
SUBENT        C2622005   20210914   20220328   20220327       C209
BIB                  8         19
REACTION   (14-SI-28(P,A)13-AL-25,PAR,SIG)
SAMPLE     Thin SiO2, targets, 50-100 mu-g/cm2, were used and
           placed in a large volume scattering chamber.
DETECTOR   (SIBAR) Six surface barrier detectors (100 mu-m) spaced
           10 degrees apart.
CORRECTION Impurity peaks due to the 29Si and 30Si in the natural
           targets contributed to the under-lying background, and
           contributed to the uncertainty in the background
           subtraction. Proton background and dead time
           corrections were made.
LEVEL-PROP (13-AL-25,E-LVL=0.0,SPIN=2.5,PARITY=+1.)
           (13-AL-25,E-LVL=0.455,SPIN=0.5,PARITY=+1.)
           (13-AL-25,E-LVL=0.949,SPIN=1.5,PARITY=+1.)
ERR-ANALYS No information on uncertainties.
ADD-RES    (THEO) Hauser-Feshbach and distorted-wave Born
           approximation (DWBA) calculations.
STATUS     (CURVE) Fig.7 (p.185) in Nucl.Phys.A,232,176,1974 was
           digitized by GSYS2.4.7.
           (DEP,C2622003)
ENDBIB              19
NOCOMMON             0          0
DATA                 3        139
E-LVL      EN         DATA
MEV        MEV        MB
        0.0     15.992     10.689
        0.0     16.039      9.242
        0.0     16.092      9.133
        0.0     16.138     11.756
        0.0     16.191     10.923
        0.0     16.240     11.260
        0.0     16.281     14.719
        0.0     16.337     12.269
        0.0     16.387      9.874
        0.0     16.395     11.826
        0.0     16.434      8.984
        0.0     16.486      9.991
        0.0     16.535     13.227
        0.0     16.588     12.115
        0.0     16.646      9.386
        0.0     16.685      8.886
        0.0     16.737      8.554
        0.0     16.789     10.676
        0.0     16.838     16.701
        0.0     16.883     13.413
        0.0     16.938     12.914
        0.0     16.986      8.400
        0.0     17.035     11.135
        0.0     17.085     10.246
        0.0     17.140     10.918
        0.0     17.187     10.697
        0.0     17.234      9.807
        0.0     17.289      9.643
        0.0     17.341     10.092
        0.0     17.385     11.488
        0.0     17.434     13.443
        0.0     17.490     12.553
        0.0     17.537     11.552
        0.0     17.587     10.328
        0.0     17.634      9.327
        0.0     17.689      8.884
        0.0     17.741     11.563
        0.0     17.785     12.904
        0.0     17.832     10.954
        0.0     17.885      8.615
        0.0     17.934      8.451
        0.0     17.992      8.454
        0.0     18.034      7.843
        0.0     18.086      8.682
        0.0     18.130      9.799
        0.0     18.188      9.078
      0.455     16.002      2.409
      0.455     16.003      5.106
      0.455     16.055      3.588
      0.455     16.096      4.541
      0.455     16.104      5.271
      0.455     16.151      4.596
      0.455     16.201      4.875
      0.455     16.245      5.492
      0.455     16.306      3.917
      0.455     16.342      3.073
      0.455     16.392      3.746
      0.455     16.444      2.789
      0.455     16.488      2.001
      0.455     16.541      1.775
      0.455     16.607      2.503
      0.455     16.651      2.277
      0.455     16.693      2.557
      0.455     16.745      3.960
      0.455     16.792      4.576
      0.455     16.850      4.237
      0.455     16.869      3.675
      0.455     16.897      3.281
      0.455     16.944      2.774
      0.455     16.999      3.502
      0.455     17.038      4.569
      0.455     17.104      4.342
      0.455     17.143      2.206
      0.455     17.204      1.979
      0.455     17.245      2.652
      0.455     17.303      1.808
      0.455     17.350      2.087
      0.455     17.400      1.412
      0.455     17.449      1.747
      0.455     17.499      2.027
      0.455     17.554      2.137
      0.455     17.604      2.360
      0.455     17.648      3.146
      0.455     17.706      2.750
      0.455     17.764      2.580
      0.455     17.797      1.961
      0.455     17.850      2.353
      0.455     17.897      1.677
      0.455     17.938      2.069
      0.455     17.999      2.124
      0.455     18.049      2.459
      0.455     18.093      2.458
      0.455     18.145      1.894
      0.455     18.198      2.567
      0.949     15.999      7.725
      0.949     16.049      6.394
      0.949     16.096      8.172
      0.949     16.151      8.229
      0.949     16.192      7.397
      0.949     16.242      6.621
      0.949     16.294      5.345
      0.949     16.349      7.123
      0.949     16.391      8.735
      0.949     16.440     10.514
      0.949     16.492      8.515
      0.949     16.551      5.629
      0.949     16.597      4.297
      0.949     16.636      5.631
      0.949     16.699      6.521
      0.949     16.746      6.522
      0.949     16.798      6.635
      0.949     16.845      5.969
      0.949     16.887      2.527
      0.949     16.939      2.584
      0.949     16.986      2.918
      0.949     17.038      3.586
      0.949     17.093      4.254
      0.949     17.143      4.200
      0.949     17.190      4.256
      0.949     17.242      4.035
      0.949     17.297      4.148
      0.949     17.341      4.260
      0.949     17.391      4.372
      0.949     17.438      4.318
      0.949     17.501      4.375
      0.949     17.550      4.210
      0.949     17.597      3.656
      0.949     17.650      4.323
      0.949     17.702      4.380
      0.949     17.738      3.604
      0.949     17.801      3.605
      0.949     17.842      4.273
      0.949     17.892      3.608
      0.949     17.933      4.164
      0.949     17.991      3.666
      0.949     18.038      3.278
      0.949     18.093      2.835
      0.949     18.143      2.781
      0.949     18.190      2.282
ENDDATA            141
ENDSUBENT          165
ENDENTRY             5
