ENTRY            C2671   20211016   20220524   20220523       C210
SUBENT        C2671001   20211016   20220524   20220523       C210
BIB                 10         17
TITLE      Search for a narrow state at 23.9 MeV in 4He in the
           3H+p channel
AUTHOR     (H.Paetz gen.Schieck,T.R.Donoghue,R.M.Prior,S.E.Darden)
INSTITUTE  (1USAOSU,1USANOT)
REFERENCE  (J,NP/A,169,71,1971)
           #doi:10.1016/0375-9474(71)90559-8
FACILITY   (VDGT,1USANOT) The Notre Dame Lamb-shift polarized
           ion source
INC-SOURCE (LAMB) A 0.14 nA beam whose polarization was measured
           by scattering of protons from 4He at 115 degrees (lab)
           at 6 MeV.
REL-REF    (I,,G.Michel+,J,NIM,78,261,1970)
SAMPLE     A Ti-3H target with 90 mu-g/cm2 of titanium evaporated
           onto a thin Ni backing.
DETECTOR   (SIBAR) Six 800 mu-m depletion depth surface barrier
           detectors.
HISTORY    (20211016C) OG
ENDBIB              17
NOCOMMON             0          0
ENDSUBENT           20
SUBENT        C2671002   20211016   20220524   20220523       C210
BIB                  3          6
REACTION   (1-H-3(P,EL)1-H-3,,POL/DA,,ANA)
ERR-ANALYS (DATA-ERR) No information on source of uncertainties.
           (ERR-1,3.,5.) A statistical accuracy of the measured
           analysing powers
STATUS     (CURVE) Fig.3 (p.74) in Nucl.Phys.A,169,71,1971 was
           digitized by GSYS2.4.7.
ENDBIB               6
COMMON               2          3
POL-BM     POL-BM-ERR
NO-DIM     NO-DIM
0.609      0.015
ENDCOMMON            3
DATA                 4         63
ANG        EN         DATA       DATA-ERR
ADEG       MEV        NO-DIM     NO-DIM
       120.      5.401      0.303      0.051
       120.      5.406      0.240      0.053
       120.      5.411      0.309      0.042
       120.      5.416      0.298      0.049
       120.      5.421      0.247      0.035
       120.      5.426      0.235      0.044
       120.      5.431      0.302      0.028
       120.      5.436      0.246      0.044
       120.      5.441      0.269      0.055
       120.      5.446      0.325      0.046
       120.      5.451      0.288      0.049
       120.      5.456      0.354      0.037
       120.      5.461      0.294      0.046
       120.      5.466      0.350      0.037
       120.      5.471      0.292      0.042
       120.      5.476      0.236      0.039
       120.      5.481      0.310      0.044
       120.      5.486      0.328      0.042
       120.      5.491      0.277      0.042
       120.      5.496      0.261      0.044
       120.      5.501      0.307      0.044
       140.      5.400      0.147      0.044
       140.      5.406      0.169      0.039
       140.      5.410      0.199      0.048
       140.      5.415      0.128      0.044
       140.      5.420      0.108      0.034
       140.      5.426      0.156      0.044
       140.      5.430      0.140      0.027
       140.      5.435      0.158      0.044
       140.      5.440      0.172      0.041
       140.      5.445      0.215      0.034
       140.      5.450      0.188      0.039
       140.      5.455      0.188      0.037
       140.      5.461      0.121      0.046
       140.      5.465      0.176      0.037
       140.      5.470      0.183      0.032
       140.      5.475      0.183      0.032
       140.      5.480      0.197      0.034
       140.      5.485      0.126      0.032
       140.      5.490      0.158      0.041
       140.      5.495      0.137      0.044
       140.      5.500      0.142      0.044
       160.      5.400      0.031      0.036
       160.      5.405      0.079      0.041
       160.      5.410      0.024      0.047
       160.      5.415      0.002      0.037
       160.      5.420      0.079      0.027
       160.      5.425      0.071      0.036
       160.      5.430      0.074      0.033
       160.      5.435      0.081      0.032
       160.      5.440      0.083      0.033
       160.      5.445      0.056      0.034
       160.      5.450      0.061      0.034
       160.      5.455      0.082      0.036
       160.      5.460      0.092      0.027
       160.      5.465      0.127      0.029
       160.      5.470      0.044      0.029
       160.      5.475      0.080      0.028
       160.      5.480      0.103      0.036
       160.      5.485      0.033      0.033
       160.      5.490      0.056      0.032
       160.      5.495      0.083      0.030
       160.      5.500      0.026      0.032
ENDDATA             65
ENDSUBENT           80
ENDENTRY             2
