ENTRY            F0845   20070306   20070824   20070807       F028
SUBENT        F0845001   20070306   20070824   20070807       F028
BIB                 11         25
TITLE      Scattering of alpha particles on polarized 3He target
           at energies Ea=55-95 MeV.
AUTHOR     (A.M.Yasnogorodsky,S.B.Kumshaev,V.V.Ostashko,V.N.Urin,
           A.N.Nenakhov)
INSTITUTE  (4UKRIJI)
REFERENCE  (J,YF,44,867,1986)
FACILITY   (ISOCY)
INC-SOURCE (POLIS)
DETECTOR   (TELES) Four silicon telescopes, placed two and two at
           symmetrical angles with regard to the beam axis in a
           plane perpendicular to the direction of polarization
           vector P, were used simultaneously in the measurements.
           Accuracy of the telescope angle position setting was
            0.1 degr. Delta E spectrometers with the thicknesses
           of 100-200 mu-m were used at small angles and the
           spectrometers with the thicknesses of 50-100 mu-m
            (in dependence of the beam energy) were used at the
           large ones. The thickness of E spectrometers was 2.5-3
           mm.
METHOD     (EDE)
           (BCINT)
SAMPLE     Polarized 3He target.
ERR-ANALYS (ANG-ERR-D) Angle digitizing error
           (ERR-DIG)  Data digitizing error
HISTORY    (20070306C)
ENDBIB              25
NOCOMMON             0          0
ENDSUBENT           28
SUBENT        F0845002   20070313   20070824   20070807       F028
BIB                  3          3
REACTION   (2-HE-3(A,EL)2-HE-3,,POL/DA,,ANA)
ERR-ANALYS (DATA-ERR) Error from the graphic bars
STATUS     (CURVE)Fig.1
ENDBIB               3
COMMON               2          3
ANG-ERR-D  ERR-DIG
ADEG       NO-DIM
 0.157      0.001
ENDCOMMON            3
DATA                 4         66
EN         ANG-CM     DATA       DATA-ERR
MEV        ADEG       NO-DIM     NO-DIM
 59.5       48.410    -.75862E-010.75862E-01
 59.5       51.562    0.89656E-010.82759E-01
 59.5       55.064    0.89656E-010.68966E-01
 59.5       58.917    0.96552E-010.75862E-01
 59.5       67.322    0.48277E-010.13793
 59.5       94.641    -.54483    0.14483
 59.5       124.76    -.12414    0.11034
 59.5       128.26    -.12414    0.10345
 59.5       132.12    -.37241    0.15172
 59.5       134.92    -.31034    0.13103
 59.5       137.37    -.25517    0.12414
 59.5       139.12    0.82760E-010.15172
 62.0       54.119    0.18288E-010.69925E-01
 62.0       60.068    -.10767    0.76918E-01
 62.0       66.735    0.20689    0.13985
 62.0       94.023    -.56272    0.13985
 62.0       125.21    -.10171    0.10489
 62.0       130.46    -.34653    0.12587
 62.0       134.30    -.50043    0.13985
 62.0       137.46    -.32566    0.13985
 62.0       138.88    0.79882E-010.15384
 66.0       46.497    0.43912E-010.69444E-01
 66.0       55.948    0.17730E-020.83333E-01
 66.0       63.294    -.68039E-010.76389E-01
 66.0       68.546    -.82191E-010.83333E-01
 66.0       79.470    0.44504    0.14583
 66.0       83.995    0.22259    0.15278
 66.0       89.908    -.97149E-010.12500
 66.0       97.905    -.55588    0.13194
 66.0       102.17    -.28318E-010.15972
 66.0       121.47    0.20683    0.97221E-01
 66.0       125.67    0.19967    0.11111
 66.0       131.91    -.26592    0.11111
 71.0       45.338    -.12513    0.69931E-01
 71.0       54.443    -.19511    0.83917E-01
 71.0       67.056    0.91537E-010.10490
 71.0       81.768    0.23132    0.11888
 71.0       88.065    -.25124    0.90910E-01
 71.0       96.467    -.52402    0.13287
 71.0       102.78    0.21022    0.20280
 71.0       124.15    0.24506    0.13986
 71.0       130.45    -.41687E-010.10490
 80.0       44.040    0.32264E-010.10996
 80.0       52.794    0.11241E-010.82473E-01
 80.0       61.540    -.71639E-010.89346E-01
 80.0       67.161    0.79303E-010.89346E-01
 80.0       77.329    0.16818    0.14433
 80.0       81.892    0.25044    0.11684
 80.0       88.120    -.38215    0.15807
 80.0       96.488    -.69868    0.17869
 80.0       100.42    -.66567E-010.18557
 80.0       120.74    0.80922E-020.96219E-01
 80.0       125.30    0.10410    0.10996
 80.0       130.21    0.11762    0.10309
 95.0       60.311    0.78087E-020.11228
 95.0       66.257    -.62641E-010.70176E-01
 95.0       76.759    -.10523    0.84211E-01
 95.0       81.645    -.25984    0.98246E-01
 95.0       85.511    -.14072    0.11930
 95.0       88.989    -.35843    0.91229E-01
 95.0       99.143    -.37995    0.14035
 95.0       100.97    0.30769    0.23860
 95.0       105.86    0.16712    0.16842
 95.0       113.16    -.30340    0.13333
 95.0       119.49    -.72109E-010.91229E-01
 95.0       124.07    0.12417    0.10526
ENDDATA             68
ENDSUBENT           80
SUBENT        F0845003   20070313   20070824   20070807       F028
BIB                  2          2
REACTION   (2-HE-3(A,EL)2-HE-3,,DA)
STATUS     (CURVE)Fig.3
ENDBIB               2
COMMON               2          3
ANG-ERR-D  ERR-DIG
ADEG       PER-CENT
 0.301      0.004
ENDCOMMON            3
DATA                 3        252
EN         ANG-CM     DATA-CM
MEV        ADEG       MB/SR
       56.3     21.717     97.591
       56.3     27.917     26.287
       56.3     33.022     16.128
       56.3     36.498     22.251
       56.3     39.701     36.285
       56.3      43.18     43.454
       56.3     46.129     43.462
       56.3     50.422     36.309
       56.3     54.181      27.72
       56.3     56.329     24.066
       56.3     60.352     21.999
       56.3     66.776     30.356
       56.3     70.257     33.653
       56.3     74.007     36.362
       56.3     78.565     34.548
       56.3     81.787     28.491
       56.3     84.742     22.032
       56.3     86.892     17.481
       56.3     88.235     15.571
       56.3     89.311      13.87
       56.3     90.655     11.887
       56.3     93.347     7.4819
       56.3     96.577       4.59
       56.3     100.34     2.7093
       56.3     103.28     4.5919
       56.3     106.48     7.1125
       56.3     109.15     11.016
       56.3     111.83     13.024
       56.3      114.5     17.967
       56.3     117.44     20.437
       56.3     121.19      20.18
       56.3     124.41     18.446
       56.3     126.83     16.432
       56.3     128.44     14.827
       56.3     129.78     13.378
       56.3     131.66     12.546
       56.3     136.76     8.9824
       56.3     139.98     8.2106
       56.3     142.66     7.5048
       56.3     146.15      6.516
       56.3      149.1     5.3049
       56.3     154.19     7.7059
      59.15     21.188     133.43
      59.15     27.662     34.093
      59.15     32.496      25.11
      59.15     36.245     27.815
      59.15     39.981     46.939
      59.15     44.267     51.338
      59.15     47.483     51.349
      59.15     50.975     39.796
      59.15     54.198     31.638
      59.15     55.543      27.15
      59.15     57.156     23.004
      59.15     60.107     21.313
      59.15     63.589     22.722
      59.15      67.07      25.82
      59.15     70.549     30.098
      59.15     74.568     31.281
      59.15     78.593     26.849
      59.15     81.545     23.638
      59.15     83.156     21.621
      59.15     84.767     19.526
      59.15     86.381     16.334
      59.15     90.684     9.9348
      59.15     95.532     4.6228
      59.15     99.844     2.0968
      59.15     103.31     4.0197
      59.15     109.45     10.075
      59.15     111.05     12.047
      59.15     115.33     16.159
      59.15       118.     17.899
      59.15     121.22     18.365
      59.15      123.9     17.906
      59.15     127.12     17.237
      59.15     129.53     15.767
      59.15     134.37     10.757
      59.15     137.59     9.8406
      59.15     142.68     9.3543
      59.15     147.25     5.4761
      59.15     149.42     3.2052
      59.15     155.03     5.2733
       65.4      23.49     93.158
       65.4     28.078     24.817
       65.4     30.759     23.891
       65.4     33.436     26.793
       65.4     36.912     39.251
       65.4     39.313     61.273
       65.4     43.334     61.286
       65.4     46.284     55.365
       65.4     51.118      36.86
       65.4      54.34     28.584
       65.4     56.488      24.23
       65.4     58.368     21.338
       65.4     60.781     20.282
       65.4     63.998     19.526
       65.4     67.482     19.779
       65.4     70.697     21.352
       65.4     74.983     22.759
       65.4     78.735     23.351
       65.4     81.686     21.094
       65.4     83.565     18.814
       65.4     85.175      16.78
       65.4     87.594     12.686
       65.4     90.819     8.7734
       65.4     95.656     5.0783
       65.4     98.082     2.9019
       65.4      101.3     2.4289
       65.4     103.71     2.8298
       65.4     107.18     5.2123
       65.4     110.65     8.6717
       65.4     112.52     11.044
       65.4      115.2     12.867
       65.4     118.41     14.615
       65.4     121.89     16.184
       65.4     125.11     16.604
       65.4     127.53     14.437
       65.4     129.67     12.553
       65.4     135.04     9.7362
       65.4     137.46     6.9952
       65.4     141.21     6.9966
       65.4     144.43     7.0874
       65.4     148.18     6.9992
       65.4      149.8     5.2911
       65.4     154.36     4.2092
       65.4     158.64     5.8607
       65.4     162.65     9.8754
       65.4     163.98     11.505
       66.9     22.748     129.84
       66.9     28.408     30.195
       66.9     31.357     29.819
       66.9     33.766     34.288
       66.9     36.972     53.462
       66.9     40.451     68.046
       66.9     44.739      68.93
       66.9     47.958     62.287
       66.9     51.718     43.673
       66.9     54.671     35.655
       66.9     57.358       26.3
       66.9     60.312     20.409
       66.9     64.066     18.443
       66.9      67.28     20.677
       66.9     71.299     21.483
       66.9      75.32     20.949
       66.9     79.343     18.224
       66.9     83.099     16.056
       66.9     87.392     12.944
       66.9      91.42     8.9616
       66.9     95.184      5.261
       66.9     97.605     3.5961
       66.9     101.36     2.5214
       66.9     104.04     3.2916
       66.9     106.71     4.8167
       66.9     109.92     7.7032
       66.9     111.52     8.7458
       66.9     113.13     10.185
       66.9      115.8     12.166
       66.9     118.48     13.989
       66.9     121.43     15.684
       66.9     124.64       15.1
       66.9     127.59     14.355
       66.9     130.27     13.475
       66.9     132.96     12.648
       66.9     135.91     11.285
       66.9     138.05     10.069
       66.9     143.95     8.9849
       66.9     147.44     9.1012
       66.9     150.93     7.1531
       66.9     155.21     7.7205
       66.9     158.69     9.5803
       66.9      161.9     11.444
       66.9     164.31     12.994
        72.     23.096     108.19
        72.     28.212      30.26
        72.      31.43     27.358
        72.     34.109     29.888
        72.     37.053     36.578
        72.     41.066     56.181
        72.     44.546     68.758
        72.     48.032     62.166
        72.     52.059     43.124
        72.      55.28     33.511
        72.      57.43     24.141
        72.     60.652     17.837
        72.     63.873     14.037
        72.     67.893     14.398
        72.     71.912     15.145
        72.     74.859     16.338
        72.     79.147     16.341
        72.     82.365     14.774
        72.     85.317     12.384
        72.     87.195     11.196
        72.     88.805     9.9946
        72.     90.953     8.0659
        72.     94.716     4.6893
        72.     96.328     3.8323
        72.     98.477     2.9406
        72.     101.43     2.0142
        72.     104.91     2.4651
        72.     107.32     3.5997
        72.     109.99     5.8147
        72.     111.59     7.1158
        72.     113.47     8.4913
        72.     116.14     11.209
        72.     119.09     12.718
        72.      122.3     13.894
        72.     125.52     12.249
        72.     127.93     11.214
        72.     131.68     12.886
        72.     135.17     12.409
        72.     138.39     12.102
        72.     140.53      13.22
        72.     144.28     10.536
        72.      146.7     8.7202
        72.     150.46     7.4962
        72.     154.47     8.5056
        72.     158.49     9.7735
        72.      160.9     11.089
       95.5     23.132     98.405
       95.5     25.561     42.852
       95.5     29.315     39.188
       95.5     31.993     45.115
       95.5     35.742     52.609
       95.5     39.761     55.381
       95.5     46.739     35.405
       95.5     51.036     22.631
       95.5     54.528     15.225
       95.5     58.287      10.92
       95.5     61.514      6.464
       95.5     66.883     4.2392
       95.5     71.442      3.731
       95.5     76.268     3.3688
       95.5     82.169     2.7814
       95.5     87.265     2.2383
       95.5     93.976     1.3771
       95.5     96.929     1.0801
       95.5      104.7     1.0668
       95.5     106.84     1.4136
       95.5     111.39     2.3285
       95.5     115.13     3.3748
       95.5     119.41     4.8293
       95.5      123.7     6.3188
       95.5     127.44     7.1823
       95.5     130.66     7.4643
       95.5     133.61     6.9138
       95.5     137.36     7.6601
       95.5     140.84     8.5961
       95.5     145.67     8.9344
       95.5     148.88     8.3821
       95.5     151.83     7.3766
       95.5     155.06     5.1567
       95.5     158.01     3.6048
       95.5      161.5     2.9008
ENDDATA            254
ENDSUBENT          265
ENDENTRY             3
