ENTRY            F0860   20080121   20080430   20080414       F030
SUBENT        F0860001   20080121   20080430   20080414       F030
BIB                  9         20
TITLE      Levels in 109Rh.
AUTHOR     (N.Kaffrell,P.Hill,J.Rogowski,H.Tetzlaff,N.Trautmann,
           E.Jacobs,P.De Gelder,D.De Frenne,K.Heyde,S.Borjesson,
           G.Skarnemark,J.Alstad,N.Blasi,M.N.Harakeh,
           W.A.Sterrenburg,K.Wolfsberg)
INSTITUTE  (2GERMNZ,2BLGGHT,2SWDCTH,2NOROSL,2NEDKVI,1USALAS)
REFERENCE  (J,NP/A,470,141,1987)
FACILITY   (CYCLO,2NEDKVI)
DETECTOR   (MAGSP) The scattered 3He-particles were detected with
           the QMG/2 magnetic spectrograph with an opening angle
           equal to 3.4 degr.
SAMPLE     The target consisted of a 110Pd layer (enriched to 99%)
           of ~300 mu-g/cm2 produced by sputtering the material
           on a thin carbon backing of ~35 mu-g/cm2.
ERR-ANALYS (DATA-ERR1) Uncertainty of the absolute cross section
           was about 10%
           (DATA-ERR2) Error from the graphic bars
           (ANG-ERR-D) Angle digitizing error
           (ERR-DIG)   Data digitizing error
HISTORY    (20080109C)
ENDBIB              20
COMMON               5          3
EN         DATA-ERR1  EN-RSL-FW  ANG-ERR-D  ERR-DIG
MEV        PER-CENT   KEV        ADEG       PER-CENT
 50.        10.        30.        0.145      0.2
ENDCOMMON            3
ENDSUBENT           27
SUBENT        F0860002   20080121   20080430   20080414       F030
BIB                  2          2
REACTION   (46-PD-110(D,HE3)45-RH-109,PAR,DA)
STATUS     (CURVE)Fig.5
ENDBIB               2
NOCOMMON             0          0
DATA                 4        135
E-LVL      ANG-CM     DATA-CM    DATA-ERR2
KEV        ADEG       MU-B/SR    MU-B/SR
         0.     4.5241     3.0788      2.133
         0.     6.4982     5.8672     2.5713
         0.     9.5424      8.441     2.7962
         0.      12.59     11.056     2.1351
         0.     15.537     9.6829     2.4741
         0.     18.725     7.2207     1.3159
         0.     21.452     4.2858    0.95507
         0.     24.962     6.9587     1.3255
         0.     31.006     2.3555    0.62523
       206.     4.3279     128.12     24.825
       206.     6.3211     149.01     26.466
       206.     9.3524      275.6     27.577
       206.     12.627     421.27
       206.     15.441     524.77     44.699
       206.     18.634     363.96     31.001
       206.     21.494     163.19
       206.     24.797     135.12      11.51
       206.     30.926     104.69       7.38
       374.     4.2348 1.0302E+03     73.074
       374.      6.229 1.1829E+03     101.39
       374.     9.3221     527.89
       374.     12.431      160.5     13.756
       374.     15.222     346.33     31.682
       374.     18.533     233.19
       374.     21.164     87.054     6.1747
       374.      24.68     117.93     8.3647
       374.     30.717     49.224     3.4915
       426.     4.1606     178.84     31.076
       426.     6.2657     265.81     47.248
       426.     9.3228     281.07     28.147
       426.     12.527     116.02     9.8898
       426.     15.376     51.965      8.408
       426.     18.543       71.2       7.13
       426.     21.373     57.314     4.8857
       426.     24.455     28.244       4.57
       426.     30.705     17.335     3.3615
       570.     4.1774     784.43     66.819
       570.     6.0502     976.58     68.846
       570.     9.3814     420.43     35.813
       570.      12.61     128.74     10.967
       570.     15.287     247.99     21.124
       570.      18.48     169.66     14.452
       570.     21.353     55.603
       570.     24.743     92.237     7.8569
       570.     30.781     38.703      3.873
       624.     4.6836     80.752     23.543
       624.     6.6808       88.8     19.876
       624.      9.636     54.015     10.469
       624.     12.821     39.145      6.286
       624.     15.766     35.185     6.0453
       624.     18.954     23.205      4.244
       624.     21.679     11.533     1.4529
       624.     25.224     6.7388     1.1578
       624.     31.341     6.7541     1.5946
       743.     4.6498 1.4942E+03      151.4
       743.     6.4075 1.8902E+03     191.53
       743.     9.6097     783.14
       743.     12.938     239.58     20.663
       743.     15.623     498.06     42.955
       743.      18.81     338.98     39.531
       743.     21.432     108.05     14.275
       743.     24.829     180.21      18.26
       743.     30.968     85.801        7.4
       856.     4.2379     107.21     21.019
       856.     6.1084     165.99     25.061
       856.     9.2756      233.7     26.997
       856.     12.683      275.6     21.656
       856.     15.278     212.88     27.142
       856.     18.475     96.622     17.877
       856.       21.2     47.586     11.361
       856.     24.601     72.718     10.979
       856.     30.745     26.562     5.4971
       928.     4.2254     33.692     12.019
       928.     6.3319     52.416     15.791
       928.     9.2598     88.602     11.412
       928.     12.671     91.187     10.642
       928.     15.387     59.526     14.346
       928.     18.591     20.051     11.162
       928.     21.297     19.795     7.5775
       928.     24.701     26.473     6.3801
       928.     30.853      6.869     3.6066
  1.017E+03     4.2086     64.748     17.418
  1.017E+03     6.2002     89.853     18.577
  1.017E+03     9.3634     150.96     49.271
  1.017E+03      12.57     46.189     13.333
  1.017E+03       15.3     17.334      7.419
  1.017E+03     18.576     35.727     22.691
  1.017E+03     21.287     28.756     21.493
  1.017E+03     24.724     10.943     8.8946
  1.017E+03      30.85     7.8001      3.575
  1.097E+03     4.3516     7.1932     1.4053
  1.097E+03     6.3625     10.675     1.3561
  1.097E+03     9.5572     19.434     2.0014
  1.097E+03      12.89     19.198     1.5028
  1.097E+03     15.621     24.214     2.7799
  1.097E+03     18.964     17.265     1.4662
  1.097E+03     21.488     8.0762
  1.097E+03     25.071     5.5291    0.63477
  1.097E+03      31.15     4.2242    0.48497
  1.162E+03     4.0837     141.26      20.83
  1.162E+03     6.2209     169.06     17.088
  1.162E+03     9.4414     133.97     13.542
  1.162E+03     12.662     104.72     12.182
  1.162E+03     15.405      86.47     8.7401
  1.162E+03     18.756     47.269     9.2555
  1.162E+03     21.404     17.335     3.3943
  1.162E+03     24.846     24.148     3.1824
  1.162E+03     30.939       10.9     1.7806
  1.220E+03     4.0568     98.932     17.846
  1.220E+03     6.1892     141.82      16.58
  1.220E+03     9.5432       66.4     8.7948
  1.220E+03     12.406     54.026     8.0073
  1.220E+03     15.382      51.89     7.6907
  1.220E+03     18.617     24.293     3.9888
  1.220E+03     21.397     5.3914     1.6274
  1.220E+03     24.829     10.924     2.0453
  1.220E+03     31.038     5.4863     1.3821
  1.280E+03     4.1411    0.93009    0.81137
  1.280E+03     6.2742      1.303    0.81502
  1.280E+03     9.2297     2.6973    0.63636
  1.280E+03     12.555     3.5822    0.57482
  1.280E+03     15.406     4.3877     0.5004
  1.280E+03     18.532      1.381    0.31152
  1.280E+03     21.306     0.3799    0.16107
  1.280E+03     24.861    0.66932    0.20388
  1.280E+03      30.95    0.33321    0.13337
  1.339E+03     4.2303     36.885     9.5595
  1.339E+03     6.1194     64.557     12.654
  1.339E+03     9.3227     94.679     13.187
  1.339E+03     12.446     32.722     6.4138
  1.339E+03     15.441      16.12     4.3395
  1.339E+03     18.522     27.094     5.3107
  1.339E+03     21.504      21.22     2.4507
  1.339E+03     24.873     5.6604     1.7964
  1.339E+03     30.939     6.7729     1.0223
ENDDATA            137
ENDSUBENT          144
ENDENTRY             2
