ENTRY            A0808   20080904   20081110   20081110       A064
SUBENT        A0808001   20080904   20081110   20081110       A064
BIB                 11         18
TITLE      Nuclear level densities from neutron spectra in
           the (p,n) reaction on Sn, Pb and Bi isotopes.
AUTHOR     (B.V.Zhuravlev,A.A.Lychagin,N.N.Titarenko,V.G.Demenkov,
           V.I.Trykova)
INSTITUTE  (4RUSFEI)
REFERENCE  (J,IZV,67,98,2003)
           (J,YF,69,387,2006) It is F0735 and Sn-118(p,n) spectra
FACILITY   (VDGT,4RUSFEI).The pulsed tandem accelerator EGP-15.
DETECTOR   (SCIN) Neutrons were detected by scintillation detector
           with a stilbene crystal (d=40 mm, h=40 mm).and by
SAMPLE     The target was self-supporting metallic foil,4.20 mg/
           cm**2 thickness and 98.3% enrichment of Pb-208.
METHOD     (TOF)
ERR-ANALYS (DATA-ERR).The error is reported by authors on fig.
           (ERR-DIG).Digitizing error of data.
           (E-ERR-DIG).Digitizing error of outgoing energy.
STATUS     (CURVE).By Cajad. The letter to B.V.Zhuravlev was sent
HISTORY    (20080904C)
ENDBIB              18
COMMON               2          3
E-ERR-DIG  ERR-DIG
MEV        PER-CENT
0.028      6.
ENDCOMMON            3
ENDSUBENT           25
SUBENT        A0808002   20080904   20081110   20081110       A064
BIB                  1          1
REACTION   (82-PB-208(P,N)83-BI-208,,DE)
ENDBIB               1
NOCOMMON             0          0
DATA                 4        297
EN         E          DATA       DATA-ERR
MEV        MEV        MB/MEV     PER-CENT
   11.15000    0.48100  103.00000
   11.15000    0.58100  113.00000
   11.15000    0.64200   95.00000
   11.15000    0.70000  124.00000
   11.15000    0.74300   95.00000
   11.15000    0.80200  104.00000
   11.15000    0.86200  105.00000
   11.15000    0.92300  100.00000
   11.15000    1.04300  101.00000
   11.15000    1.14400  101.00000
   11.15000    1.22400  106.00000
   11.15000    1.28400  106.00000
   11.15000    1.34400  111.00000
   11.15000    1.46500  103.00000
   11.15000    1.54600   99.00000
   11.15000    1.68600  103.00000
   11.15000    1.82700   91.00000
   11.15000    1.92800   84.00000
   11.15000    2.04900   84.00000
   11.15000    2.17000   74.00000
   11.15000    2.33200   66.00000
   11.15000    2.49300   63.00000
   11.15000    2.63500   56.00000
   11.15000    2.77600   49.00000
   11.15000    2.93900   41.60000
   11.15000    3.08100   35.10000
   11.15000    3.22200   32.40000
   11.15000    3.36400   27.30000
   11.15000    3.50500   25.20000
   11.15000    3.64700   21.30000
   11.15000    3.70900   17.90000
   11.15000    3.80900   18.80000
   11.15000    3.91000   18.10000
   11.15000    4.03100   16.60000
   11.15000    4.15200   15.30000
   11.15000    4.25400   13.50000
   11.15000    4.35500   11.40000
   11.15000    4.41700    9.60000
   11.15000    4.47900    8.10000
   11.15000    4.60100    7.10000
   11.15000    4.70100    6.80000
   11.15000    4.80200    6.60000
   11.15000    4.88300    6.30000
   11.15000    4.98300    6.10000
   11.15000    5.08600    4.90000
   11.15000    5.23000    3.17000
   11.15000    5.33200    2.68000
   11.15000    5.51100    3.21000
   11.15000    5.60900    4.01000
   11.15000    5.70900    4.39000
   11.15000    5.79000    4.22000
   11.15000    5.91200    3.41000
   11.15000    6.03600    2.41000
   11.15000    6.13800    1.95000
   11.15000    6.20000    1.64000
   11.15000    6.32300    1.16000
   11.15000    6.42400    1.12000
   11.15000    6.52400    1.17000
   11.15000    6.58400    1.23000
   11.15000    6.70300    1.35000
   11.15000    6.82400    1.35000
   11.15000    6.90600    1.04000
   11.15000    7.02900    0.77000
   11.15000    7.11400    0.45900
   11.15000    7.23900    0.29800   10.00000
   11.15000    7.38000    0.27500   15.00000
   11.15000    7.47800    0.35800   10.00000
   11.15000    7.59700    0.41000   10.00000
   11.15000    7.70000    0.30300   18.00000
   11.15000    7.78400    0.21500   22.00000
   11.15000    8.03200    0.08700   40.00000
   10.22000    0.49200   63.00000
   10.22000    0.61200   64.00000
   10.22000    0.79200   64.00000
   10.22000    0.97200   70.00000
   10.22000    1.15200   67.00000
   10.22000    1.27200   68.00000
   10.22000    1.41200   71.00000
   10.22000    1.59200   71.00000
   10.22000    1.75300   66.00000
   10.22000    1.87400   58.00000
   10.22000    2.03500   51.00000
   10.22000    2.17600   46.70000
   10.22000    2.29600   47.00000
   10.22000    2.41700   41.20000
   10.22000    2.61900   34.70000
   10.22000    2.74200   26.70000
   10.22000    2.88200   26.80000
   10.22000    2.98200   25.80000
   10.22000    3.10100   28.20000
   10.22000    3.18300   23.70000
   10.22000    3.30400   20.90000
   10.22000    3.40600   16.80000
   10.22000    3.50800   13.50000
   10.22000    3.63100   10.40000
   10.22000    3.81200    9.20000
   10.22000    3.91200    9.60000
   10.22000    3.99200    9.60000
   10.22000    4.13400    7.40000
   10.22000    4.21800    5.20000
   10.22000    4.30100    3.68000
   10.22000    4.36200    3.53000
   10.22000    4.50200    3.39000
   10.22000    4.64200    3.56000
   10.22000    4.66000    4.43000
   10.22000    4.75900    4.65000
   10.22000    4.90000    4.27000
   10.22000    5.02200    3.44000
   10.22000    5.04400    2.89000
   10.22000    5.16900    1.71000
   10.22000    5.35200    1.21000
   10.22000    5.48900    1.80000
   10.22000    5.58700    2.06000
   10.22000    5.70800    1.98000
   10.22000    5.76900    1.74000
   10.22000    5.89100    1.46000
   10.22000    5.95400    1.07000
   10.22000    6.09600    0.83000
   10.22000    6.28300    0.43000
   10.22000    6.50500    0.33200
   10.22000    6.68500    0.34900
   10.22000    6.91700    0.09800   60.00000
   10.22000    7.14700    0.03580   40.00000
    9.47000    0.49900   34.60000
    9.47000    0.57900   34.70000
    9.47000    0.67800   38.10000
    9.47000    0.75800   38.30000
    9.47000    0.81800   38.40000
    9.47000    0.95900   38.70000
    9.47000    1.07900   37.20000
    9.47000    1.18000   35.80000
    9.47000    1.28100   34.40000
    9.47000    1.36100   33.10000
    9.47000    1.46200   33.30000
    9.47000    1.56200   33.40000
    9.47000    1.64200   33.60000
    9.47000    1.74300   32.30000
    9.47000    1.84400   28.40000
    9.47000    1.92500   26.20000
    9.47000    2.00600   24.10000
    9.47000    2.12500   27.60000
    9.47000    2.24500   30.30000
    9.47000    2.36600   26.70000
    9.47000    2.46700   24.60000
    9.47000    2.56800   24.70000
    9.47000    2.69000   20.00000
    9.47000    2.79400   14.10000
    9.47000    2.87700   10.90000
    9.47000    2.99800   10.10000
    9.47000    3.07800   10.10000
    9.47000    3.21800   11.10000
    9.47000    3.31900   10.20000
    9.47000    3.38200    7.50000
    9.47000    3.48700    5.10000
    9.47000    3.59100    3.61000
    9.47000    3.69100    3.47000
    9.47000    3.79200    3.20000
    9.47000    3.87200    3.50000
    9.47000    3.99100    4.02000
    9.47000    4.09100    4.04000
    9.47000    4.19100    3.89000
    9.47000    4.29400    3.14000
    9.47000    4.39700    2.32000
    9.47000    4.52200    1.57000
    9.47000    4.56500    1.21000
    9.47000    4.64500    1.21000
    9.47000    4.70300    1.52000
    9.47000    4.78100    1.82000
    9.47000    4.86000    2.08000
    9.47000    4.91900    2.28000
    9.47000    5.02000    2.19000
    9.47000    5.10200    1.85000
    9.47000    5.20400    1.56000
    9.47000    5.28500    1.37000
    9.47000    5.40800    1.06000
    9.47000    5.53000    0.93000
    9.47000    5.57300    0.69000   10.00000
    9.47000    5.69600    0.53000   10.00000
    9.47000    5.87900    0.43100   18.00000
    9.47000    6.08100    0.36500   18.00000
    9.47000    6.29400    0.11800   60.00000
    9.06000    0.47300   25.30000
    9.06000    0.59300   27.80000
    9.06000    0.71300   27.90000
    9.06000    0.81300   29.30000
    9.06000    0.87300   29.40000
    9.06000    0.97300   29.50000
    9.06000    1.09300   29.70000
    9.06000    1.17300   29.80000
    9.06000    1.27500   26.20000
    9.06000    1.37500   26.30000
    9.06000    1.53800   21.30000
    9.06000    1.65700   24.40000
    9.06000    1.73600   27.90000
    9.06000    1.81500   29.30000
    9.06000    1.93700   24.70000
    9.06000    2.01800   24.80000
    9.06000    2.15700   26.10000
    9.06000    2.26200   17.60000
    9.06000    2.38600   12.50000
    9.06000    2.48500   13.10000
    9.06000    2.58800   10.60000
    9.06000    2.66800   10.60000
    9.06000    2.76700   12.70000
    9.06000    2.88800   11.20000
    9.06000    3.01400    6.60000
    9.06000    3.07900    4.11000
    9.06000    3.18100    3.62000
    9.06000    3.30200    3.33000
    9.06000    3.38400    2.68000
    9.06000    3.48000    4.37000
    9.06000    3.57800    5.20000
    9.06000    3.70200    3.54000
    9.06000    3.78400    2.98000
    9.06000    3.90500    2.87000
    9.06000    4.01100    1.70000
    9.06000    4.09800    0.92000
    9.06000    4.17800    0.89000
    9.06000    4.29200    1.58000
    9.06000    4.40800    2.46000
    9.06000    4.50800    2.47000
    9.06000    4.59100    1.91000
    9.06000    4.67500    1.29000
    9.06000    4.75500    1.41000
    9.06000    4.91700    1.19000
    9.06000    4.98300    0.68000
    9.06000    5.09100    0.33600
    9.06000    5.17300    0.28300
    9.06000    5.30800    0.44200
    9.06000    5.38400    0.69000
    9.06000    5.50600    0.61000
    9.06000    5.69700    0.21300
    9.06000    5.88800    0.08200   22.00000
    8.07000    0.51800    7.20000
    8.07000    0.57700    8.20000
    8.07000    0.63400   10.30000
    8.07000    0.71400   10.80000
    8.07000    0.81400   10.80000
    8.07000    0.97500   10.90000
    8.07000    1.09300   13.00000
    8.07000    1.17500   11.50000
    8.07000    1.23600   10.10000
    8.07000    1.27900    7.80000
    8.07000    1.36100    6.90000
    8.07000    1.47900    8.60000
    8.07000    1.58100    6.90000
    8.07000    1.58500    4.70000
    8.07000    1.66200    6.40000
    8.07000    1.72000    8.30000
    8.07000    1.80000    8.00000
    8.07000    1.90000    8.00000
    8.07000    1.96400    5.90000
    8.07000    1.98800    3.83000
    8.07000    2.05200    2.83000
    8.07000    2.17100    3.24000
    8.07000    2.27100    3.26000
    8.07000    2.31400    2.51000
    8.07000    2.35700    1.86000
    8.07000    2.43000    3.58000
    8.07000    2.43500    2.22000
    8.07000    2.54600    5.30000
    8.07000    2.64900    4.12000
    8.07000    2.67300    2.91000
    8.07000    2.75600    2.35000
    8.07000    2.87400    2.69000
    8.07000    2.98100    1.53000
    8.07000    3.02500    0.99000
    8.07000    3.10900    0.70000
    8.07000    3.19300    0.52000
    8.07000    3.20900    0.71000
    8.07000    3.28400    1.20000
    8.07000    3.30700    0.88000
    8.07000    3.33900    1.94000
    8.07000    3.41700    2.42000
    8.07000    3.51600    2.77000
    8.07000    3.53900    2.14000
    8.07000    3.62200    1.58000
    8.07000    3.66600    1.07000
    8.07000    3.68800    0.90000
    8.07000    3.74500    1.28000
    8.07000    3.86300    1.46000
    8.07000    3.90600    1.13000
    8.07000    3.95000    0.80000
    8.07000    3.99300    0.59000
    8.07000    4.03600    0.45400
    8.07000    4.10000    0.33600
    8.07000    4.20200    0.28300
    8.07000    4.27700    0.44000
    8.07000    4.28000    0.32400
    8.07000    4.35300    0.65000
    8.07000    4.47400    0.66000
    8.07000    4.47700    0.48000
    8.07000    4.53900    0.39000
    8.07000    4.62200    0.30200
    8.07000    4.64600    0.20400
    8.07000    4.71300    0.10600
    8.07000    4.71900    0.06300
ENDDATA            299
ENDSUBENT          305
ENDENTRY             2
