ENTRY            D0488   20080815   20081219   20081218       D064
SUBENT        D0488001   20080815   20081219   20081218       D064
BIB                 11         26
TITLE      Proton scattering at intermediate energies on 58Ni:
           How well is it understood?
AUTHOR     (F.Hofmann,C.Baumer,A.M.van den Berg,D.Frekers,
           V.M.Hannen, M.N.Harakeh,M.de Huu,Y.Kalmykov,
           P.von Neumann-Cosel,V.Yu.Ponomarev,S.Rakers,B.Reitz,
           A.Richter,K.Schweda,A.Shevchenko,J.Wambach,H.J.Wortche)
INSTITUTE  (2GERTHD,2GERMST,2NEDKVI)
REFERENCE  (J,PR/C,76,014314,2007)
FACILITY   (CYCLO,2NEDKVI) Superconducting cyclotron AGOR.
           Polarized (typically about 65%) and unpolarized beam.
MONITOR    (6-C-12(P,EL)6-C-12,,DA) Control measurements were
           performed with a 12C target.
SAMPLE     A self-supporting, 99% enriched 58Ni foil with a
           thickness of 17.6 mg/cm2
DETECTOR   (MAGSP) The outgoing protons were momentum analyzed by
           the Big-Bite spectrometer (BBS) and detected
           (TELES,MWPC,MWPC) with the EUROSUPERNOVA (ESN) system.
           The ESN system is a focal-plane detector comprised of
           two vertical drift chambers and a focal-plane
           polarimeter consisting of a carbon analyzer and
           4 multi-wire proportional chambers.
ERR-ANALYS (DATA-ERR) The author estimated the overall
           uncertainties of the cross sections to be 10%
STATUS     (TABLE) Data received from Prof. P. von Neumann-Cosel
           (APRVD) Entry approved by Prof.P. von Neumann-Cosel
HISTORY    (20081010C) SD
ENDBIB              26
COMMON               3          3
EN         EN-RSL-FW  DATA-ERR
MEV        MEV        PER-CENT
 172.        0.080      10.
ENDCOMMON            3
ENDSUBENT           33
SUBENT        D0488002   20081021   20081219   20081218       D064
BIB                  1          1
REACTION   (28-NI-58(P,INL)28-NI-58,,DA/DE)
ENDBIB               1
COMMON               1          3
ANG
ADEG
  4.7
ENDCOMMON            3
DATA                 2       1160
E-EXC      DATA
MEV        MB/SR/MEV
      1.035 8.9610E-02
       1.06     0.1492
      1.085 2.6480E-02
       1.11     0.1256
      1.135     0.1573
       1.16     0.1007
      1.185 1.9090E-02
       1.21 5.5220E-02
      1.235 6.5500E-02
       1.26     0.3844
      1.285      0.548
       1.31     0.9086
      1.335     1.7055
       1.36     2.5835
      1.385     4.6405
       1.41     7.4648
      1.435      9.972
       1.46     9.4372
      1.485     7.0267
       1.51     4.3714
      1.535     1.8788
       1.56     0.8242
      1.585     0.5802
       1.61       0.35
      1.635     0.2894
       1.66     0.4278
      1.685     0.5947
       1.71     0.3122
      1.735      0.203
       1.76      0.337
      1.785     0.3513
       1.81       0.25
      1.835     0.2508
       1.86     0.3969
      1.885     0.5071
       1.91     0.2532
      1.935     0.1966
       1.96     0.1805
      1.985     0.1992
       2.01     0.1686
      2.035     0.2531
       2.06 8.5360E-02
      2.085     0.2035
       2.11     0.1812
      2.135     0.2067
       2.16     0.2583
      2.185     0.2891
       2.21     0.3213
      2.235     0.1945
       2.26        0.2
      2.285     0.3267
       2.31     0.2471
      2.335 8.2160E-02
       2.36     0.2402
      2.385     0.3471
       2.41     0.2275
      2.435     0.2204
       2.46     0.2062
      2.485     0.2479
       2.51 6.7960E-02
      2.535     0.3447
       2.56     0.4806
      2.585     0.2219
       2.61 9.2840E-02
      2.635     0.1209
       2.66     0.1024
      2.685     0.3131
       2.71     0.1428
      2.735     0.2858
       2.76     0.1724
      2.785     0.1612
       2.81     0.3401
      2.835     0.4393
       2.86     0.2819
      2.885     0.2474
       2.91     0.3847
      2.935     0.4413
       2.96     0.7054
      2.985     0.8282
       3.01     1.1933
      3.035     1.1622
       3.06     0.9686
      3.085     0.7637
       3.11     0.5409
      3.135     0.4729
       3.16      0.518
      3.185      0.701
       3.21      0.924
      3.235     1.8279
       3.26     1.8556
      3.285     1.2614
       3.31     1.1371
      3.335     0.7747
       3.36     0.2976
      3.385     0.3494
       3.41     0.4565
      3.435     0.4335
       3.46     0.4321
      3.485     0.6023
       3.51     0.5938
      3.535     0.5389
       3.56     0.5056
      3.585     0.6193
       3.61     0.5667
      3.635     0.3322
       3.66      0.219
      3.685     0.2563
       3.71     0.1794
      3.735     0.2591
       3.76     0.4007
      3.785     0.4487
       3.81 9.4830E-02
      3.835      0.279
       3.86     0.3367
      3.885     0.4543
       3.91     0.6294
      3.935     0.3791
       3.96     0.2138
      3.985     0.2167
       4.01     0.3497
      4.035     0.4059
       4.06     0.4481
      4.085     0.2643
       4.11     0.3764
      4.135 6.4230E-02
       4.16     0.1293
      4.185 8.7120E-02
       4.21     0.2856
      4.235     0.3183
       4.26      0.305
      4.285     0.2774
       4.31     0.2473
      4.335     0.1221
       4.36      0.356
      4.385     0.5459
       4.41     0.6002
      4.435     0.9541
       4.46     0.9368
      4.485     1.2878
       4.51     0.9735
      4.535     1.0079
       4.56     0.8175
      4.585     0.3412
       4.61     0.4597
      4.635     0.2624
       4.66     0.2647
      4.685     0.1668
       4.71      0.344
      4.735     0.3253
       4.76     0.1946
      4.785     0.2817
       4.81     0.2497
      4.835     0.2499
       4.86      0.386
      4.885     0.1601
       4.91      0.191
      4.935     0.2586
       4.96     0.1379
      4.985     0.2719
       5.01     0.1492
      5.035     0.3776
       5.06     0.1416
      5.085     0.2902
       5.11      0.123
      5.135     0.1207
       5.16     0.3084
      5.185     0.4525
       5.21     0.3561
      5.235     0.2442
       5.26     0.3353
      5.285     0.3599
       5.31     0.3135
      5.335      0.122
       5.36     0.2127
      5.385     0.2334
       5.41     0.2388
      5.435      0.187
       5.46     0.2757
      5.485     0.2257
       5.51     0.2214
      5.535     0.3417
       5.56     0.4822
      5.585     0.6542
       5.61     0.7006
      5.635     0.4743
       5.66     0.3893
      5.685     0.6051
       5.71     0.6101
      5.735     0.3624
       5.76     0.4197
      5.785     0.5209
       5.81      0.307
      5.835     0.5452
       5.86     0.6715
      5.885     0.8386
       5.91     0.9424
      5.935     0.7866
       5.96     0.6981
      5.985     0.5726
       6.01     0.8212
      6.035     0.8428
       6.06     0.5251
      6.085     0.4609
       6.11     0.2776
      6.135     0.5696
       6.16     0.5513
      6.185     0.3941
       6.21     0.5286
      6.235     0.5672
       6.26     0.4466
      6.285     0.6958
       6.31     0.7868
      6.335     0.6134
       6.36     0.4422
      6.385     0.5411
       6.41     0.6724
      6.435     0.7098
       6.46     0.6057
      6.485     0.5764
       6.51     0.4353
      6.535     0.4593
       6.56     0.4079
      6.585     0.4577
       6.61     0.5816
      6.635     0.4845
       6.66     0.7158
      6.685     0.5694
       6.71      0.738
      6.735     0.9215
       6.76     0.7418
      6.785     0.7774
       6.81     0.6187
      6.835     0.8306
       6.86     0.9974
      6.885     0.6814
       6.91     0.6572
      6.935     0.3443
       6.96     0.5753
      6.985     0.5817
       7.01     0.5786
      7.035     0.7247
       7.06     0.5083
      7.085     0.7879
       7.11     0.7584
      7.135     0.6432
       7.16     0.7713
      7.185     0.8007
       7.21     1.0656
      7.235     1.2195
       7.26     1.4466
      7.285      0.994
       7.31     0.4732
      7.335      0.702
       7.36     1.0798
      7.385     1.0686
       7.41     1.1963
      7.435     0.8747
       7.46     0.8213
      7.485     1.2763
       7.51     0.9757
      7.535     0.8474
       7.56      0.733
      7.585     0.7466
       7.61     1.0453
      7.635     1.1189
       7.66     1.0117
      7.685     1.6028
       7.71     1.7516
      7.735     1.3916
       7.76     1.1717
      7.785     0.7235
       7.81      0.773
      7.835     0.9676
       7.86     1.1456
      7.885     1.3689
       7.91     0.9057
      7.935     0.7268
       7.96      0.875
      7.985     0.6985
       8.01     0.8729
      8.035     0.8127
       8.06     0.9014
      8.085     0.7704
       8.11     0.9341
      8.135     1.0172
       8.16     0.8938
      8.185     1.2239
       8.21     1.7507
      8.235     2.0792
       8.26     1.7686
      8.285     1.4044
       8.31     1.3702
      8.335     1.3546
       8.36      1.434
      8.385     1.6741
       8.41     1.7286
      8.435     1.7044
       8.46     1.5365
      8.485     1.7467
       8.51     1.6589
      8.535     1.6241
       8.56     1.6362
      8.585     1.7922
       8.61     1.9721
      8.635     2.1153
       8.66     2.1234
      8.685     2.2573
       8.71     2.1281
      8.735     1.1159
       8.76     1.0173
      8.785     1.2674
       8.81     1.0784
      8.835      1.273
       8.86      1.492
      8.885     1.5948
       8.91     1.5751
      8.935       1.66
       8.96       1.86
      8.985     1.4591
       9.01     1.4292
      9.035     1.2441
       9.06     1.3435
      9.085     1.5779
       9.11     1.5395
      9.135       1.49
       9.16     1.3423
      9.185      1.557
       9.21     1.6375
      9.235     1.8379
       9.26     1.7139
      9.285     1.8473
       9.31     1.5364
      9.335     1.5726
       9.36     1.4097
      9.385     1.5052
       9.41     1.5037
      9.435     1.0858
       9.46     1.1949
      9.485     1.2988
       9.51     1.6088
      9.535     1.2937
       9.56     1.5928
      9.585     1.5872
       9.61      1.184
      9.635     1.3582
       9.66      1.359
      9.685     1.3582
       9.71      1.341
      9.735     1.4432
       9.76     1.3867
      9.785     1.3427
       9.81     1.6856
      9.835     1.5071
       9.86     1.3574
      9.885     1.3349
       9.91      1.151
      9.935     1.0364
       9.96     1.1715
      9.985      0.934
      10.01     1.2262
     10.035     1.2385
      10.06     1.2281
     10.085     1.0619
      10.11     1.2016
     10.135     1.3987
      10.16     1.6554
     10.185     2.2064
      10.21     2.1287
     10.235     1.7785
      10.26     1.8605
     10.285     1.6487
      10.31     1.5499
     10.335     1.0176
      10.36     1.2089
     10.385       1.08
      10.41     1.1351
     10.435     1.6595
      10.46     1.7917
     10.485     1.7794
      10.51      2.051
     10.535     1.8061
      10.56     2.1367
     10.585     2.1359
      10.61     2.8075
     10.635     3.2564
      10.66     4.5125
     10.685     4.2884
      10.71     3.3146
     10.735     1.9893
      10.76     1.4116
     10.785     0.8873
      10.81     0.8581
     10.835     1.1692
      10.86      1.113
     10.885     1.2793
      10.91     1.2368
     10.935      1.117
      10.96     1.2824
     10.985     1.7241
      11.01      1.577
     11.035     1.4363
      11.06     1.3317
     11.085     1.4396
      11.11     1.2736
     11.135     1.0845
      11.16     1.2637
     11.185     1.3583
      11.21     1.1091
     11.235       1.13
      11.26     1.0309
     11.285     1.1195
      11.31     1.3537
     11.335     1.1732
      11.36     1.0011
     11.385     1.2574
      11.41     1.5471
     11.435     1.4224
      11.46     1.1078
     11.485     1.2494
      11.51     1.0573
     11.535     1.0921
      11.56     1.1213
     11.585     0.9008
      11.61     0.8007
     11.635     1.1121
      11.66     1.5453
     11.685     1.7726
      11.71     1.6603
     11.735     1.3812
      11.76      1.044
     11.785     1.2604
      11.81     1.1345
     11.835     1.3252
      11.86     1.8506
     11.885      1.753
      11.91      1.474
     11.935     1.2543
      11.96     0.9019
     11.985     1.0888
      12.01     0.9129
     12.035     0.7399
      12.06     0.5132
     12.085     0.7132
      12.11     0.8733
     12.135     0.8084
      12.16      0.892
     12.185     0.9073
      12.21     1.1627
     12.235     1.0466
      12.26     1.2635
     12.285     1.3063
      12.31     1.4216
     12.335     1.1746
      12.36     1.2561
     12.385     1.0788
      12.41     1.0746
     12.435      1.319
      12.46     1.1407
     12.485     1.0911
      12.51     0.8013
     12.535     1.0901
      12.56     1.2411
     12.585     1.0835
      12.61      1.017
     12.635     1.3477
      12.66     1.2939
     12.685     1.5193
      12.71     1.5011
     12.735     2.0614
      12.76     1.8339
     12.785     1.3635
      12.81     1.6555
     12.835     1.5348
      12.86     1.3261
     12.885     1.2252
      12.91     1.1457
     12.935     1.0471
      12.96     0.9545
     12.985     1.2444
      13.01     1.4326
     13.035     1.6212
      13.06     1.4873
     13.085     1.2386
      13.11     1.3524
     13.135     1.1008
      13.16     1.3476
     13.185     1.4168
      13.21     1.3431
     13.235     1.4698
      13.26     1.4818
     13.285     1.2606
      13.31     2.0919
     13.335     1.8554
      13.36     1.7667
     13.385     2.1385
      13.41     1.2661
     13.435     1.0572
      13.46     1.0419
     13.485     1.0999
      13.51     1.6442
     13.535     1.0285
      13.56     1.3084
     13.585     1.1477
      13.61     0.8656
     13.635     1.4549
      13.66     1.6137
     13.685      1.358
      13.71     1.2658
     13.735     1.3376
      13.76     1.1616
     13.785     1.3707
      13.81     1.1834
     13.835     1.2814
      13.86     1.3696
     13.885     1.3266
      13.91     1.4692
     13.935     1.2066
      13.96     1.0934
     13.985     1.3698
      14.01     1.2428
     14.035     1.2114
      14.06     1.1218
     14.085     1.1959
      14.11     1.8052
     14.135     1.6037
      14.16      1.515
     14.185     1.4125
      14.21     1.8512
     14.235     2.0133
      14.26     1.9729
     14.285     2.0966
      14.31      1.997
     14.335     1.3143
      14.36     1.2273
     14.385       1.19
      14.41     1.2059
     14.435     2.2813
      14.46     2.3132
     14.485     1.9962
      14.51      1.708
     14.535     1.6512
      14.56     1.6358
     14.585     1.6175
      14.61      1.218
     14.635     1.2793
      14.66     1.8984
     14.685     2.1881
      14.71     2.0004
     14.735     1.8714
      14.76     1.5851
     14.785     1.8777
      14.81     1.9735
     14.835     1.6379
      14.86     1.8241
     14.885     1.6214
      14.91     1.4807
     14.935     1.7939
      14.96     1.9939
     14.985     1.7668
      15.01     1.7724
     15.035     1.7853
      15.06     1.6685
     15.085      1.588
      15.11     1.9504
     15.135     1.7056
      15.16     1.4862
     15.185     1.3291
      15.21     1.8875
     15.235     1.7074
      15.26     2.0741
     15.285     1.9497
      15.31     2.0176
     15.335     2.2178
      15.36     1.8105
     15.385     1.7026
      15.41     2.0159
     15.435     1.8449
      15.46     2.1362
     15.485     2.3725
      15.51     2.1995
     15.535       2.03
      15.56     2.0298
     15.585     2.1439
      15.61     2.1811
     15.635     1.6158
      15.66     1.6971
     15.685     2.2416
      15.71      2.435
     15.735     2.1053
      15.76     2.5243
     15.785      2.544
      15.81     2.4314
     15.835     2.1783
      15.86     2.3973
     15.885     2.6357
      15.91     2.3563
     15.935     2.1359
      15.96     2.0902
     15.985     2.5932
      16.01     2.1893
     16.035      2.038
      16.06     2.5227
     16.085     2.3942
      16.11     2.8341
     16.135     2.5191
      16.16     2.9071
     16.185      2.135
      16.21     2.6695
     16.235     2.7469
      16.26     2.5593
     16.285     2.5724
      16.31     2.2785
     16.335     2.2991
      16.36     2.9111
     16.385     2.6018
      16.41     2.6831
     16.435     2.2894
      16.46       2.34
     16.485     2.4173
      16.51      2.418
     16.535     2.3333
      16.56     2.2807
     16.585     2.4973
      16.61     2.4974
     16.635     2.8221
      16.66     2.9532
     16.685     2.6217
      16.71     2.5773
     16.735      2.367
      16.76     2.4464
     16.785      2.699
      16.81     2.6592
     16.835     2.7092
      16.86     2.8993
     16.885     2.8572
      16.91     2.9507
     16.935     2.9129
      16.96     3.0159
     16.985     2.8327
      17.01     2.4105
     17.035     2.9568
      17.06     2.4736
     17.085     2.9027
      17.11     2.6322
     17.135     3.0165
      17.16     2.7007
     17.185     2.9836
      17.21     2.9281
     17.235     2.8745
      17.26     2.8788
     17.285     2.7216
      17.31     2.7466
     17.335     3.0614
      17.36     3.1811
     17.385     2.8207
      17.41     2.8767
     17.435     2.7604
      17.46     2.7302
     17.485     2.8165
      17.51     3.0272
     17.535     2.6412
      17.56     3.0255
     17.585     3.2476
      17.61     3.3832
     17.635     3.2847
      17.66     2.7577
     17.685     3.5886
      17.71     3.2468
     17.735     3.1757
      17.76     3.1753
     17.785     3.3125
      17.81     3.4243
     17.835      3.298
      17.86     3.0443
     17.885      2.839
      17.91     2.9755
     17.935     2.7559
      17.96     2.7656
     17.985     2.9215
      18.01     3.4554
     18.035     3.6196
      18.06     3.3522
     18.085     3.0356
      18.11     2.8714
     18.135     2.8143
      18.16     2.6893
     18.185     2.7817
      18.21     3.1798
     18.235      3.111
      18.26     3.2875
     18.285      3.266
      18.31     3.2873
     18.335     3.4094
      18.36     3.4634
     18.385     3.2189
      18.41     3.1361
     18.435     2.9565
      18.46     3.1627
     18.485     2.9146
      18.51     3.1788
     18.535      3.561
      18.56     3.6677
     18.585     3.5131
      18.61     3.2916
     18.635     3.4165
      18.66     3.5097
     18.685     3.1343
      18.71      2.914
     18.735      2.908
      18.76     3.2315
     18.785      2.901
      18.81     3.1641
     18.835     3.2573
      18.86     3.4047
     18.885     3.6466
      18.91     3.2633
     18.935     2.8702
      18.96     2.8621
     18.985     3.6912
      19.01     2.9899
     19.035     3.2033
      19.06     3.0877
     19.085     3.5896
      19.11     3.0213
     19.135     3.4163
      19.16     3.3946
     19.185     2.9033
      19.21       3.41
     19.235     3.7456
      19.26     3.3439
     19.285     3.4211
      19.31     3.3228
     19.335     3.2687
      19.36     3.0869
     19.385     3.1134
      19.41     3.4951
     19.435     3.1093
      19.46     2.8123
     19.485     2.9729
      19.51     2.7488
     19.535     3.2534
      19.56     3.2773
     19.585     3.5717
      19.61     3.2188
     19.635     3.1438
      19.66     3.2617
     19.685     3.1571
      19.71     3.4761
     19.735     2.8572
      19.76     2.7944
     19.785     2.7634
      19.81     3.0154
     19.835     3.0344
      19.86      2.686
     19.885      3.272
      19.91     3.1032
     19.935     3.4915
      19.96     3.1073
     19.985     2.5763
      20.01     3.2854
     20.035     2.7959
      20.06     2.5998
     20.085     2.8987
      20.11     2.7533
     20.135     2.7525
      20.16     2.2721
     20.185     2.3609
      20.21     2.4122
     20.235     3.0023
      20.26     3.1305
     20.285     2.9361
      20.31     3.1499
     20.335     2.9099
      20.36     2.8367
     20.385     2.3819
      20.41     3.0134
     20.435     2.8262
      20.46     2.7431
     20.485     2.6841
      20.51     2.7422
     20.535     2.8953
      20.56     2.6995
     20.585     2.8967
      20.61     2.6483
     20.635     2.1058
      20.66     2.4218
     20.685     2.3352
      20.71     2.6591
     20.735     2.8408
      20.76     2.5166
     20.785     2.6135
      20.81     2.4919
     20.835     2.7612
      20.86     2.2729
     20.885     2.2421
      20.91     2.3679
     20.935     2.3594
      20.96     2.2443
     20.985     2.2142
      21.01     2.4563
     21.035     2.1115
      21.06     2.2377
     21.085     2.3515
      21.11     2.5243
     21.135     2.3195
      21.16     2.2934
     21.185     2.3608
      21.21     2.5296
     21.235     2.7576
      21.26     2.8286
     21.285     2.6117
      21.31     2.2945
     21.335     2.2467
      21.36     2.3049
     21.385     2.3608
      21.41     2.4257
     21.435     2.0374
      21.46      2.051
     21.485      2.173
      21.51     2.1116
     21.535     2.1117
      21.56     2.0787
     21.585     2.1995
      21.61     2.1911
     21.635      2.508
      21.66     2.2767
     21.685     2.1871
      21.71     2.5276
     21.735     2.6168
      21.76     2.1528
     21.785      2.226
      21.81     2.1647
     21.835     2.2034
      21.86     2.4095
     21.885     2.3457
      21.91     2.2369
     21.935     2.0992
      21.96     2.4044
     21.985     2.3038
      22.01     2.2144
     22.035     2.3324
      22.06     2.4618
     22.085     2.3602
      22.11     2.2966
     22.135     2.1791
      22.16     2.3237
     22.185     2.4692
      22.21     2.1829
     22.235     2.1214
      22.26     1.9177
     22.285      2.051
      22.31     2.0196
     22.335     2.1802
      22.36     2.3601
     22.385     2.2597
      22.41     2.1585
     22.435     2.2343
      22.46     2.4996
     22.485     2.3679
      22.51     1.9512
     22.535      1.919
      22.56     1.5227
     22.585     2.2752
      22.61     2.0457
     22.635     2.2064
      22.66     2.3666
     22.685     2.4434
      22.71     1.7809
     22.735     1.4415
      22.76     2.2087
     22.785     2.0476
      22.81     1.9141
     22.835     1.8765
      22.86      2.174
     22.885     1.4642
      22.91     1.7397
     22.935     1.6267
      22.96     1.7974
     22.985     2.1728
      23.01     1.9122
     23.035     1.4973
      23.06     1.9962
     23.085      2.194
      23.11     2.1073
     23.135     2.1275
      23.16     1.6938
     23.185     2.3079
      23.21     2.1975
     23.235     1.9815
      23.26     2.3522
     23.285     2.1559
      23.31     2.1848
     23.335     2.2271
      23.36     1.8662
     23.385     2.0314
      23.41     2.2969
     23.435      2.062
      23.46     2.1951
     23.485     1.9642
      23.51     1.8994
     23.535     2.1924
      23.56     2.0643
     23.585     1.9279
      23.61     2.0481
     23.635     2.0331
      23.66     2.0845
     23.685     1.9362
      23.71      2.182
     23.735     1.7728
      23.76     2.0839
     23.785     2.2836
      23.81     2.3349
     23.835     2.3799
      23.86     1.9522
     23.885     2.0899
      23.91     2.0324
     23.935     2.0638
      23.96     2.5064
     23.985      2.017
      24.01     1.7962
     24.035     1.9213
      24.06      2.091
     24.085     1.8865
      24.11     1.5951
     24.135     1.6849
      24.16     2.1896
     24.185     2.1199
      24.21     2.1237
     24.235     2.1918
      24.26     2.2939
     24.285     2.2268
      24.31     1.9727
     24.335     2.0602
      24.36     1.9218
     24.385     2.0182
      24.41     2.2326
     24.435     1.9415
      24.46     1.9234
     24.485     2.2569
      24.51     2.2517
     24.535     2.2686
      24.56     2.4339
     24.585     2.3906
      24.61     2.3679
     24.635     2.3147
      24.66     2.3316
     24.685     2.0032
      24.71     1.7229
     24.735     1.8809
      24.76     2.2981
     24.785     2.1005
      24.81     1.9721
     24.835     1.8543
      24.86     1.8846
     24.885     2.2431
      24.91     1.9947
     24.935     1.9623
      24.96     2.0218
     24.985     1.9797
      25.01     2.0936
     25.035     1.7347
      25.06     1.8145
     25.085     1.9222
      25.11     2.0721
     25.135     2.1843
      25.16     2.1853
     25.185     2.1407
      25.21     1.9611
     25.235     1.8653
      25.26     1.7458
     25.285     2.3074
      25.31     2.2246
     25.335     2.1499
      25.36     1.7186
     25.385     1.5928
      25.41      1.937
     25.435     2.1613
      25.46     2.0236
     25.485     2.0426
      25.51      1.673
     25.535     1.9286
      25.56     2.1676
     25.585      2.244
      25.61     2.2087
     25.635     1.8724
      25.66     2.4158
     25.685     1.9743
      25.71     2.1139
     25.735     2.2614
      25.76     2.2586
     25.785      2.085
      25.81     1.9989
     25.835     1.8933
      25.86      1.967
     25.885     2.1163
      25.91     2.1907
     25.935     2.4083
      25.96     2.4039
     25.985     2.0347
      26.01     1.7416
     26.035     2.1765
      26.06     2.1566
     26.085     2.0677
      26.11     2.0863
     26.135     2.3082
      26.16     1.9122
     26.185     2.3495
      26.21     1.6595
     26.235     1.7971
      26.26     2.1332
     26.285     1.8529
      26.31     2.3079
     26.335     2.4743
      26.36     2.7118
     26.385     2.5479
      26.41      2.141
     26.435     1.4554
      26.46     2.1232
     26.485     2.1194
      26.51     1.6549
     26.535     2.3613
      26.56     2.2129
     26.585     2.1964
      26.61     2.1576
     26.635     2.2345
      26.66     2.6103
     26.685     2.3336
      26.71     1.8597
     26.735       1.92
      26.76     2.1371
     26.785     2.2843
      26.81     2.3057
     26.835     2.2378
      26.86     1.9221
     26.885     2.2506
      26.91     1.9464
     26.935     2.0146
      26.96     2.1061
     26.985     2.2783
      27.01     2.5359
     27.035     2.5679
      27.06      2.535
     27.085     2.0475
      27.11     2.1025
     27.135     2.3298
      27.16     2.5986
     27.185     2.6237
      27.21     2.5885
     27.235     2.7609
      27.26     2.4793
     27.285     2.6019
      27.31     2.5544
     27.335     2.3098
      27.36      2.555
     27.385     2.3354
      27.41     2.1623
     27.435     1.9645
      27.46     1.9264
     27.485     2.1663
      27.51     2.0762
     27.535     2.0816
      27.56     2.2039
     27.585     2.4306
      27.61     2.3639
     27.635     2.5457
      27.66     2.2843
     27.685      2.307
      27.71     2.0833
     27.735     1.9692
      27.76     2.1427
     27.785     2.3673
      27.81     2.3488
     27.835     2.0057
      27.86     2.0778
     27.885     2.3483
      27.91     2.3224
     27.935     2.4679
      27.96     2.4267
     27.985     2.5169
      28.01     2.4038
     28.035     2.3957
      28.06     2.2951
     28.085     2.2224
      28.11     2.3866
     28.135     2.5061
      28.16     2.4942
     28.185     2.2188
      28.21     2.0716
     28.235     2.6046
      28.26     2.9687
     28.285     2.4578
      28.31     2.3574
     28.335     2.2842
      28.36      2.503
     28.385     2.7184
      28.41     2.4648
     28.435     2.5021
      28.46     2.4325
     28.485     2.5003
      28.51     2.6474
     28.535      2.386
      28.56     2.4186
     28.585     2.4721
      28.61     2.7588
     28.635     2.6309
      28.66     2.5898
     28.685     2.7294
      28.71     2.7853
     28.735     2.3332
      28.76     2.6406
     28.785     2.9189
      28.81     2.6461
     28.835     2.6555
      28.86     2.9902
     28.885     3.2322
      28.91     2.8093
     28.935     3.1667
      28.96     2.7658
     28.985     2.7556
      29.01     2.6805
     29.035     3.0019
      29.06      2.951
     29.085     2.6737
      29.11     3.2746
     29.135     3.3862
      29.16     3.0849
     29.185     3.2832
      29.21     2.8343
     29.235     2.3928
      29.26     2.4047
     29.285     3.0771
      29.31     3.5304
     29.335     2.8076
      29.36     3.4068
     29.385      3.576
      29.41     3.4727
     29.435     2.6768
      29.46       3.07
     29.485     2.9494
      29.51     2.7202
     29.535     3.6232
      29.56     3.0031
     29.585     3.3843
      29.61     2.9215
     29.635     3.5554
      29.66     3.1248
     29.685     2.8827
      29.71     3.1885
     29.735     3.2659
      29.76     3.3505
     29.785     2.9747
      29.81     3.1594
     29.835      2.837
      29.86     3.4498
     29.885     3.3261
      29.91     3.3942
     29.935     3.1079
      29.96     3.4103
     29.985     3.3076
      30.01     3.3737
ENDDATA           1162
ENDSUBENT         1172
SUBENT        D0488003   20081021   20081219   20081218       D064
BIB                  1          1
REACTION   (28-NI-58(P,INL)28-NI-58,,DA/DE)
ENDBIB               1
COMMON               1          3
ANG
ADEG
  6.3
ENDCOMMON            3
DATA                 2        997
E-EXC      DATA
MEV        MB/SR/MEV
      0.935     0.2862
       0.96     0.1897
      0.985     0.2795
       1.01     0.1028
      1.035     0.1143
       1.06     0.2661
      1.085     0.2353
       1.11     0.3152
      1.135     0.3112
       1.16     0.2105
      1.185     0.1408
       1.21     0.3072
      1.235     0.2933
       1.26     0.4749
      1.285     0.6846
       1.31     1.1032
      1.335     1.9739
       1.36     3.2607
      1.385     6.0932
       1.41     11.533
      1.435     17.753
       1.46     19.044
      1.485     13.883
       1.51     7.6425
      1.535     3.5564
       1.56     1.4872
      1.585     0.8724
       1.61     0.5981
      1.635     0.4964
       1.66     0.5898
      1.685     0.4935
       1.71     0.3559
      1.735      0.318
       1.76     0.2995
      1.785     0.2569
       1.81     0.2071
      1.835     0.2204
       1.86     0.2484
      1.885     0.2864
       1.91     0.1503
      1.935     0.1354
       1.96 9.3340E-02
      1.985     0.1481
       2.01     0.1161
      2.035     0.1013
       2.06 4.2980E-02
      2.085 8.9120E-02
       2.11 8.2760E-02
      2.135 8.2700E-02
       2.16      0.155
      2.185      0.134
       2.21     0.1779
      2.235     0.1189
       2.26 9.0170E-02
      2.285     0.1307
       2.31     0.1079
      2.335 4.5030E-02
       2.36     0.1119
      2.385     0.1588
       2.41     0.1404
      2.435     0.1475
       2.46     0.1647
      2.485     0.1126
       2.51 7.0300E-02
      2.535     0.1379
       2.56     0.1923
      2.585     0.1203
       2.61 5.6540E-02
      2.635 4.8350E-02
       2.66 4.0950E-02
      2.685     0.1253
       2.71 7.4240E-02
      2.735     0.1842
       2.76     0.1213
      2.785 6.6740E-02
       2.81     0.1507
      2.835     0.1757
       2.86     0.1826
      2.885     0.2016
       2.91     0.3275
      2.935     0.3799
       2.96     0.6114
      2.985      0.846
       3.01      1.245
      3.035     1.3663
       3.06     1.1798
      3.085      0.731
       3.11     0.4852
      3.135     0.3824
       3.16     0.4497
      3.185     0.7309
       3.21     1.1168
      3.235     1.8196
       3.26     2.2734
      3.285     1.7891
       3.31     1.1453
      3.335     0.6116
       3.36     0.2632
      3.385     0.2548
       3.41     0.1964
      3.435     0.2831
       3.46     0.2843
      3.485     0.3885
       3.51     0.4089
      3.535     0.3652
       3.56     0.3286
      3.585     0.4243
       3.61     0.4052
      3.635     0.1829
       3.66     0.1525
      3.685     0.1411
       3.71     0.1326
      3.735     0.2284
       3.76     0.2982
      3.785     0.3636
       3.81     0.2282
      3.835     0.2964
       3.86     0.4945
      3.885     0.5869
       3.91     0.7453
      3.935     0.4455
       3.96     0.3792
      3.985     0.3524
       4.01     0.2647
      4.035     0.3021
       4.06     0.4883
      4.085     0.2914
       4.11     0.4138
      4.135     0.2934
       4.16     0.2774
      4.185     0.1608
       4.21     0.2653
      4.235     0.3556
       4.26     0.2441
      4.285     0.1988
       4.31     0.2876
      4.335     0.2923
       4.36     0.5363
      4.385     0.5711
       4.41     0.8751
      4.435     1.3132
       4.46     1.7128
      4.485     1.8011
       4.51     1.1599
      4.535     0.9504
       4.56     0.7174
      4.585     0.3958
       4.61     0.3762
      4.635     0.3116
       4.66     0.2069
      4.685     0.2171
       4.71      0.364
      4.735     0.4908
       4.76     0.3194
      4.785     0.2672
       4.81     0.2327
      4.835     0.1554
       4.86     0.2444
      4.885 8.5800E-02
       4.91     0.1307
      4.935     0.1435
       4.96     0.1037
      4.985     0.1866
       5.01 9.0850E-02
      5.035     0.2256
       5.06     0.1769
      5.085     0.2617
       5.11     0.2226
      5.135     0.1198
       5.16     0.3292
      5.185     0.3346
       5.21     0.2839
      5.235      0.176
       5.26     0.1982
      5.285     0.2997
       5.31     0.2815
      5.335     0.2178
       5.36     0.2243
      5.385     0.2474
       5.41     0.2172
      5.435     0.2549
       5.46     0.3332
      5.485     0.3801
       5.51     0.3275
      5.535     0.4302
       5.56     0.5896
      5.585     0.7089
       5.61     0.6183
      5.635      0.486
       5.66     0.5085
      5.685     0.6267
       5.71     0.6445
      5.735     0.5814
       5.76     0.6317
      5.785     0.6583
       5.81     0.4953
      5.835     0.7529
       5.86     0.8142
      5.885     1.1236
       5.91     1.1297
      5.935     1.1075
       5.96     0.9472
      5.985     0.9467
       6.01     1.1215
      6.035     1.0772
       6.06     0.8789
      6.085       0.79
       6.11     0.8204
      6.135       0.85
       6.16     0.9825
      6.185     0.9111
       6.21     1.0057
      6.235     1.1112
       6.26     1.1475
      6.285     1.0591
       6.31     0.9588
      6.335       1.01
       6.36     0.8821
      6.385     1.0948
       6.41     1.0644
      6.435     0.9889
       6.46     0.9161
      6.485     0.9433
       6.51     1.0039
      6.535     0.9472
       6.56     1.0633
      6.585     1.0639
       6.61     1.0455
      6.635     0.9198
       6.66     1.1005
      6.685     1.0545
       6.71     1.2175
      6.735     1.3037
       6.76     1.2399
      6.785     1.1043
       6.81     1.1406
      6.835     1.3065
       6.86     1.2777
      6.885     1.0784
       6.91     0.9666
      6.935     0.8296
       6.96     0.8618
      6.985     1.0341
       7.01     0.9561
      7.035     0.9754
       7.06     0.8364
      7.085     0.8537
       7.11     0.9015
      7.135     0.9237
       7.16     1.0108
      7.185     1.0993
       7.21     1.2762
      7.235     1.3666
       7.26     1.3706
      7.285     1.0439
       7.31     0.7635
      7.335     0.6763
       7.36     0.8805
      7.385     0.9832
       7.41     1.1686
      7.435     0.9933
       7.46     0.9773
      7.485      1.198
       7.51     0.9835
      7.535     0.9513
       7.56      0.794
      7.585     0.9426
       7.61     1.0631
      7.635      1.105
       7.66     1.0301
      7.685     1.5273
       7.71     1.7103
      7.735     1.2978
       7.76     1.1332
      7.785     0.8069
       7.81     0.8922
      7.835     1.1331
       7.86     1.0596
      7.885     1.1498
       7.91     1.0259
      7.935     0.9134
       7.96     0.7974
      7.985     0.6804
       8.01      0.785
      8.035     0.7442
       8.06     0.8131
      8.085     0.7827
       8.11     0.8933
      8.135     1.0641
       8.16     0.9464
      8.185     1.2694
       8.21     1.4885
      8.235      1.837
       8.26      1.641
      8.285     1.3607
       8.31     1.2966
      8.335     1.1668
       8.36     1.3436
      8.385     1.5519
       8.41     1.4483
      8.435     1.5986
       8.46     1.4387
      8.485      1.593
       8.51     1.7071
      8.535     1.6435
       8.56     1.5226
      8.585     1.6515
       8.61     1.7919
      8.635     1.8501
       8.66      1.856
      8.685     1.9892
       8.71     1.6769
      8.735     0.9769
       8.76     0.9679
      8.785     1.1637
       8.81     1.0529
      8.835     1.2826
       8.86     1.4347
      8.885     1.4951
       8.91     1.2943
      8.935       1.43
       8.96     1.5358
      8.985     1.2689
       9.01     1.2436
      9.035     1.1977
       9.06       1.33
      9.085     1.3932
       9.11     1.4447
      9.135     1.3045
       9.16     1.3048
      9.185     1.5444
       9.21     1.4982
      9.235     1.5844
       9.26     1.4926
      9.285     1.5616
       9.31     1.4436
      9.335      1.502
       9.36     1.3814
      9.385     1.5788
       9.41     1.6091
      9.435     1.2519
       9.46     1.4247
      9.485     1.3929
       9.51     1.6359
      9.535     1.4987
       9.56     1.4867
      9.585     1.4474
       9.61      1.418
      9.635     1.4005
       9.66     1.3754
      9.685     1.2703
       9.71     1.4532
      9.735     1.5326
       9.76     1.3484
      9.785     1.3242
       9.81     1.4468
      9.835     1.4953
       9.86     1.5113
      9.885     1.5067
       9.91     1.2212
      9.935     1.1953
       9.96     1.2158
      9.985     1.0443
      10.01     1.1132
     10.035     1.2867
      10.06     1.2711
     10.085     1.3094
      10.11     1.2811
     10.135      1.321
      10.16      1.611
     10.185     1.8495
      10.21     2.0156
     10.235     1.7068
      10.26     1.7135
     10.285     1.4565
      10.31     1.5013
     10.335     1.1857
      10.36      1.237
     10.385     1.2933
      10.41      1.175
     10.435     1.5579
      10.46      1.707
     10.485     1.7495
      10.51     2.0042
     10.535     1.7057
      10.56     2.0332
     10.585     2.1062
      10.61     2.6831
     10.635     3.3009
      10.66     4.2206
     10.685     3.7845
      10.71     2.8189
     10.735     1.8627
      10.76     1.3934
     10.785     1.2011
      10.81     1.0349
     10.835     1.2005
      10.86      1.191
     10.885     1.2776
      10.91     1.3587
     10.935     1.3267
      10.96     1.4151
     10.985      1.755
      11.01     1.6063
     11.035     1.3501
      11.06     1.3604
     11.085     1.4543
      11.11     1.3191
     11.135     1.2897
      11.16     1.4708
     11.185     1.2898
      11.21     1.2795
     11.235     1.1603
      11.26     1.2333
     11.285     1.2235
      11.31     1.2795
     11.335      1.294
      11.36     1.1584
     11.385     1.2188
      11.41     1.5107
     11.435     1.3242
      11.46     1.1316
     11.485     1.2009
      11.51     1.2523
     11.535     1.2189
      11.56     1.2067
     11.585     1.1801
      11.61      1.092
     11.635     1.3801
      11.66     1.5422
     11.685      1.575
      11.71     1.3719
     11.735     1.3748
      11.76     1.3011
     11.785     1.4631
      11.81     1.3471
     11.835     1.6352
      11.86     1.9415
     11.885     1.7701
      11.91     1.5086
     11.935     1.4284
      11.96     1.0962
     11.985     1.2618
      12.01     1.0388
     12.035     1.0023
      12.06     0.8268
     12.085      0.826
      12.11     0.9869
     12.135      0.964
      12.16     1.1145
     12.185     1.1487
      12.21     1.4411
     12.235     1.3385
      12.26     1.3931
     12.285     1.5201
      12.31     1.4614
     12.335     1.2414
      12.36     1.3748
     12.385     1.2225
      12.41     1.3898
     12.435     1.4367
      12.46     1.2009
     12.485     1.2087
      12.51     1.0047
     12.535     1.1399
      12.56     1.2722
     12.585     1.2782
      12.61     1.3443
     12.635     1.4277
      12.66     1.4393
     12.685     1.5222
      12.71     1.6012
     12.735     1.9457
      12.76     1.7973
     12.785     1.6431
      12.81     1.6919
     12.835     1.5585
      12.86     1.4391
     12.885     1.4299
      12.91     1.3003
     12.935     1.1836
      12.96      1.264
     12.985     1.4471
      13.01     1.5165
     13.035     1.7199
      13.06     1.5591
     13.085     1.3503
      13.11      1.436
     13.135     1.2963
      13.16     1.5279
     13.185     1.4915
      13.21     1.5062
     13.235     1.5382
      13.26     1.5915
     13.285     1.4564
      13.31     1.9572
     13.335     1.8465
      13.36     1.8061
     13.385     1.8142
      13.41     1.3534
     13.435     1.2766
      13.46       1.27
     13.485     1.2853
      13.51     1.6194
     13.535     1.3244
      13.56     1.4423
     13.585     1.4593
      13.61     1.2044
     13.635     1.6282
      13.66     1.7026
     13.685     1.5759
      13.71     1.4842
     13.735     1.5731
      13.76     1.3554
     13.785     1.5252
      13.81     1.4008
     13.835     1.4396
      13.86     1.5268
     13.885     1.4575
      13.91     1.5696
     13.935     1.5812
      13.96     1.5135
     13.985     1.4513
      14.01     1.5433
     14.035     1.4483
      14.06     1.5994
     14.085      1.401
      14.11     1.8137
     14.135     1.7373
      14.16      1.741
     14.185     1.6469
      14.21     1.9175
     14.235     1.8879
      14.26     1.9239
     14.285     1.8644
      14.31     1.8837
     14.335     1.5642
      14.36     1.6216
     14.385     1.4258
      14.41     1.5622
     14.435     2.0543
      14.46     2.0245
     14.485      1.914
      14.51     1.8435
     14.535     1.8555
      14.56     1.7846
     14.585     1.7167
      14.61     1.4586
     14.635     1.5766
      14.66     1.8066
     14.685     1.9954
      14.71     1.9822
     14.735     1.9393
      14.76     1.8423
     14.785      1.931
      14.81     1.8882
     14.835      1.668
      14.86     1.7846
     14.885     1.9138
      14.91      1.702
     14.935     1.8193
      14.96     1.9258
     14.985     1.7525
      15.01     1.7463
     15.035     1.7263
      15.06     1.7457
     15.085     1.6444
      15.11     1.8399
     15.135     1.7483
      15.16     1.7743
     15.185     1.6716
      15.21     1.7693
     15.235     1.7202
      15.26     1.8493
     15.285     1.9602
      15.31     1.9573
     15.335     2.0375
      15.36     1.8179
     15.385     1.8999
      15.41     2.0444
     15.435     1.8867
      15.46     2.0608
     15.485     2.1681
      15.51     2.0622
     15.535     2.1013
      15.56     2.1081
     15.585     2.1673
      15.61     2.2084
     15.635     1.9017
      15.66     1.8649
     15.685     2.1504
      15.71     2.2402
     15.735     2.0823
      15.76     2.1759
     15.785     2.3137
      15.81     2.2299
     15.835     2.2017
      15.86     2.2572
     15.885     2.3592
      15.91     2.2416
     15.935     2.2221
      15.96     2.1444
     15.985     2.3215
      16.01     2.1095
     16.035     2.2078
      16.06     2.2976
     16.085     2.2216
      16.11     2.3121
     16.135     2.1918
      16.16     2.3441
     16.185     2.1474
      16.21     2.2641
     16.235      2.362
      16.26     2.3656
     16.285     2.4256
      16.31     2.3544
     16.335     2.3562
      16.36     2.4974
     16.385      2.367
      16.41     2.3795
     16.435     2.1699
      16.46     2.2686
     16.485     2.3481
      16.51     2.3095
     16.535     2.3117
      16.56     2.4328
     16.585     2.3113
      16.61     2.3101
     16.635     2.5587
      16.66     2.5966
     16.685     2.5664
      16.71     2.4253
     16.735      2.438
      16.76     2.3066
     16.785     2.3653
      16.81     2.4361
     16.835     2.4719
      16.86     2.5868
     16.885     2.5058
      16.91      2.602
     16.935     2.3817
      16.96     2.4981
     16.985     2.4653
      17.01     2.2677
     17.035     2.4975
      17.06     2.4095
     17.085     2.4627
      17.11     2.4352
     17.135     2.5958
      17.16     2.4676
     17.185     2.6832
      17.21     2.6979
     17.235     2.5949
      17.26     2.5261
     17.285     2.3702
      17.31     2.4624
     17.335     2.6417
      17.36     2.5997
     17.385     2.4495
      17.41     2.3237
     17.435     2.4949
      17.46     2.4207
     17.485     2.4773
      17.51     2.5615
     17.535     2.4166
      17.56     2.4578
     17.585     2.6019
      17.61     2.7407
     17.635     2.7147
      17.66     2.4446
     17.685      2.865
      17.71     2.7661
     17.735     2.6469
      17.76      2.753
     17.785     2.5888
      17.81     2.6792
     17.835      2.685
      17.86     2.5324
     17.885     2.5308
      17.91     2.5309
     17.935       2.47
      17.96     2.5483
     17.985     2.4639
      18.01      2.823
     18.035     2.7144
      18.06     2.6153
     18.085     2.4788
      18.11     2.5651
     18.135     2.4028
      18.16     2.3361
     18.185     2.3902
      18.21     2.4378
     18.235     2.5176
      18.26     2.5417
     18.285     2.6406
      18.31     2.6144
     18.335     2.6329
      18.36     2.6956
     18.385     2.5498
      18.41     2.5865
     18.435     2.3976
      18.46     2.4131
     18.485     2.3788
      18.51     2.5734
     18.535     2.6807
      18.56     2.7088
     18.585      2.658
      18.61     2.6433
     18.635     2.7569
      18.66     2.7671
     18.685     2.5341
      18.71     2.4969
     18.735     2.5322
      18.76     2.6637
     18.785     2.4281
      18.81     2.6141
     18.835     2.7237
      18.86     2.5994
     18.885     2.6553
      18.91      2.542
     18.935     2.4695
      18.96      2.407
     18.985     2.7098
      19.01     2.4885
     19.035     2.4677
      19.06     2.3976
     19.085     2.6008
      19.11     2.4502
     19.135     2.6734
      19.16     2.6676
     19.185     2.3769
      19.21     2.6888
     19.235     2.6814
      19.26      2.508
     19.285      2.554
      19.31     2.5233
     19.335     2.6138
      19.36     2.4718
     19.385     2.4362
      19.41     2.6963
     19.435     2.4849
      19.46     2.3998
     19.485     2.4211
      19.51     2.2908
     19.535     2.4879
      19.56     2.4686
     19.585     2.5567
      19.61      2.463
     19.635     2.5289
      19.66      2.456
     19.685     2.3975
      19.71     2.4894
     19.735     2.3782
      19.76     2.3028
     19.785     2.2072
      19.81     2.3521
     19.835     2.4162
      19.86     2.2735
     19.885     2.5262
      19.91     2.3867
     19.935     2.4835
      19.96      2.425
     19.985     2.2054
      20.01     2.8651
     20.035      2.585
      20.06     2.4687
     20.085     2.6756
      20.11     2.6149
     20.135     2.5311
      20.16     2.3028
     20.185     2.2847
      20.21     2.4867
     20.235     2.6342
      20.26     2.5494
     20.285     2.6401
      20.31     2.5967
     20.335     2.6259
      20.36     2.6057
     20.385     2.3061
      20.41     2.5846
     20.435     2.4393
      20.46     2.5004
     20.485      2.419
      20.51     2.5274
     20.535     2.5139
      20.56     2.3901
     20.585     2.6758
      20.61     2.3407
     20.635     2.1108
      20.66     2.3024
     20.685     2.2351
      20.71     2.4377
     20.735     2.4812
      20.76     2.3328
     20.785     2.3211
      20.81     2.3777
     20.835     2.3733
      20.86     2.2795
     20.885     2.2573
      20.91     2.3245
     20.935     2.2927
      20.96     2.3232
     20.985     2.1457
      21.01     2.3096
     21.035     2.0785
      21.06     2.3696
     21.085     2.3015
      21.11     2.3406
     21.135     2.3887
      21.16     2.2619
     21.185     2.3142
      21.21     2.2106
     21.235     2.3408
      21.26     2.3927
     21.285     2.5254
      21.31     2.2148
     21.335     2.2373
      21.36      2.238
     21.385     2.2836
      21.41     2.3651
     21.435     2.0618
      21.46     1.9502
     21.485     2.1582
      21.51     2.1489
     21.535     2.1454
      21.56     2.2167
     21.585     2.2425
      21.61     2.1856
     21.635     2.3927
      21.66     2.2181
     21.685     2.1834
      21.71     2.1985
     21.735     2.4467
      21.76     2.1426
     21.785      2.166
      21.81     2.2148
     21.835     2.1583
      21.86     2.1545
     21.885      2.276
      21.91     2.2178
     21.935     2.1167
      21.96     2.2746
     21.985     2.3375
      22.01     2.1478
     22.035     2.2578
      22.06      2.316
     22.085     2.3648
      22.11     2.1627
     22.135     2.0298
      22.16     2.1721
     22.185     2.3035
      22.21     2.2176
     22.235     2.1276
      22.26     1.9036
     22.285     2.0927
      22.31     1.9519
     22.335     2.1723
      22.36     2.1611
     22.385     2.1341
      22.41     2.0336
     22.435     2.0997
      22.46     2.1942
     22.485     2.1457
      22.51     2.0056
     22.535     2.0238
      22.56     1.8451
     22.585     2.0229
      22.61     2.0663
     22.635     2.1585
      22.66     2.2654
     22.685     2.2668
      22.71      1.842
     22.735     1.7765
      22.76     2.0832
     22.785     1.9673
      22.81     2.0325
     22.835     2.0124
      22.86     2.1173
     22.885     1.6547
      22.91       1.88
     22.935     1.7753
      22.96     1.7561
     22.985     2.1952
      23.01     2.0346
     23.035     1.8085
      23.06     1.9916
     23.085     2.0823
      23.11     2.0808
     23.135     2.0669
      23.16     1.7426
     23.185      2.266
      23.21     2.1367
     23.235     2.0384
      23.26     2.2259
     23.285     2.1072
      23.31     2.0453
     23.335     2.0846
      23.36     1.8884
     23.385     2.0501
      23.41      2.186
     23.435     1.9978
      23.46     2.1737
     23.485     2.0184
      23.51     1.9796
     23.535     2.0106
      23.56      2.119
     23.585     2.0167
      23.61     2.0304
     23.635      1.987
      23.66     1.9112
     23.685     1.9671
      23.71     2.0946
     23.735     1.7448
      23.76     2.0607
     23.785     2.0766
      23.81      2.167
     23.835     2.2492
      23.86     2.0908
     23.885     2.0682
      23.91      1.978
     23.935     2.0274
      23.96     2.2172
     23.985     2.0152
      24.01     1.8516
     24.035     1.9104
      24.06     2.0133
     24.085     1.8719
      24.11     1.7679
     24.135     1.8576
      24.16     2.0794
     24.185     2.1626
      24.21     2.0656
     24.235     2.1552
      24.26     2.1434
     24.285     2.1323
      24.31     2.0502
     24.335     2.0793
      24.36     1.9338
     24.385     1.8832
      24.41      2.171
     24.435      1.897
      24.46     1.9624
     24.485     2.1706
      24.51     2.1038
     24.535     2.1329
      24.56     2.2216
     24.585     2.1047
      24.61      2.181
     24.635     2.1981
      24.66     2.0656
     24.685     2.0047
      24.71     1.9001
     24.735     2.0115
      24.76     2.1264
     24.785     2.0583
      24.81     1.8952
     24.835     1.9374
      24.86     1.7841
     24.885     2.1676
      24.91      2.026
     24.935     1.9981
      24.96     2.0585
     24.985     1.9394
      25.01     1.9968
     25.035     1.9153
      25.06     1.9359
     25.085     1.9529
      25.11     1.9539
     25.135     2.1229
      25.16     2.1238
     25.185     2.0605
      25.21     1.9868
     25.235     1.9124
      25.26     1.8932
     25.285     2.0448
      25.31     2.0678
     25.335     2.1153
      25.36     1.8543
     25.385     1.8396
      25.41     1.9317
     25.435     2.0501
      25.46     2.0134
     25.485     2.0024
      25.51     1.7989
     25.535     1.9944
      25.56     2.0493
     25.585     2.0878
      25.61     2.2087
     25.635     1.8783
      25.66     2.1508
     25.685     2.0771
      25.71     2.0531
     25.735     2.1577
      25.76     2.1686
     25.785     2.0048
      25.81     1.9218
     25.835     1.9258
ENDDATA            999
ENDSUBENT         1009
SUBENT        D0488004   20081021   20081219   20081218       D064
BIB                  1          1
REACTION   (28-NI-58(P,INL)28-NI-58,,DA/DE)
ENDBIB               1
COMMON               1          3
ANG
ADEG
  10.4
ENDCOMMON            3
DATA                 2       1176
E-EXC      DATA
MEV        MB/SR/MEV
       0.91 4.0610E-02
      0.935 4.1330E-02
       0.96 2.1260E-02
      0.985 3.2230E-02
       1.01 1.7060E-02
      1.035 2.2220E-02
       1.06 2.1180E-02
      1.085 3.0450E-02
       1.11 5.3730E-02
      1.135 5.1410E-02
       1.16 4.7570E-02
      1.185 6.1490E-02
       1.21 7.3220E-02
      1.235     0.1239
       1.26      0.274
      1.285     0.4681
       1.31     1.1697
      1.335     2.4787
       1.36      6.207
      1.385     18.291
       1.41     46.712
      1.435     84.985
       1.46     98.961
      1.485     69.102
       1.51      32.72
      1.535     13.789
       1.56     6.5215
      1.585     3.6793
       1.61     2.2988
      1.635     1.6528
       1.66     1.2831
      1.685      0.885
       1.71     0.7675
      1.735     0.5897
       1.76     0.5068
      1.785     0.3714
       1.81      0.309
      1.835     0.2595
       1.86     0.2144
      1.885     0.1084
       1.91     0.1015
      1.935 5.3550E-02
       1.96 3.0930E-02
      1.985 4.2690E-02
       2.01 3.2850E-02
      2.035 2.8340E-02
       2.06 3.3660E-02
      2.085 3.1850E-02
       2.11 2.8770E-02
      2.135 1.3480E-02
       2.16 2.7310E-02
      2.185 3.3760E-02
       2.21 2.7630E-02
      2.235 2.6010E-02
       2.26 2.3010E-02
      2.285 3.5160E-02
       2.31 2.4320E-02
      2.335 2.4690E-02
       2.36 4.8610E-02
      2.385     0.1292
       2.41     0.4378
      2.435     0.8461
       2.46     1.0663
      2.485      0.778
       2.51     0.4024
      2.535     0.1829
       2.56 9.7910E-02
      2.585 5.8190E-02
       2.61 5.6530E-02
      2.635 5.6030E-02
       2.66 3.9880E-02
      2.685 4.2940E-02
       2.71 5.7230E-02
      2.735 4.7820E-02
       2.76 9.4980E-02
      2.785 8.9920E-02
       2.81 8.7740E-02
      2.835 8.2280E-02
       2.86 9.1900E-02
      2.885      0.177
       2.91     0.2435
      2.935     0.4348
       2.96     1.0117
      2.985     2.8318
       3.01     6.1513
      3.035     8.2771
       3.06     6.6951
      3.085     3.2689
       3.11     1.4124
      3.135     0.7973
       3.16     0.7676
      3.185     1.4693
       3.21     4.1874
      3.235     9.0118
       3.26     13.132
      3.285     10.649
       3.31     5.3075
      3.335     2.2585
       3.36     1.1005
      3.385      0.693
       3.41     0.5381
      3.435     0.3624
       3.46     0.3658
      3.485     0.5134
       3.51     0.6464
      3.535     0.7113
       3.56     0.6468
      3.585     0.6501
       3.61      0.711
      3.635     0.5888
       3.66     0.4029
      3.685     0.2449
       3.71     0.2243
      3.735     0.2412
       3.76     0.3032
      3.785     0.3402
       3.81     0.3125
      3.835     0.5825
       3.86     1.2093
      3.885     1.9629
       3.91     2.0309
      3.935     1.1826
       3.96     0.6539
      3.985     0.4146
       4.01     0.4183
      4.035     0.4544
       4.06     0.5662
      4.085     0.7437
       4.11     0.8222
      4.135     0.6674
       4.16     0.4625
      4.185     0.4249
       4.21     0.3941
      4.235     0.4043
       4.26     0.4873
      4.285     0.5937
       4.31     0.6393
      4.335       0.79
       4.36     1.1609
      4.385     2.0788
       4.41     5.1254
      4.435     11.335
       4.46     18.012
      4.485     19.086
       4.51     12.258
      4.535     5.8827
       4.56     3.0588
      4.585     1.6997
       4.61     1.1657
      4.635     0.9089
       4.66     0.7881
      4.685     0.8458
       4.71     1.1252
      4.735     1.4297
       4.76     1.5236
      4.785     1.2468
       4.81     0.8245
      4.835     0.6291
       4.86     0.5448
      4.885     0.5289
       4.91     0.4717
      4.935      0.491
       4.96     0.4567
      4.985     0.4448
       5.01     0.3946
      5.035     0.3565
       5.06     0.3352
      5.085     0.3466
       5.11     0.3853
      5.135      0.453
       5.16     0.4916
      5.185     0.4716
       5.21     0.3728
      5.235     0.3158
       5.26     0.3192
      5.285     0.2715
       5.31     0.3163
      5.335     0.3014
       5.36     0.2969
      5.385      0.354
       5.41     0.4058
      5.435     0.4561
       5.46     0.4422
      5.485     0.3945
       5.51     0.5041
      5.535     0.8854
       5.56      1.616
      5.585     2.2164
       5.61     1.9147
      5.635     1.1186
       5.66     0.6339
      5.685     0.5136
       5.71     0.5648
      5.735     0.5339
       5.76     0.6734
      5.785     0.5248
       5.81      0.527
      5.835     0.7146
       5.86     1.2127
      5.885     2.1548
       5.91     2.7088
      5.935     1.9848
       5.96     1.4556
      5.985     1.2889
       6.01     1.3937
      6.035     1.4115
       6.06     1.0024
      6.085     0.7869
       6.11     0.6928
      6.135      0.708
       6.16     0.8461
      6.185     1.0147
       6.21     1.3167
      6.235     1.4999
       6.26     1.6038
      6.285      1.367
       6.31     1.2645
      6.335     1.0601
       6.36     1.1441
      6.385     1.3904
       6.41     1.7738
      6.435     1.6092
       6.46     1.4289
      6.485     1.2502
       6.51     1.1141
      6.535      1.144
       6.56     1.1399
      6.585     1.0565
       6.61     0.8702
      6.635     0.8561
       6.66     0.9828
      6.685     1.3331
       6.71     1.7815
      6.735     2.2618
       6.76     2.2692
      6.785     2.2234
       6.81     3.3533
      6.835     4.8005
       6.86     4.8715
      6.885     3.3264
       6.91     2.1046
      6.935     1.8869
       6.96     2.2421
      6.985     2.6965
       7.01     2.1762
      7.035     1.6688
       7.06      1.582
      7.085      1.505
       7.11     1.5942
      7.135     1.7197
       7.16     2.5202
      7.185     3.9269
       7.21     4.7294
      7.235     4.1253
       7.26     3.0879
      7.285     2.2515
       7.31      1.528
      7.335     1.1102
       7.36     0.9848
      7.385     1.0006
       7.41     1.0854
      7.435     1.4716
       7.46     1.9826
      7.485     2.4102
       7.51     2.4618
      7.535     1.9545
       7.56     1.4841
      7.585     1.2234
       7.61     1.0793
      7.635     0.9948
       7.66     1.2007
      7.685      1.603
       7.71     1.8017
      7.735     1.6216
       7.76     1.2953
      7.785     1.2662
       7.81     1.3506
      7.835     1.3101
       7.86     1.2373
      7.885     1.2516
       7.91     1.2865
      7.935     1.2473
       7.96     1.0797
      7.985     0.9069
       8.01     0.8639
      8.035     0.8011
       8.06     0.9718
      8.085      1.187
       8.11     1.3612
      8.135     1.2433
       8.16     0.9842
      8.185     0.9142
       8.21     1.1032
      8.235     1.3604
       8.26     1.2842
      8.285     1.2062
       8.31     1.0462
      8.335     0.9846
       8.36     1.0582
      8.385     1.0714
       8.41     1.0296
      8.435     1.0599
       8.46     1.0969
      8.485      1.472
       8.51     1.7192
      8.535     1.7052
       8.56     1.4904
      8.585     1.2759
       8.61     1.1392
      8.635     0.9994
       8.66     1.0341
      8.685     1.0942
       8.71     0.9531
      8.735     0.8771
       8.76     0.9869
      8.785     1.0531
       8.81     1.2857
      8.835     1.4913
       8.86     1.6922
      8.885     1.5106
       8.91      1.306
      8.935     1.2733
       8.96     1.1686
      8.985     1.0525
       9.01      0.995
      9.035     1.0154
       9.06     1.0543
      9.085     0.9293
       9.11      0.829
      9.135     0.8765
       9.16     1.0715
      9.185     1.3002
       9.21      1.339
      9.235      1.138
       9.26     1.0642
      9.285     1.1379
       9.31      1.234
      9.335     1.5457
       9.36      1.704
      9.385     1.5815
       9.41     1.4893
      9.435     1.3923
       9.46     1.4786
      9.485     1.4516
       9.51     1.4343
      9.535     1.4027
       9.56     1.2761
      9.585     1.1382
       9.61      1.175
      9.635     1.3676
       9.66     1.6339
      9.685     1.6228
       9.71     1.4647
      9.735     1.4088
       9.76     1.3551
      9.785     1.2398
       9.81     1.3802
      9.835     1.6173
       9.86     1.8483
      9.885     1.7711
       9.91     1.6087
      9.935     1.4263
       9.96      1.388
      9.985     1.2591
      10.01      1.327
     10.035     1.5004
      10.06     1.5738
     10.085     1.4976
      10.11     1.3567
     10.135      1.283
      10.16     1.2482
     10.185     1.3074
      10.21     1.4451
     10.235     1.5389
      10.26     1.3908
     10.285     1.3137
      10.31     1.2244
     10.335     1.2466
      10.36     1.3195
     10.385     1.2643
      10.41     1.2609
     10.435     1.2461
      10.46     1.2614
     10.485     1.3675
      10.51     1.5748
     10.535     1.5676
      10.56     1.6771
     10.585     1.6311
      10.61      1.788
     10.635     2.1329
      10.66       2.48
     10.685     2.3743
      10.71     1.9987
     10.735      1.629
      10.76     1.4345
     10.785     1.2416
      10.81     1.2314
     10.835     1.1491
      10.86     1.2397
     10.885     1.3612
      10.91     1.4213
     10.935     1.4116
      10.96     1.4679
     10.985     1.4578
      11.01     1.5126
     11.035     1.4126
      11.06     1.4644
     11.085     1.4346
      11.11     1.4487
     11.135     1.6131
      11.16     1.6127
     11.185     1.5081
      11.21     1.3999
     11.235     1.2788
      11.26     1.3567
     11.285     1.4339
      11.31     1.5384
     11.335     1.4554
      11.36     1.3826
     11.385     1.4328
      11.41     1.4861
     11.435     1.5166
      11.46     1.4283
     11.485     1.3223
      11.51     1.3413
     11.535     1.4251
      11.56     1.3819
     11.585     1.5366
      11.61     1.5404
     11.635     1.7063
      11.66     1.5519
     11.685      1.455
      11.71     1.4889
     11.735     1.4087
      11.76      1.487
     11.785     1.5841
      11.81     1.6286
     11.835     1.6578
      11.86     1.6563
     11.885     1.5357
      11.91     1.6034
     11.935     1.5567
      11.96     1.5422
     11.985     1.4981
      12.01     1.5141
     12.035     1.4598
      12.06     1.4513
     12.085     1.4094
      12.11     1.3891
     12.135     1.3643
      12.16     1.3969
     12.185     1.4446
      12.21     1.5508
     12.235     1.5442
      12.26     1.5426
     12.285     1.4871
      12.31     1.4176
     12.335     1.4389
      12.36     1.4903
     12.385     1.5888
      12.41     1.6002
     12.435     1.4749
      12.46     1.4738
     12.485     1.4359
      12.51     1.3797
     12.535     1.4581
      12.56     1.5088
     12.585     1.6836
      12.61      1.765
     12.635     1.6505
      12.66     1.6399
     12.685     1.5822
      12.71     1.6904
     12.735      1.786
      12.76      1.722
     12.785     1.8102
      12.81     1.8501
     12.835     1.9067
      12.86     1.8947
     12.885     1.9024
      12.91     1.7524
     12.935     1.7397
      12.96      1.805
     12.985     1.9309
      13.01     1.9096
     13.035     1.8437
      13.06     1.7079
     13.085     1.7364
      13.11     1.7544
     13.135     1.8234
      13.16     2.0382
     13.185     2.0334
      13.21     1.9807
     13.235     1.9104
      13.26     1.9923
     13.285     1.9938
      13.31     2.0611
     13.335     2.0745
      13.36     2.1303
     13.385     2.0719
      13.41     1.9287
     13.435     1.7807
      13.46     1.7938
     13.485     1.8969
      13.51     1.8523
     13.535     1.8689
      13.56     1.8675
     13.585     1.8084
      13.61     1.8719
     13.635     2.0308
      13.66     2.2244
     13.685      2.131
      13.71     2.1207
     13.735     2.0211
      13.76     1.9131
     13.785     1.9069
      13.81     1.9207
     13.835     1.8749
      13.86     1.8611
     13.885     1.8455
      13.91     1.9041
     13.935     1.9378
      13.96      1.985
     13.985     2.0762
      14.01     1.9981
     14.035     2.0246
      14.06     2.1154
     14.085     2.1562
      14.11     2.1136
     14.135     1.9836
      14.16     2.0379
     14.185     2.0321
      14.21     2.1043
     14.235     2.1003
      14.26     2.1259
     14.285     2.1884
      14.31     2.1009
     14.335      1.958
      14.36      1.947
     14.385     1.9472
      14.41     1.9974
     14.435     2.0811
      14.46      2.175
     14.485     2.1457
      14.51     2.1301
     14.535     2.0875
      14.56     2.0618
     14.585     2.0043
      14.61     1.9878
     14.635     2.0498
      14.66      2.054
     14.685     2.0442
      14.71     2.1147
     14.735     2.2305
      14.76      2.143
     14.785      2.152
      14.81      1.975
     14.835     2.0324
      14.86     2.0143
     14.885      2.086
      14.91     2.0395
     14.935     1.9974
      14.96     1.9742
     14.985     1.8999
      15.01     1.9781
     15.035     1.9704
      15.06     2.0183
     15.085     2.0822
      15.11     2.0517
     15.135     1.9837
      15.16     2.0107
     15.185     2.1235
      15.21     2.0803
     15.235     2.1119
      15.26     2.1913
     15.285     2.1208
      15.31     2.2051
     15.335      2.256
      15.36     2.2643
     15.385     2.2809
      15.41     2.2318
     15.435     2.1569
      15.46     2.0976
     15.485     2.2276
      15.51     2.1491
     15.535     2.2426
      15.56     2.2928
     15.585     2.3999
      15.61     2.3606
     15.635     2.3398
      15.66     2.2216
     15.685      2.248
      15.71     2.1903
     15.735     2.2397
      15.76     2.2304
     15.785     2.3212
      15.81      2.251
     15.835     2.2732
      15.86     2.3539
     15.885     2.3312
      15.91     2.3131
     15.935     2.3733
      15.96     2.4478
     15.985      2.415
      16.01     2.4983
     16.035     2.4319
      16.06     2.4465
     16.085     2.4511
      16.11      2.377
     16.135     2.3519
      16.16     2.2767
     16.185     2.2753
      16.21     2.3089
     16.235      2.434
      16.26     2.4377
     16.285      2.497
      16.31     2.4277
     16.335     2.4675
      16.36      2.346
     16.385     2.4422
      16.41     2.4133
     16.435     2.3796
      16.46     2.3948
     16.485     2.3881
      16.51     2.2845
     16.535     2.3516
      16.56     2.3178
     16.585     2.5981
      16.61     2.3963
     16.635     2.5369
      16.66     2.4466
     16.685      2.382
      16.71      2.281
     16.735     2.3992
      16.76     2.4774
     16.785     2.3233
      16.81     2.4639
     16.835     2.5295
      16.86     2.4709
     16.885     2.4986
      16.91     2.4289
     16.935     2.4149
      16.96      2.248
     16.985     2.2896
      17.01     2.2509
     17.035     2.2667
      17.06     2.2947
     17.085     2.4669
      17.11     2.5084
     17.135      2.427
      17.16     2.5091
     17.185     2.5654
      17.21     2.4768
     17.235     2.5249
      17.26     2.4509
     17.285     2.4126
      17.31     2.3043
     17.335     2.3435
      17.36     2.3103
     17.385     2.4043
      17.41     2.2207
     17.435     2.2202
      17.46     2.3184
     17.485     2.4305
      17.51     2.3288
     17.535     2.3465
      17.56     2.3382
     17.585     2.2859
      17.61       2.31
     17.635     2.2254
      17.66     2.2763
     17.685     2.3064
      17.71     2.3303
     17.735      2.343
      17.76     2.2925
     17.785     2.3254
      17.81     2.3141
     17.835     2.3141
      17.86     2.4119
     17.885     2.3791
      17.91     2.3062
     17.935     2.3443
      17.96     2.3623
     17.985     2.2736
      18.01     2.2967
     18.035      2.206
      18.06     2.2014
     18.085     2.2817
      18.11     2.2132
     18.135     2.1444
      18.16     2.2591
     18.185     2.2329
      18.21      2.198
     18.235     2.1934
      18.26     2.2546
     18.285     2.1545
      18.31     2.2605
     18.335     2.3219
      18.36     2.2344
     18.385     2.2503
      18.41     2.2913
     18.435     2.2466
      18.46     2.1813
     18.485     2.1923
      18.51      2.121
     18.535     2.1253
      18.56     2.1023
     18.585     2.1988
      18.61     2.2346
     18.635     2.1837
      18.66     2.1389
     18.685      2.195
      18.71     2.1553
     18.735     2.2121
      18.76     2.2362
     18.785     2.2158
      18.81     2.1359
     18.835     2.1151
      18.86     2.1326
     18.885     2.1756
      18.91     2.1496
     18.935     2.1807
      18.96      2.103
     18.985     2.1557
      19.01     2.1275
     19.035     2.1337
      19.06     2.0309
     19.085     1.9458
      19.11     2.0941
     19.135      2.064
      19.16     2.1846
     19.185     2.1496
      19.21     2.1259
     19.235     2.2361
      19.26     2.1079
     19.285     2.1472
      19.31     2.0628
     19.335     2.0582
      19.36     2.1848
     19.385     2.1135
      19.41     2.1041
     19.435     2.0146
      19.46     2.0696
     19.485     2.0411
      19.51     2.0119
     19.535     2.0998
      19.56     2.0026
     19.585      1.951
      19.61     2.0249
     19.635     2.0664
      19.66     2.1019
     19.685     2.0951
      19.71      2.074
     19.735     2.0378
      19.76     2.1183
     19.785     2.0183
      19.81     2.0594
     19.835     2.0194
      19.86     2.0071
     19.885     2.1521
      19.91     2.1204
     19.935     2.1128
      19.96     2.0073
     19.985     2.1599
      20.01     2.0538
     20.035     2.0164
      20.06      2.106
     20.085      2.122
      20.11     1.9563
     20.135     2.0379
      20.16     1.9359
     20.185      2.031
      20.21     1.9304
     20.235      2.001
      20.26      1.987
     20.285     2.0504
      20.31     2.0168
     20.335     1.9538
      20.36     1.9555
     20.385     1.9663
      20.41     1.8785
     20.435     1.9252
      20.46     1.9681
     20.485     1.8821
      20.51     1.9714
     20.535     1.9418
      20.56     1.9924
     20.585     1.8699
      20.61     1.9136
     20.635     1.8615
      20.66     1.8302
     20.685     1.9114
      20.71     1.8996
     20.735     1.9519
      20.76     1.9039
     20.785     1.8839
      20.81     1.9504
     20.835     1.8512
      20.86      1.905
     20.885     1.9311
      20.91     1.9194
     20.935     1.8088
      20.96     1.9675
     20.985     2.0039
      21.01     2.0889
     21.035     2.1567
      21.06     1.9389
     21.085     1.8635
      21.11       1.92
     21.135     1.9123
      21.16     1.8574
     21.185     1.8922
      21.21     1.9523
     21.235     1.9078
      21.26     1.9016
     21.285     1.9171
      21.31      1.781
     21.335     1.8518
      21.36     1.8626
     21.385     1.8275
      21.41     1.9374
     21.435     1.8402
      21.46     1.7657
     21.485     1.8725
      21.51     1.8372
     21.535     1.8208
      21.56     1.8201
     21.585     1.7938
      21.61     1.8036
     21.635       1.83
      21.66     1.7992
     21.685     1.8699
      21.71     1.8049
     21.735     1.8324
      21.76     1.7963
     21.785     1.8111
      21.81     1.8069
     21.835     1.8494
      21.86     1.8595
     21.885     1.7748
      21.91     1.8293
     21.935     1.8381
      21.96     1.8274
     21.985     1.8281
      22.01     1.8506
     22.035     1.8198
      22.06     1.7622
     22.085     1.7763
      22.11     1.7746
     22.135     1.7194
      22.16      1.751
     22.185     1.7943
      22.21      1.737
     22.235     1.6905
      22.26     1.7169
     22.285     1.7759
      22.31     1.8621
     22.335     1.7989
      22.36     1.8145
     22.385     1.7689
      22.41     1.8234
     22.435     1.8253
      22.46     1.7524
     22.485     1.7182
      22.51     1.7897
     22.535     1.7383
      22.56     1.7931
     22.585      1.738
      22.61     1.7335
     22.635     1.8023
      22.66     1.7484
     22.685     1.7581
      22.71     1.7385
     22.735     1.7878
      22.76     1.7144
     22.785      1.816
      22.81     1.7592
     22.835     1.6928
      22.86     1.8392
     22.885     1.8321
      22.91     1.8025
     22.935     1.7672
      22.96     1.7884
     22.985     1.7734
      23.01      1.785
     23.035     1.7981
      23.06     1.7531
     23.085     1.7831
      23.11     1.7546
     23.135     1.7844
      23.16     1.7692
     23.185      1.838
      23.21      1.787
     23.235     1.8082
      23.26     1.7137
     23.285     1.8058
      23.31     1.7437
     23.335     1.8022
      23.36     1.7613
     23.385     1.7525
      23.41     1.7625
     23.435     1.7812
      23.46     1.7974
     23.485     1.7863
      23.51     1.7791
     23.535     1.7291
      23.56     1.6978
     23.585     1.7924
      23.61     1.8141
     23.635      1.795
      23.66     1.8899
     23.685     1.8093
      23.71     1.8863
     23.735     1.8157
      23.76     1.7726
     23.785      1.804
      23.81     1.8376
     23.835     1.8074
      23.86     1.7587
     23.885     1.8038
      23.91     1.8126
     23.935     1.8595
      23.96     1.8619
     23.985      1.744
      24.01     1.7986
     24.035     1.8029
      24.06     1.8026
     24.085     1.7547
      24.11     1.8122
     24.135     1.7949
      24.16     1.8288
     24.185     1.7276
      24.21     1.7792
     24.235     1.8525
      24.26     1.7684
     24.285     1.7374
      24.31      1.708
     24.335     1.8458
      24.36     1.6937
     24.385     1.8582
      24.41     1.7996
     24.435     1.7413
      24.46     1.6537
     24.485     1.7108
      24.51      1.766
     24.535     1.8386
      24.56     1.8162
     24.585     1.7976
      24.61     1.7087
     24.635     1.7579
      24.66     1.8889
     24.685     1.7653
      24.71     1.7662
     24.735     1.7322
      24.76      1.786
     24.785     1.7942
      24.81     1.7937
     24.835     1.7601
      24.86     1.7733
     24.885     1.7548
      24.91     1.7713
     24.935     1.7678
      24.96     1.7551
     24.985     1.7058
      25.01     1.7508
     25.035     1.7708
      25.06     1.7912
     25.085     1.7501
      25.11     1.7457
     25.135     1.7892
      25.16     1.7568
     25.185     1.7941
      25.21     1.7759
     25.235     1.7302
      25.26     1.7566
     25.285     1.7771
      25.31     1.7346
     25.335     1.7199
      25.36     1.7723
     25.385     1.7384
      25.41      1.856
     25.435      1.814
      25.46     1.7251
     25.485     1.8249
      25.51     1.7384
     25.535     1.8088
      25.56     1.7871
     25.585     1.6931
      25.61     1.7851
     25.635     1.7563
      25.66     1.8269
     25.685     1.7588
      25.71     1.8008
     25.735     1.7887
      25.76     1.7309
     25.785       1.67
      25.81     1.7345
     25.835     1.7804
      25.86     1.7119
     25.885      1.692
      25.91     1.7243
     25.935     1.7945
      25.96      1.722
     25.985     1.7095
      26.01     1.8269
     26.035     1.7775
      26.06     1.8024
     26.085     1.8343
      26.11     1.8324
     26.135     1.7693
      26.16     1.7864
     26.185     1.7277
      26.21     1.7367
     26.235     1.7823
      26.26     1.7615
     26.285     1.8557
      26.31     1.7772
     26.335      1.781
      26.36     1.8071
     26.385     1.8066
      26.41     1.7436
     26.435     1.8176
      26.46     1.8138
     26.485     1.8239
      26.51     1.7734
     26.535     1.7903
      26.56     1.7841
     26.585     1.7963
      26.61     1.8014
     26.635      1.803
      26.66      1.847
     26.685     1.8117
      26.71     1.7905
     26.735      1.768
      26.76     1.7833
     26.785     1.7855
      26.81     1.7283
     26.835     1.8523
      26.86     1.7706
     26.885     1.8169
      26.91     1.7063
     26.935      1.739
      26.96     1.7038
     26.985     1.7724
      27.01     1.7639
     27.035     1.8012
      27.06     1.7209
     27.085     1.7992
      27.11     1.7303
     27.135      1.787
      27.16     1.7535
     27.185     1.8025
      27.21     1.7904
     27.235     1.7345
      27.26     1.7995
     27.285      1.714
      27.31     1.7962
     27.335     1.9505
      27.36     1.7997
     27.385      1.781
      27.41     1.8393
     27.435     1.7681
      27.46     1.8003
     27.485     1.7043
      27.51     1.8041
     27.535     1.7817
      27.56     1.7793
     27.585     1.7747
      27.61     1.7515
     27.635     1.7451
      27.66     1.7684
     27.685     1.8189
      27.71     1.7809
     27.735     1.7943
      27.76      1.765
     27.785     1.7259
      27.81     1.7916
     27.835     1.8144
      27.86     1.8198
     27.885      1.737
      27.91     1.8072
     27.935     1.7094
      27.96      1.767
     27.985     1.8171
      28.01     1.8403
     28.035     1.7941
      28.06     1.8297
     28.085     1.7106
      28.11     1.7851
     28.135     1.7551
      28.16     1.7296
     28.185     1.7798
      28.21     1.7521
     28.235     1.7472
      28.26     1.7246
     28.285     1.8392
      28.31     1.7911
     28.335     1.7232
      28.36     1.8087
     28.385     1.7537
      28.41       1.71
     28.435     1.8047
      28.46     1.7786
     28.485     1.7842
      28.51     1.7695
     28.535     1.8117
      28.56     1.7882
     28.585     1.7931
      28.61     1.8485
     28.635     1.8312
      28.66     1.7499
     28.685      1.788
      28.71     1.8716
     28.735     1.8289
      28.76     1.7818
     28.785     1.8769
      28.81     1.8296
     28.835     1.7756
      28.86     1.7877
     28.885     1.7854
      28.91     1.8391
     28.935     1.7585
      28.96     1.7833
     28.985     1.8292
      29.01     1.8274
     29.035     1.8388
      29.06     1.7655
     29.085     1.7991
      29.11     1.8064
     29.135     1.7703
      29.16     1.7635
     29.185     1.8519
      29.21     1.7423
     29.235     1.7601
      29.26     1.7047
     29.285     1.8094
      29.31     1.7717
     29.335     1.8406
      29.36     1.7608
     29.385     1.7628
      29.41     1.8053
     29.435      1.753
      29.46     1.7298
     29.485     1.7724
      29.51     1.7342
     29.535     1.7927
      29.56     1.7687
     29.585     1.7729
      29.61     1.7422
     29.635     1.7068
      29.66     1.8024
     29.685     1.8126
      29.71     1.7619
     29.735     1.7542
      29.76     1.7338
     29.785     1.7246
      29.81     1.8199
     29.835     1.7995
      29.86     1.7815
     29.885     1.7779
      29.91     1.7881
     29.935     1.7604
      29.96     1.7592
     29.985     1.7597
      30.01     1.7912
     30.035     1.7122
      30.06     1.7505
     30.085     1.7391
      30.11     1.7519
     30.135     1.7567
      30.16     1.7743
     30.185     1.7454
      30.21     1.8074
     30.235     1.7342
      30.26      1.729
     30.285     1.7648
ENDDATA           1178
ENDSUBENT         1188
SUBENT        D0488005   20081021   20081219   20081218       D064
BIB                  1          1
REACTION   (28-NI-58(P,INL)28-NI-58,,DA/DE)
ENDBIB               1
COMMON               1          3
ANG
ADEG
  16.4
ENDCOMMON            3
DATA                 2       1004
E-EXC      DATA
MEV        MB/SR/MEV
      0.735     0.1741
       0.76     0.1672
      0.785     0.2152
       0.81     0.1808
      0.835     0.1594
       0.86       0.15
      0.885     0.2363
       0.91     0.1624
      0.935     0.2303
       0.96      0.321
      0.985     0.4701
       1.01     0.5078
      1.035     0.5603
       1.06     0.4936
      1.085     0.4721
       1.11     0.4487
      1.135     0.3925
       1.16      0.304
      1.185     0.2879
       1.21      0.197
      1.235     0.1464
       1.26     0.2912
      1.285      0.523
       1.31     1.2305
      1.335     2.7076
       1.36     5.0218
      1.385     8.6093
       1.41     15.658
      1.435     26.063
       1.46     33.878
      1.485     27.746
       1.51     13.617
      1.535     5.3102
       1.56     2.1543
      1.585     1.1987
       1.61     0.7227
      1.635     0.4661
       1.66     0.4005
      1.685     0.3343
       1.71     0.2702
      1.735     0.2357
       1.76     0.1294
      1.785     0.1108
       1.81 5.3120E-02
      1.835 2.4990E-02
       1.86 6.0020E-02
      1.885 2.5420E-02
       1.91 5.5400E-03
      1.935 7.9000E-03
       1.96         0.
      1.985         0.
       2.01 6.3700E-03
      2.035         0.
       2.06         0.
      2.085         0.
       2.11         0.
      2.135         0.
       2.16 8.3900E-03
      2.185         0.
       2.21 9.1856E-04
      2.235 5.6100E-03
       2.26 1.3080E-02
      2.285 5.2010E-02
       2.31     0.1313
      2.335      0.332
       2.36     0.4862
      2.385     1.0072
       2.41       1.82
      2.435     3.5174
       2.46     4.9083
      2.485     4.2728
       2.51     2.0803
      2.535     0.8505
       2.56     0.4122
      2.585     0.2276
       2.61     0.1349
      2.635 9.4640E-02
       2.66 1.9200E-02
      2.685 8.5920E-02
       2.71 6.0070E-02
      2.735     0.1337
       2.76     0.2022
      2.785     0.2174
       2.81     0.1315
      2.835 5.0430E-02
       2.86     0.1241
      2.885      0.156
       2.91     0.2374
      2.935     0.4256
       2.96      0.714
      2.985     1.2095
       3.01     2.2993
      3.035     3.2656
       3.06     3.1573
      3.085     1.6506
       3.11     0.7733
      3.135     0.6057
       3.16     0.7696
      3.185     1.1969
       3.21     2.3758
      3.235     4.4212
       3.26     6.3289
      3.285     5.8778
       3.31     3.1681
      3.335     1.2558
       3.36     0.4769
      3.385     0.3276
       3.41     0.2119
      3.435     0.1759
       3.46     0.2169
      3.485     0.2852
       3.51     0.3653
      3.535     0.4983
       3.56     0.7345
      3.585     1.3795
       3.61     2.1114
      3.635     2.2066
       3.66     1.2176
      3.685     0.5181
       3.71     0.2369
      3.735     0.1647
       3.76     0.2032
      3.785     0.2748
       3.81     0.2629
      3.835     0.2673
       3.86     0.3838
      3.885     0.6103
       3.91     0.6364
      3.935     0.4791
       3.96     0.2705
      3.985     0.1898
       4.01     0.1788
      4.035     0.1976
       4.06     0.1571
      4.085     0.2336
       4.11     0.1973
      4.135     0.1562
       4.16     0.1139
      4.185     0.1007
       4.21     0.1662
      4.235     0.3258
       4.26      0.581
      4.285     1.0735
       4.31     1.5538
      4.335     2.3012
       4.36     4.1761
      4.385     7.6994
       4.41     12.367
      4.435     19.848
       4.46     30.284
      4.485     31.996
       4.51     20.408
      4.535      8.706
       4.56       3.62
      4.585     1.7332
       4.61     1.1823
      4.635     0.9018
       4.66     1.1251
      4.685     1.5628
       4.71     2.6455
      4.735     4.7108
       4.76     5.9361
      4.785      4.223
       4.81      1.919
      4.835     0.7816
       4.86     0.4373
      4.885     0.3151
       4.91     0.2026
      4.935      0.218
       4.96     0.2146
      4.985     0.1462
       5.01     0.1054
      5.035 7.8660E-02
       5.06 8.9130E-02
      5.085     0.1996
       5.11     0.2781
      5.135     0.3385
       5.16     0.3353
      5.185     0.1582
       5.21 9.9930E-02
      5.235 1.8370E-02
       5.26 1.2210E-02
      5.285 6.4840E-02
       5.31 6.4600E-02
      5.335     0.1868
       5.36     0.3255
      5.385     0.4507
       5.41     0.7617
      5.435     0.9324
       5.46     1.0069
      5.485      0.787
       5.51     0.7083
      5.535     1.0732
       5.56     1.8422
      5.585     2.5843
       5.61     2.1318
      5.635     1.0594
       5.66     0.5027
      5.685     0.3414
       5.71     0.3116
      5.735     0.3477
       5.76     0.3787
      5.785     0.3661
       5.81      0.275
      5.835      0.287
       5.86     0.4027
      5.885     0.4916
       5.91      0.646
      5.935      0.606
       5.96      0.655
      5.985      0.922
       6.01      1.195
      6.035     1.2978
       6.06     0.8488
      6.085     0.4745
       6.11     0.3304
      6.135     0.3491
       6.16     0.4344
      6.185      0.548
       6.21     0.6539
      6.235      0.815
       6.26     1.1154
      6.285     1.3006
       6.31     1.4025
      6.335     1.0316
       6.36      0.758
      6.385     0.6742
       6.41     0.9246
      6.435     1.0413
       6.46     0.9169
      6.485     0.7537
       6.51     0.4762
      6.535     0.4214
       6.56     0.3676
      6.585     0.4216
       6.61     0.3636
      6.635     0.4534
       6.66     0.6106
      6.685     0.9852
       6.71     1.7449
      6.735     2.5001
       6.76     3.0516
      6.785     3.3037
       6.81     4.7924
      6.835     7.1675
       6.86     7.5129
      6.885     4.7691
       6.91      2.461
      6.935     1.4654
       6.96     1.3785
      6.985     1.4044
       7.01     1.2462
      7.035     1.0855
       7.06     1.1453
      7.085     1.5452
       7.11     2.0936
      7.135     2.9855
       7.16     4.4292
      7.185     6.9593
       7.21     8.6586
      7.235     6.8734
       7.26      3.527
      7.285     1.7467
       7.31     0.9904
      7.335     0.7062
       7.36     0.5521
      7.385     0.6175
       7.41      0.831
      7.435     1.2464
       7.46     1.9425
      7.485      2.554
       7.51     2.7407
      7.535     1.9343
       7.56     1.1393
      7.585     0.8265
       7.61     0.6692
      7.635     0.4784
       7.66     0.4935
      7.685     0.7545
       7.71     0.9675
      7.735     1.1509
       7.76     1.0248
      7.785     0.9089
       7.81     0.9941
      7.835     1.0027
       7.86     1.0323
      7.885     0.8392
       7.91     0.7904
      7.935     0.8113
       7.96     0.6621
      7.985     0.5384
       8.01     0.4859
      8.035     0.5436
       8.06     0.7747
      8.085     1.1427
       8.11     1.4711
      8.135     1.5156
       8.16     1.0066
      8.185     0.9216
       8.21     0.9661
      8.235      1.168
       8.26     1.0495
      8.285     0.8809
       8.31     0.8728
      8.335     0.7708
       8.36     0.8087
      8.385     0.9246
       8.41     0.8158
      8.435     0.7026
       8.46     0.9032
      8.485     0.9961
       8.51     1.2904
      8.535     1.2754
       8.56     1.0236
      8.585     0.8802
       8.61     0.7494
      8.635     0.6478
       8.66     0.6909
      8.685      0.735
       8.71      0.652
      8.735     0.6113
       8.76     0.6924
      8.785       0.93
       8.81     1.2816
      8.835     1.4227
       8.86     1.4386
      8.885      1.233
       8.91     0.9691
      8.935     0.8679
       8.96     0.8871
      8.985     0.7917
       9.01     0.6443
      9.035     0.5737
       9.06     0.5574
      9.085     0.5733
       9.11      0.524
      9.135      0.557
       9.16     0.7174
      9.185     0.7099
       9.21     0.7601
      9.235     0.7906
       9.26     0.8587
      9.285     0.8483
       9.31     1.1309
      9.335     1.3325
       9.36      1.478
      9.385     1.4237
       9.41     1.0834
      9.435     1.0643
       9.46     1.0818
      9.485     1.1645
       9.51     1.1241
      9.535       1.16
       9.56     1.0091
      9.585     0.9413
       9.61     0.8869
      9.635     1.0858
       9.66     1.4958
      9.685     1.7012
       9.71     1.6564
      9.735     1.3906
       9.76     1.0993
      9.785     0.9587
       9.81     0.8763
      9.835      0.998
       9.86     1.1413
      9.885      1.166
       9.91     1.1217
      9.935     1.0618
       9.96     1.0126
      9.985     0.9434
      10.01      1.104
     10.035     1.3699
      10.06      1.309
     10.085     1.1721
      10.11     1.1415
     10.135     1.0618
      10.16     1.0695
     10.185     1.2665
      10.21     1.4279
     10.235     1.4404
      10.26     1.3488
     10.285     1.0969
      10.31     1.0216
     10.335     0.8699
      10.36     0.9521
     10.385     0.8905
      10.41      0.807
     10.435     0.7996
      10.46     0.8308
     10.485     0.9863
      10.51     1.1506
     10.535     1.3555
      10.56     1.3021
     10.585     1.2868
      10.61     1.4637
     10.635     1.6342
      10.66     1.6297
     10.685     1.6164
      10.71     1.4237
     10.735     1.1669
      10.76     1.0334
     10.785     1.0204
      10.81     0.9821
     10.835     0.9513
      10.86     0.9442
     10.885     1.1574
      10.91     1.2026
     10.935     1.0985
      10.96     1.0295
     10.985     0.9787
      11.01     0.8914
     11.035     0.9633
      11.06     1.0574
     11.085     1.1382
      11.11     1.1968
     11.135     1.3179
      11.16     1.2568
     11.185     1.0038
      11.21     0.9367
     11.235     0.9411
      11.26     1.0621
     11.285     1.1542
      11.31     1.1624
     11.335     1.0871
      11.36      0.969
     11.385     1.0024
      11.41     1.0848
     11.435     1.2558
      11.46     1.2189
     11.485     1.0205
      11.51     1.1235
     11.535     1.0323
      11.56     1.0647
     11.585     1.1736
      11.61     1.3197
     11.635     1.2835
      11.66     1.1391
     11.685      1.076
      11.71     1.0814
     11.735     1.0526
      11.76     0.9722
     11.785      1.007
      11.81     0.9308
     11.835     1.0365
      11.86     0.9527
     11.885     1.0518
      11.91     0.9526
     11.935     0.9576
      11.96     0.9023
     11.985     0.9132
      12.01     1.0162
     12.035     0.9358
      12.06     1.0371
     12.085     0.9949
      12.11     1.0192
     12.135     1.0045
      12.16     1.0863
     12.185     1.1539
      12.21     1.1482
     12.235     1.0905
      12.26     1.0356
     12.285     0.9912
      12.31     1.0051
     12.335     0.9116
      12.36     0.9138
     12.385     0.8782
      12.41     0.8847
     12.435      0.914
      12.46     1.0126
     12.485       0.99
      12.51     0.9546
     12.535     1.0016
      12.56     1.0478
     12.585      1.155
      12.61     1.1898
     12.635     1.1065
      12.66     1.0689
     12.685     1.0284
      12.71     1.0078
     12.735     1.0213
      12.76     1.0564
     12.785     1.0993
      12.81      1.177
     12.835     1.2743
      12.86     1.1834
     12.885     1.1615
      12.91     1.0735
     12.935     1.0907
      12.96     1.1141
     12.985     1.0068
      13.01     1.0225
     13.035     1.0273
      13.06      0.993
     13.085     1.1604
      13.11     1.2121
     13.135      1.224
      13.16     1.2473
     13.185      1.275
      13.21     1.2356
     13.235     1.2371
      13.26     1.2822
     13.285     1.2522
      13.31     1.3673
     13.335     1.2771
      13.36     1.2717
     13.385      1.301
      13.41     1.1734
     13.435       1.17
      13.46     1.1227
     13.485     1.1921
      13.51     1.1069
     13.535     1.1445
      13.56     1.1472
     13.585     1.3432
      13.61     1.2303
     13.635     1.3269
      13.66     1.3026
     13.685      1.379
      13.71     1.1853
     13.735      1.128
      13.76     1.2631
     13.785     1.1652
      13.81      1.209
     13.835     1.1796
      13.86     1.2348
     13.885     1.2343
      13.91     1.3395
     13.935     1.3189
      13.96     1.2369
     13.985     1.3444
      14.01     1.2985
     14.035     1.2823
      14.06      1.303
     14.085     1.2414
      14.11     1.0734
     14.135     1.1549
      14.16     1.2065
     14.185     1.1824
      14.21     1.3088
     14.235     1.2373
      14.26      1.256
     14.285     1.3166
      14.31     1.2049
     14.335     1.2182
      14.36     1.2075
     14.385     1.1633
      14.41      1.184
     14.435     1.2855
      14.46      1.272
     14.485     1.2234
      14.51     1.2844
     14.535     1.1632
      14.56     1.0822
     14.585     1.0789
      14.61     1.1958
     14.635     1.1449
      14.66     1.2218
     14.685      1.152
      14.71     1.2632
     14.735     1.2232
      14.76     1.1864
     14.785     1.2431
      14.81     1.0781
     14.835     1.1473
      14.86     1.0757
     14.885     1.1713
      14.91     1.1239
     14.935     1.2315
      14.96     1.2446
     14.985        1.2
      15.01     1.1518
     15.035     1.2957
      15.06     1.2189
     15.085     1.1815
      15.11     1.2768
     15.135      1.281
      15.16     1.2043
     15.185     1.1286
      15.21     1.2315
     15.235      1.297
      15.26     1.2621
     15.285     1.2821
      15.31       1.28
     15.335     1.2192
      15.36     1.2203
     15.385      1.274
      15.41     1.1677
     15.435     1.2558
      15.46     1.1975
     15.485     1.2352
      15.51      1.186
     15.535     1.2787
      15.56     1.2965
     15.585     1.2395
      15.61      1.295
     15.635     1.1972
      15.66     1.1772
     15.685     1.1281
      15.71     1.3023
     15.735     1.2774
      15.76     1.2006
     15.785      1.194
      15.81     1.2066
     15.835     1.2313
      15.86     1.3252
     15.885     1.3508
      15.91     1.3155
     15.935     1.2853
      15.96     1.3491
     15.985      1.404
      16.01     1.2951
     16.035     1.3654
      16.06     1.3416
     16.085     1.3589
      16.11      1.346
     16.135     1.1738
      16.16     1.2972
     16.185     1.3579
      16.21     1.3182
     16.235      1.362
      16.26     1.3678
     16.285      1.256
      16.31     1.3066
     16.335     1.2379
      16.36     1.4131
     16.385     1.3198
      16.41     1.2764
     16.435     1.2854
      16.46     1.2914
     16.485      1.421
      16.51     1.3182
     16.535      1.328
      16.56     1.3356
     16.585     1.2098
      16.61     1.2971
     16.635     1.3305
      16.66     1.3607
     16.685     1.3236
      16.71      1.361
     16.735     1.2994
      16.76     1.3014
     16.785     1.3279
      16.81     1.3311
     16.835     1.3548
      16.86     1.3197
     16.885     1.2653
      16.91     1.3007
     16.935     1.2355
      16.96     1.2809
     16.985     1.2766
      17.01     1.2558
     17.035     1.2136
      17.06     1.2999
     17.085     1.2026
      17.11     1.2858
     17.135     1.3783
      17.16     1.4299
     17.185     1.3631
      17.21     1.3394
     17.235     1.3426
      17.26     1.2596
     17.285     1.3189
      17.31     1.2697
     17.335     1.3016
      17.36     1.2962
     17.385     1.3037
      17.41     1.2804
     17.435     1.2553
      17.46     1.2551
     17.485     1.3081
      17.51     1.4074
     17.535     1.2323
      17.56     1.2406
     17.585     1.2238
      17.61     1.2344
     17.635     1.3141
      17.66      1.354
     17.685      1.273
      17.71     1.2088
     17.735      1.293
      17.76     1.2568
     17.785     1.2774
      17.81     1.2782
     17.835     1.2184
      17.86     1.2196
     17.885     1.2098
      17.91     1.2327
     17.935     1.1045
      17.96     1.2001
     17.985     1.2776
      18.01     1.2443
     18.035     1.2478
      18.06     1.1517
     18.085     1.2705
      18.11     1.2999
     18.135     1.2592
      18.16      1.212
     18.185     1.1385
      18.21     1.2081
     18.235     1.1093
      18.26     1.2276
     18.285     1.2222
      18.31     1.2096
     18.335     1.2335
      18.36     1.2085
     18.385     1.2331
      18.41     1.1669
     18.435     1.2597
      18.46     1.1643
     18.485     1.2012
      18.51     1.1426
     18.535     1.1305
      18.56     1.1744
     18.585     1.1418
      18.61     1.1799
     18.635      1.208
      18.66     1.1335
     18.685     1.1371
      18.71      1.166
     18.735     1.1972
      18.76     1.1861
     18.785     1.2289
      18.81     1.0981
     18.835     1.2163
      18.86     1.1233
     18.885     1.1829
      18.91     1.2094
     18.935     1.2095
      18.96      1.217
     18.985      1.122
      19.01     1.2152
     19.035     1.1291
      19.06     1.2341
     19.085      1.176
      19.11     1.1663
     19.135     1.2316
      19.16     1.1293
     19.185     1.2598
      19.21     1.2253
     19.235     1.1649
      19.26       1.27
     19.285     1.1741
      19.31     1.1399
     19.335      1.163
      19.36     1.2698
     19.385       1.21
      19.41     1.2086
     19.435      1.204
      19.46     1.1818
     19.485     1.1881
      19.51     1.1492
     19.535     1.1494
      19.56     1.2031
     19.585     1.1876
      19.61     1.1839
     19.635     1.1561
      19.66     1.1215
     19.685     1.1911
      19.71     1.2179
     19.735     1.2016
      19.76     1.2325
     19.785     1.2653
      19.81     1.2142
     19.835     1.2169
      19.86     1.2491
     19.885     1.1798
      19.91     1.1957
     19.935     1.2126
      19.96     1.2165
     19.985     1.1278
      20.01      1.215
     20.035     1.1702
      20.06     1.1872
     20.085     1.1921
      20.11     1.2336
     20.135     1.1913
      20.16     1.1807
     20.185     1.1958
      20.21     1.1547
     20.235     1.1831
      20.26     1.1011
     20.285      1.225
      20.31     1.1879
     20.335     1.0863
      20.36     1.1777
     20.385      1.255
      20.41     1.1168
     20.435     1.1164
      20.46     1.1042
     20.485     1.1324
      20.51     1.1476
     20.535     1.0738
      20.56     1.1675
     20.585     1.1788
      20.61     1.1964
     20.635     1.1552
      20.66     1.1926
     20.685     1.0405
      20.71     1.1664
     20.735     1.2379
      20.76     1.1517
     20.785     1.1897
      20.81     1.1347
     20.835     1.2432
      20.86     1.2236
     20.885     1.1846
      20.91      1.154
     20.935     1.2177
      20.96     1.2953
     20.985     1.2716
      21.01     1.2299
     21.035     1.2241
      21.06     1.2324
     21.085     1.2177
      21.11     1.2583
     21.135     1.2569
      21.16      1.189
     21.185     1.2034
      21.21      1.164
     21.235     1.2371
      21.26     1.2027
     21.285     1.2547
      21.31     1.2224
     21.335     1.2223
      21.36     1.1544
     21.385     1.1436
      21.41     1.2295
     21.435     1.2364
      21.46     1.1134
     21.485     1.1616
      21.51     1.2323
     21.535     1.1723
      21.56     1.1064
     21.585     1.2468
      21.61     1.2765
     21.635      1.215
      21.66     1.1864
     21.685     1.1363
      21.71     1.1965
     21.735     1.2412
      21.76     1.2726
     21.785     1.1847
      21.81     1.1747
     21.835     1.2494
      21.86     1.2736
     21.885     1.2381
      21.91     1.2954
     21.935     1.1828
      21.96     1.1946
     21.985     1.2212
      22.01      1.221
     22.035     1.1753
      22.06     1.1844
     22.085     1.1281
      22.11     1.2207
     22.135     1.1938
      22.16     1.2217
     22.185     1.1352
      22.21     1.1991
     22.235     1.2241
      22.26     1.1304
     22.285      1.204
      22.31     1.0644
     22.335     1.1452
      22.36     1.1674
     22.385     1.1382
      22.41     1.2019
     22.435     1.2155
      22.46     1.1757
     22.485     1.3343
      22.51     1.1672
     22.535     1.1281
      22.56     1.2788
     22.585     1.2853
      22.61     1.2928
     22.635     1.1934
      22.66     1.1953
     22.685     1.1928
      22.71     1.1701
     22.735     1.2368
      22.76     1.2381
     22.785     1.2629
      22.81     1.2595
     22.835     1.2237
      22.86     1.2623
     22.885     1.2522
      22.91     1.2563
     22.935      1.329
      22.96     1.3895
     22.985     1.2781
      23.01     1.3605
     23.035     1.3554
      23.06      1.289
     23.085     1.2654
      23.11      1.236
     23.135     1.2455
      23.16     1.2512
     23.185     1.3407
      23.21     1.2881
     23.235     1.1829
      23.26     1.2698
     23.285     1.3099
      23.31     1.3318
     23.335     1.3485
      23.36     1.3294
     23.385      1.306
      23.41     1.2649
     23.435     1.2359
      23.46     1.1826
     23.485     1.2859
      23.51     1.2961
     23.535     1.2956
      23.56     1.2387
     23.585     1.2563
      23.61      1.289
     23.635       1.38
      23.66     1.3229
     23.685     1.2672
      23.71     1.3826
     23.735     1.3088
      23.76     1.2578
     23.785     1.3896
      23.81     1.2994
     23.835     1.3856
      23.86     1.3205
     23.885     1.3312
      23.91     1.2715
     23.935     1.2983
      23.96     1.2797
     23.985     1.3542
      24.01     1.4303
     24.035     1.5341
      24.06     1.2989
     24.085     1.3483
      24.11     1.3831
     24.135     1.3086
      24.16     1.3263
     24.185     1.3199
      24.21     1.2882
     24.235     1.3094
      24.26     1.3809
     24.285     1.3345
      24.31     1.3791
     24.335     1.4079
      24.36     1.3884
     24.385     1.3994
      24.41     1.3509
     24.435     1.4131
      24.46     1.4579
     24.485     1.3209
      24.51     1.3522
     24.535     1.3303
      24.56     1.3096
     24.585     1.4178
      24.61     1.3215
     24.635     1.4035
      24.66     1.3417
     24.685     1.3322
      24.71     1.3236
     24.735     1.3546
      24.76      1.421
     24.785     1.3687
      24.81     1.4278
     24.835      1.377
      24.86     1.4156
     24.885     1.4647
      24.91     1.4139
     24.935     1.3499
      24.96     1.3912
     24.985     1.4097
      25.01     1.4284
     25.035     1.4123
      25.06      1.415
     25.085     1.4141
      25.11       1.44
     25.135      1.349
      25.16      1.291
     25.185       1.31
      25.21     1.4023
     25.235     1.3675
      25.26     1.4089
     25.285     1.3491
      25.31     1.3773
     25.335     1.4392
      25.36     1.4545
     25.385     1.4701
      25.41     1.4143
     25.435     1.4005
      25.46     1.4883
     25.485     1.3754
      25.51     1.4466
     25.535     1.3672
      25.56     1.4082
     25.585     1.3913
      25.61      1.375
     25.635     1.4107
      25.66     1.4387
     25.685     1.4583
      25.71     1.2825
     25.735     1.3648
      25.76     1.3988
     25.785     1.4003
      25.81     1.4022
ENDDATA           1006
ENDSUBENT         1016
SUBENT        D0488006   20081021   20081219   20081218       D064
BIB                  1          1
REACTION   (28-NI-58(P,INL)28-NI-58,,DA/DE)
ENDBIB               1
COMMON               1          3
ANG
ADEG
  19.4
ENDCOMMON            3
DATA                 2       1016
E-EXC      DATA
MEV        MB/SR/MEV
       0.51 7.8700E-02
      0.535 7.6000E-02
       0.56 7.1560E-02
      0.585 7.9360E-02
       0.61 7.6830E-02
      0.635 8.2590E-02
       0.66 7.2470E-02
      0.685 7.3920E-02
       0.71 9.4440E-02
      0.735 8.8770E-02
       0.76     0.1093
      0.785     0.1039
       0.81     0.1034
      0.835     0.1078
       0.86     0.1304
      0.885     0.1453
       0.91     0.1287
      0.935     0.1464
       0.96     0.1513
      0.985     0.1777
       1.01     0.1627
      1.035     0.1689
       1.06     0.1687
      1.085     0.1756
       1.11     0.1794
      1.135     0.1904
       1.16     0.2072
      1.185     0.2225
       1.21     0.2375
      1.235     0.3022
       1.26     0.3463
      1.285      0.414
       1.31     0.6171
      1.335     1.1617
       1.36     2.0693
      1.385      3.702
       1.41     6.5788
      1.435     10.461
       1.46     10.973
      1.485     6.8214
       1.51     3.1335
      1.535     1.3629
       1.56       0.69
      1.585     0.4575
       1.61       0.33
      1.635     0.2729
       1.66     0.2447
      1.685     0.2024
       1.71     0.1975
      1.735     0.1865
       1.76     0.1888
      1.785      0.172
       1.81     0.1757
      1.835     0.1671
       1.86     0.1376
      1.885      0.164
       1.91     0.1436
      1.935     0.1044
       1.96      0.107
      1.985 9.3640E-02
       2.01 9.2450E-02
      2.035     0.1171
       2.06 7.9830E-02
      2.085 9.9070E-02
       2.11     0.1186
      2.135     0.1351
       2.16     0.1191
      2.185     0.1148
       2.21     0.1345
      2.235      0.135
       2.26     0.1622
      2.285     0.1855
       2.31     0.2483
      2.335     0.4157
       2.36     0.6784
      2.385     1.4088
       2.41     2.8495
      2.435     5.2049
       2.46     6.7834
      2.485     5.0632
       2.51     2.3574
      2.535     0.8927
       2.56     0.3915
      2.585     0.2719
       2.61     0.2243
      2.635     0.2088
       2.66     0.1975
      2.685     0.1869
       2.71     0.1966
      2.735     0.2249
       2.76     0.2399
      2.785     0.2508
       2.81     0.2299
      2.835     0.1948
       2.86     0.1907
      2.885     0.2129
       2.91      0.224
      2.935     0.2799
       2.96     0.3374
      2.985     0.5253
       3.01     0.9481
      3.035     1.2745
       3.06     0.8838
      3.085     0.4301
       3.11     0.2595
      3.135     0.2561
       3.16     0.3354
      3.185     0.5574
       3.21     1.1009
      3.235     2.0318
       3.26     2.8701
      3.285     2.3234
       3.31     0.9787
      3.335     0.3943
       3.36     0.2323
      3.385     0.1995
       3.41     0.1959
      3.435     0.1941
       3.46     0.2046
      3.485     0.2486
       3.51     0.3681
      3.535     0.6006
       3.56     1.1232
      3.585     2.2123
       3.61     3.6077
      3.635     3.3873
       3.66     1.8217
      3.685     0.6817
       3.71     0.3269
      3.735     0.2616
       3.76     0.2365
      3.785     0.2479
       3.81     0.2142
      3.835     0.2124
       3.86     0.2388
      3.885     0.3084
       3.91     0.3059
      3.935     0.2204
       3.96     0.1894
      3.985     0.1929
       4.01      0.184
      4.035     0.1973
       4.06     0.1905
      4.085     0.2019
       4.11      0.206
      4.135     0.2031
       4.16     0.1962
      4.185     0.2108
       4.21     0.2813
      4.235     0.4261
       4.26     0.8621
      4.285     1.5181
       4.31      1.866
      4.335     2.4583
       4.36     4.3401
      4.385     7.9095
       4.41     11.976
      4.435     16.854
       4.46     23.679
      4.485     23.229
       4.51     13.241
      4.535     5.5149
       4.56     2.3161
      4.585     1.2587
       4.61     0.8892
      4.635     0.8815
       4.66     1.2845
      4.685     2.2724
       4.71     4.2378
      4.735     7.3016
       4.76     8.7305
      4.785     5.7091
       4.81     2.4646
      4.835     0.9834
       4.86     0.4903
      4.885     0.3665
       4.91     0.3196
      4.935     0.2991
       4.96     0.2909
      4.985     0.2601
       5.01     0.2249
      5.035     0.2173
       5.06     0.2669
      5.085     0.3683
       5.11     0.5346
      5.135     0.5939
       5.16     0.4404
      5.185     0.2627
       5.21     0.2041
      5.235     0.1797
       5.26     0.1864
      5.285     0.1881
       5.31     0.2109
      5.335     0.2608
       5.36     0.4095
      5.385     0.7124
       5.41     1.1647
      5.435     1.5577
       5.46     1.4661
      5.485      1.103
       5.51     0.9695
      5.535     1.4346
       5.56     2.4985
      5.585     3.4653
       5.61     2.8398
      5.635     1.3907
       5.66     0.5883
      5.685     0.3949
       5.71     0.3688
      5.735      0.416
       5.76     0.4681
      5.785     0.4418
       5.81     0.3017
      5.835     0.2642
       5.86     0.2585
      5.885     0.3179
       5.91     0.3457
      5.935     0.3769
       5.96     0.4115
      5.985     0.5347
       6.01     0.7417
      6.035     0.7348
       6.06     0.4896
      6.085     0.3046
       6.11     0.2819
      6.135     0.2969
       6.16     0.3389
      6.185     0.4094
       6.21     0.4964
      6.235     0.7133
       6.26     1.0924
      6.285     1.4981
       6.31     1.5184
      6.335       0.98
       6.36     0.6004
      6.385     0.5339
       6.41     0.7114
      6.435     0.8662
       6.46     0.8464
      6.485     0.6012
       6.51      0.388
      6.535      0.325
       6.56     0.3145
      6.585     0.3123
       6.61     0.3357
      6.635     0.4045
       6.66     0.4958
      6.685     0.7672
       6.71     1.3199
      6.735     1.8887
       6.76     2.2501
      6.785     2.5522
       6.81     3.7912
      6.835     5.7107
       6.86     6.4675
      6.885     4.3002
       6.91     2.0956
      6.935     1.3051
       6.96     1.0639
      6.985     1.0424
       7.01     0.9785
      7.035     1.0227
       7.06     1.2151
      7.085     1.5633
       7.11     2.0906
      7.135     2.8077
       7.16     4.2958
      7.185     6.7611
       7.21     8.4587
      7.235     6.3261
       7.26     3.1728
      7.285     1.4029
       7.31     0.8125
      7.335     0.5727
       7.36     0.4299
      7.385     0.5175
       7.41     0.7572
      7.435     1.0934
       7.46     1.6713
      7.485     2.1978
       7.51     2.3539
      7.535     1.7648
       7.56     1.0274
      7.585     0.6685
       7.61     0.6049
      7.635      0.532
       7.66       0.56
      7.685     0.7793
       7.71      1.131
      7.735     1.4668
       7.76     1.4616
      7.785     1.2515
       7.81     1.2131
      7.835     1.3198
       7.86     1.1903
      7.885      0.979
       7.91     0.8235
      7.935     0.7505
       7.96     0.7079
      7.985     0.5338
       8.01     0.4739
      8.035     0.5024
       8.06      0.761
      8.085     1.2574
       8.11     1.7833
      8.135     1.7359
       8.16     1.2517
      8.185     1.0535
       8.21      1.216
      8.235     1.3344
       8.26     1.2058
      8.285     1.0631
       8.31     0.8223
      8.335     0.8365
       8.36     0.9463
      8.385     1.0446
       8.41     1.0358
      8.435     0.8421
       8.46     0.8381
      8.485     0.9283
       8.51     1.0607
      8.535      1.151
       8.56     0.9866
      8.585     0.9122
       8.61     0.8416
      8.635     0.8063
       8.66     0.8696
      8.685     0.8202
       8.71     0.7346
      8.735     0.6063
       8.76     0.6879
      8.785        0.9
       8.81     1.1157
      8.835     1.3032
       8.86     1.3712
      8.885     1.1556
       8.91     0.9821
      8.935     0.8547
       8.96      0.746
      8.985     0.7854
       9.01     0.7116
      9.035     0.6653
       9.06     0.6087
      9.085     0.5445
       9.11     0.4863
      9.135     0.5388
       9.16     0.6719
      9.185     0.8295
       9.21     0.8975
      9.235     0.9397
       9.26     0.9147
      9.285     0.9199
       9.31     1.0138
      9.335     1.1777
       9.36     1.3804
      9.385     1.2978
       9.41     1.0731
      9.435     0.9978
       9.46     1.0894
      9.485     1.2214
       9.51     1.2257
      9.535     1.1874
       9.56     1.0807
      9.585     0.9423
       9.61     0.9516
      9.635      1.214
       9.66     1.5141
      9.685     1.7087
       9.71     1.5882
      9.735     1.3259
       9.76     1.0627
      9.785     0.8613
       9.81     0.8658
      9.835     0.8615
       9.86     0.9572
      9.885     1.0043
       9.91     0.9989
      9.935     0.9815
       9.96     0.9692
      9.985     0.9564
      10.01       1.04
     10.035     1.2158
      10.06     1.2395
     10.085     1.1672
      10.11     1.0825
     10.135      1.114
      10.16     1.1983
     10.185      1.311
      10.21     1.4165
     10.235     1.4597
      10.26     1.3307
     10.285     1.1206
      10.31     0.9256
     10.335     0.8415
      10.36     0.8587
     10.385     0.9211
      10.41     0.8742
     10.435     0.8389
      10.46      0.842
     10.485     0.9631
      10.51     1.1243
     10.535     1.2244
      10.56     1.2428
     10.585     1.2905
      10.61     1.3599
     10.635     1.3999
      10.66     1.4698
     10.685     1.4035
      10.71      1.343
     10.735     1.2346
      10.76     1.0858
     10.785     1.0125
      10.81     0.9948
     10.835     0.9542
      10.86     1.0399
     10.885      1.123
      10.91      1.177
     10.935     1.1117
      10.96     1.0011
     10.985     0.9111
      11.01      0.924
     11.035     1.0374
      11.06     1.0209
     11.085     1.0764
      11.11      1.154
     11.135     1.1693
      11.16     1.1657
     11.185     1.0731
      11.21       0.99
     11.235     0.9391
      11.26     0.9911
     11.285     1.0427
      11.31     1.0154
     11.335     1.0494
      11.36     1.0328
     11.385     1.1136
      11.41     1.2253
     11.435     1.2858
      11.46     1.1992
     11.485     1.1676
      11.51     1.1298
     11.535     1.1163
      11.56     1.0833
     11.585      1.137
      11.61     1.2612
     11.635     1.2746
      11.66      1.219
     11.685     1.0667
      11.71     0.9797
     11.735      0.964
      11.76      0.931
     11.785     0.9321
      11.81     0.9601
     11.835     0.9434
      11.86     0.9441
     11.885      0.945
      11.91     0.9164
     11.935     0.9292
      11.96     0.9873
     11.985      0.954
      12.01     0.9212
     12.035     0.9375
      12.06     0.8936
     12.085     1.0224
      12.11     1.0766
     12.135     1.0557
      12.16     1.1023
     12.185     1.0068
      12.21     1.0991
     12.235     1.1156
      12.26      1.053
     12.285     0.9695
      12.31     0.8987
     12.335     0.8566
      12.36     0.8307
     12.385     0.8716
      12.41     0.8906
     12.435     0.9057
      12.46     0.9117
     12.485     0.9178
      12.51     1.0067
     12.535     1.0089
      12.56     1.0479
     12.585     1.1228
      12.61     1.1239
     12.635     1.0453
      12.66     0.9655
     12.685     0.9625
      12.71     0.9729
     12.735     1.0168
      12.76     1.0034
     12.785     0.9842
      12.81     0.9549
     12.835     1.0528
      12.86     1.1001
     12.885      1.138
      12.91     1.0483
     12.935     0.9131
      12.96     0.8358
     12.985      0.891
      13.01     1.0243
     13.035     1.0549
      13.06     1.0958
     13.085     1.0779
      13.11     1.0874
     13.135     1.1114
      13.16     1.1852
     13.185     1.2475
      13.21      1.162
     13.235     1.1285
      13.26     1.0129
     13.285     1.1008
      13.31     1.2516
     13.335      1.257
      13.36     1.1996
     13.385     1.1921
      13.41     1.1003
     13.435     1.0545
      13.46     1.1306
     13.485     1.1099
      13.51     1.1133
     13.535     1.0688
      13.56     1.1048
     13.585     1.0814
      13.61     1.2108
     13.635      1.224
      13.66     1.2446
     13.685     1.1909
      13.71     1.1665
     13.735     1.1526
      13.76     1.1065
     13.785     1.1886
      13.81     1.2049
     13.835     1.1612
      13.86     1.1324
     13.885     1.2604
      13.91     1.2391
     13.935     1.2841
      13.96     1.2735
     13.985     1.2753
      14.01     1.1727
     14.035     1.2137
      14.06     1.1864
     14.085     1.2094
      14.11      1.192
     14.135     1.1802
      14.16     1.1321
     14.185      1.134
      14.21     1.1864
     14.235     1.2717
      14.26     1.2568
     14.285     1.1805
      14.31     1.1891
     14.335     1.1334
      14.36     1.1629
     14.385     1.2456
      14.41     1.2392
     14.435     1.2382
      14.46      1.108
     14.485     1.0856
      14.51     1.1492
     14.535     1.2462
      14.56     1.2178
     14.585     1.1964
      14.61     1.0782
     14.635     1.0712
      14.66     1.1346
     14.685      1.128
      14.71     1.2031
     14.735     1.2366
      14.76     1.1072
     14.785     1.0198
      14.81     1.1039
     14.835     1.1896
      14.86     1.1963
     14.885     1.1609
      14.91     1.1707
     14.935     1.1176
      14.96     1.0886
     14.985     1.1326
      15.01     1.1598
     15.035      1.179
      15.06     1.1893
     15.085     1.1267
      15.11     1.1176
     15.135     1.1988
      15.16     1.1772
     15.185     1.2143
      15.21     1.1657
     15.235     1.1005
      15.26      1.134
     15.285     1.1911
      15.31     1.1793
     15.335     1.2235
      15.36     1.1245
     15.385     1.0824
      15.41     1.0473
     15.435     1.1339
      15.46     1.1819
     15.485     1.1559
      15.51     1.2053
     15.535     1.1626
      15.56     1.1178
     15.585     1.1861
      15.61     1.1837
     15.635     1.1792
      15.66     1.1473
     15.685     1.0692
      15.71     1.0054
     15.735     1.1049
      15.76     1.1578
     15.785     1.2655
      15.81     1.2478
     15.835     1.2033
      15.86       1.14
     15.885     1.1879
      15.91      1.197
     15.935     1.2752
      15.96     1.2604
     15.985     1.2857
      16.01     1.1805
     16.035     1.2314
      16.06     1.2579
     16.085     1.2968
      16.11     1.2815
     16.135     1.2333
      16.16     1.1827
     16.185     1.1912
      16.21     1.2322
     16.235     1.2587
      16.26     1.2712
     16.285     1.1633
      16.31     1.1264
     16.335     1.1786
      16.36     1.3009
     16.385     1.2956
      16.41     1.3158
     16.435     1.2677
      16.46     1.2292
     16.485     1.2614
      16.51     1.2638
     16.535     1.3261
      16.56     1.3012
     16.585     1.2517
      16.61     1.1994
     16.635     1.2488
      16.66     1.2584
     16.685      1.277
      16.71     1.2783
     16.735     1.2497
      16.76     1.1639
     16.785       1.22
      16.81      1.246
     16.835     1.3001
      16.86     1.2546
     16.885     1.1794
      16.91     1.1634
     16.935     1.2021
      16.96     1.2493
     16.985     1.2203
      17.01     1.2024
     17.035     1.2436
      17.06      1.199
     17.085     1.1888
      17.11     1.2449
     17.135     1.2688
      17.16     1.2944
     17.185     1.2532
      17.21     1.1215
     17.235     1.2358
      17.26     1.3047
     17.285     1.2875
      17.31     1.3269
     17.335      1.272
      17.36     1.2147
     17.385     1.2122
      17.41     1.2587
     17.435     1.2592
      17.46     1.2305
     17.485      1.197
      17.51     1.1942
     17.535     1.1382
      17.56     1.1724
     17.585      1.225
      17.61     1.2384
     17.635     1.2551
      17.66     1.2328
     17.685     1.2309
      17.71     1.2657
     17.735     1.2366
      17.76     1.2574
     17.785     1.2106
      17.81     1.1363
     17.835     1.1992
      17.86     1.2571
     17.885     1.3057
      17.91      1.208
     17.935     1.2434
      17.96     1.1906
     17.985     1.2127
      18.01     1.2401
     18.035     1.2425
      18.06      1.273
     18.085     1.2135
      18.11     1.1302
     18.135      1.148
      18.16     1.1633
     18.185     1.1927
      18.21     1.2097
     18.235     1.1917
      18.26     1.1757
     18.285     1.1443
      18.31     1.2248
     18.335     1.2529
      18.36     1.2466
     18.385     1.1801
      18.41     1.0774
     18.435     1.1157
      18.46      1.153
     18.485     1.2355
      18.51     1.2758
     18.535     1.2405
      18.56     1.1673
     18.585     1.1756
      18.61     1.2052
     18.635     1.1909
      18.66     1.2388
     18.685     1.2291
      18.71     1.2046
     18.735     1.1667
      18.76     1.1911
     18.785     1.2445
      18.81     1.2455
     18.835     1.2418
      18.86     1.2465
     18.885     1.2448
      18.91     1.2324
     18.935     1.2345
      18.96     1.2358
     18.985     1.2587
      19.01     1.1981
     19.035     1.1765
      19.06     1.2133
     19.085     1.2737
      19.11     1.3116
     19.135     1.2609
      19.16     1.2269
     19.185     1.2599
      19.21     1.1885
     19.235     1.2886
      19.26     1.2693
     19.285       1.26
      19.31      1.235
     19.335     1.2008
      19.36     1.1897
     19.385     1.2221
      19.41     1.2436
     19.435     1.2268
      19.46      1.177
     19.485     1.2106
      19.51     1.2152
     19.535     1.2018
      19.56      1.205
     19.585     1.2424
      19.61     1.2728
     19.635     1.2158
      19.66     1.2325
     19.685     1.3041
      19.71     1.2876
     19.735     1.2318
      19.76     1.1949
     19.785     1.2536
      19.81     1.2562
     19.835     1.2657
      19.86     1.2562
     19.885     1.2461
      19.91     1.2674
     19.935       1.27
      19.96      1.267
     19.985      1.197
      20.01     1.3015
     20.035     1.3129
      20.06     1.2457
     20.085     1.2634
      20.11     1.2106
     20.135     1.1939
      20.16     1.2108
     20.185     1.2205
      20.21     1.2575
     20.235      1.231
      20.26     1.2342
     20.285     1.2089
      20.31     1.2688
     20.335     1.2228
      20.36     1.2148
     20.385     1.2144
      20.41     1.2404
     20.435      1.243
      20.46     1.2626
     20.485     1.1778
      20.51     1.2558
     20.535     1.1552
      20.56     1.1359
     20.585     1.1789
      20.61     1.2107
     20.635     1.2111
      20.66     1.1719
     20.685     1.1589
      20.71     1.2475
     20.735     1.2899
      20.76     1.3547
     20.785     1.2386
      20.81      1.205
     20.835     1.1992
      20.86     1.1776
     20.885     1.2761
      20.91     1.2591
     20.935     1.2678
      20.96     1.2561
     20.985     1.3603
      21.01     1.3418
     21.035     1.2737
      21.06     1.3122
     21.085     1.2551
      21.11     1.2208
     21.135     1.2007
      21.16     1.1685
     21.185     1.2025
      21.21     1.2177
     21.235     1.1953
      21.26     1.3359
     21.285      1.267
      21.31     1.2813
     21.335      1.293
      21.36     1.3027
     21.385     1.2156
      21.41     1.1705
     21.435     1.2657
      21.46     1.2082
     21.485     1.2705
      21.51     1.1818
     21.535      1.195
      21.56     1.2014
     21.585     1.2342
      21.61     1.1807
     21.635     1.2585
      21.66     1.2349
     21.685     1.2219
      21.71     1.1722
     21.735     1.1859
      21.76     1.2786
     21.785     1.2657
      21.81     1.2873
     21.835     1.2354
      21.86     1.2848
     21.885     1.2419
      21.91     1.2747
     21.935     1.2729
      21.96     1.2251
     21.985     1.2176
      22.01     1.2014
     22.035     1.2315
      22.06     1.2041
     22.085     1.2586
      22.11      1.236
     22.135     1.1923
      22.16     1.1419
     22.185     1.2368
      22.21      1.206
     22.235     1.1849
      22.26     1.1662
     22.285     1.0867
      22.31     1.1046
     22.335      1.207
      22.36     1.2484
     22.385     1.2742
      22.41     1.2769
     22.435     1.2626
      22.46     1.2225
     22.485     1.3009
      22.51     1.2446
     22.535     1.2102
      22.56     1.2792
     22.585      1.234
      22.61     1.2222
     22.635     1.2236
      22.66     1.2545
     22.685     1.2105
      22.71     1.2507
     22.735       1.22
      22.76     1.2569
     22.785     1.2901
      22.81     1.2757
     22.835     1.2637
      22.86     1.2718
     22.885     1.2798
      22.91     1.2596
     22.935     1.2464
      22.96     1.2687
     22.985     1.2755
      23.01     1.2213
     23.035     1.2725
      23.06     1.2637
     23.085     1.2417
      23.11     1.2888
     23.135     1.2587
      23.16     1.2535
     23.185     1.2118
      23.21     1.2227
     23.235     1.2354
      23.26     1.2757
     23.285     1.2953
      23.31     1.2791
     23.335     1.2877
      23.36     1.2716
     23.385     1.2572
      23.41     1.2187
     23.435     1.2976
      23.46     1.2332
     23.485     1.2268
      23.51      1.273
     23.535     1.2396
      23.56     1.2463
     23.585     1.2793
      23.61     1.3026
     23.635     1.2299
      23.66     1.3187
     23.685     1.2889
      23.71     1.3081
     23.735     1.2654
      23.76     1.2129
     23.785     1.2372
      23.81     1.2017
     23.835     1.2516
      23.86     1.2862
     23.885     1.3366
      23.91      1.252
     23.935     1.3336
      23.96     1.3182
     23.985     1.3583
      24.01     1.2981
     24.035     1.2414
      24.06     1.2266
     24.085     1.2273
      24.11      1.273
     24.135     1.2385
      24.16     1.2961
     24.185     1.2742
      24.21     1.2855
     24.235     1.2542
      24.26     1.2773
     24.285     1.3027
      24.31     1.2831
     24.335     1.2607
      24.36     1.2204
     24.385     1.2897
      24.41     1.2289
     24.435     1.2494
      24.46     1.3052
     24.485     1.2222
      24.51     1.2741
     24.535     1.2699
      24.56     1.2711
     24.585     1.2815
      24.61     1.2658
     24.635     1.2698
      24.66      1.267
     24.685     1.2859
      24.71      1.268
     24.735     1.2682
      24.76     1.2836
     24.785      1.258
      24.81     1.2737
     24.835     1.2594
      24.86     1.3374
     24.885     1.2699
      24.91     1.2965
     24.935     1.2445
      24.96     1.2552
     24.985     1.2383
      25.01     1.2248
     25.035     1.2116
      25.06     1.2483
     25.085     1.2016
      25.11     1.2542
     25.135     1.2544
      25.16     1.2851
     25.185     1.2728
      25.21     1.2174
     25.235     1.2518
      25.26     1.2384
     25.285     1.2766
      25.31     1.2809
     25.335     1.2513
      25.36     1.2671
     25.385     1.2329
      25.41     1.2472
     25.435     1.2876
      25.46     1.2675
     25.485     1.3467
      25.51     1.2669
     25.535     1.2356
      25.56      1.228
     25.585     1.2648
      25.61     1.2463
     25.635     1.3059
      25.66     1.3206
     25.685     1.3377
      25.71     1.2881
     25.735     1.2697
      25.76     1.2576
     25.785     1.2512
      25.81     1.2755
     25.835      1.321
      25.86     1.2913
     25.885     1.2736
ENDDATA           1018
ENDSUBENT         1028
ENDENTRY             6
