ENTRY            O0580   20120604   20120921   20120918       O048
SUBENT        O0580001   20120604   20120921   20120918       O048
BIB                 10         43
TITLE       Scattering of 26.5 MeV protons on Mo-94, Mo-96 and
            Mo-100
AUTHOR     (E.Fretwurst,G.Lindstrom,K.F.Von Reden,V.Riech,
            S.I.Vasiljev,P.P.Zarubin,O.M.Knyazkov,I.N.Kuchtina)
INSTITUTE  (2GERHAM)
           (4RUSSUL)
REFERENCE  (J,NP/A,468,247,1987)
           (C,82KIEV,,198,1982) prelim.results
           (J,IZV,48,145,1984) prelim.results
           (C,84ALMAAT,,300,1984) prelim.results
           (J,IZV,50,157,1986) prelim.results
           (J,BAS,50,153,1986) English transl. of IZV,50,157
           (J,UFZ,32,815,1987) analysis
ADD-RES    (COMP).Optical Model.DWBA coupled-channels analysis.
           (STRUC) Level energies.
           (POT)
DETECTOR   (SI) Two silicon semiconductor detectors.
FACILITY   (ISOCY,2GERHAM)
METHOD     (SITA)
ERR-ANALYS EN-RSL - The Total experimental energy
           resolution including beam width, target contribution
           and detector performance assumed to about 20 KeV.
           One of the main contributions to the inaccuracy of the
           absolute cross sections is given by the uncertainty in
           the knowledge of the actual target thickness.
           Error bars given to single points in the angular
           distributions result from the peak-integrating
           procedure and are related to statistics. Due to small
           target contaminations, which could not explicitly be
           accounted for, as well as due to uncertainties in the
           background determination, point-to-point fluctuations
           of the cross sections may occur, exceeding these
           statistical errors. This is especially important in
           cases of small absolute cross section and at high
           excitations energies.
HISTORY    (19990917C)
           (19991006U) Last checking has been done.
           (19991117A) DATE is corrected
           (20120604A) SD: Digitized data from Subents 2-7 were
            changed on digitized data from CNPD (Entry F0506)
            Subents 8-10 were added from F0506002-F0506004.
            References with prelim.results added.
            Entry corrected according to last EXFOR rules.
ENDBIB              43
COMMON               2          3
EN         EN-RSL
MEV        KEV
       25.6        20.
ENDCOMMON            3
ENDSUBENT           50
SUBENT        O0580002   20120604   20120921   20120918       O048
BIB                  5         10
REACTION   (42-MO-94(P,EL)42-MO-94,,DA,,RTH)
SAMPLE     (42-MO-94,ENR=0.884) Enriched (88.4%) Mo-94 foil with
                                670 mu-g/cm**2 thickness.
ERR-ANALYS (ANG-ERR-D)  Digitizing error
           (ERR-DIG)    Digitizing error
           (ERR-S)   Error from the graphic bars results from
           peak-integrating procedure and is related to statistics
STATUS     (CURVE) Fig.2 from NP/A,468,247,1987
HISTORY    (20120604A) SD: Digitized data were changed on
              digitized data from CNPD.
ENDBIB              10
COMMON               2          3
ANG-ERR-D  ERR-DIG
ADEG       PER-CENT
 0.12         0.1
ENDCOMMON            3
DATA                 3         42
ANG-CM     DATA       ERR-S
ADEG       NO-DIM     NO-DIM
       7.60     0.8824
      10.15     0.7666
      12.69     0.6402
      15.11     0.6140
      17.69     0.6005
      20.29     0.6744
      23.00     0.5917
      25.41     0.5455
      30.45     0.6112
      31.48     0.5423
      36.39     0.6709
      41.57     0.7154
      45.65     0.3397
      50.71     0.1107
      55.63     0.1411
      56.61     0.1972
      60.78     0.5224
      66.82     0.9031
      71.82     0.8555
      75.66     0.5358
      77.75     0.4521
      80.74     0.1853
      85.83     0.1331
      90.80     0.2215     0.0343
      96.96     0.6274
     101.98     0.6560
     105.86     0.4957
     110.91     0.2952
     115.89     0.1294
     120.90     0.1314
     126.82     0.2507
     131.91     0.3632
     134.82     0.3998
     139.92     0.3078
     141.70     0.2572
     144.52     0.1926
     150.55     0.1603
     152.40     0.1802
     155.49     0.2277
     159.50     0.3021
     165.34     0.4122
     169.29     0.4066
ENDDATA             44
ENDSUBENT           63
SUBENT        O0580003   20120604   20120921   20120918       O048
BIB                  6         22
REACTION   (42-MO-94(P,INL)42-MO-94,PAR,DA)
SAMPLE     (42-MO-94,ENR=0.884) Enriched (88.4%) Mo-94 foil with
                                670 mu-g/cm**2 thickness.
LEVEL-PROP (42-MO-94,E-LVL=1.573,SPIN=4.,PARITY=+1.)
           (42-MO-94,E-LVL=0.870,SPIN=2.,PARITY=+1.)
           (42-MO-94,E-LVL=2.534,SPIN=3.,PARITY=-1.)
           (42-MO-94,E-LVL=1.741,SPIN=0.,PARITY=+1.)
           (42-MO-94,E-LVL=1.864,SPIN=2.,PARITY=+1.)
           (42-MO-94,E-LVL=2.421,SPIN=4.,PARITY=+1.)
           (42-MO-94,E-LVL=2.768,SPIN=4.,PARITY=+1.)
           (42-MO-94,E-LVL=3.202,SPIN=1.,PARITY=-1.)
           (42-MO-94,E-LVL=3.262,SPIN=2.,PARITY=-1.)
           (42-MO-94,E-LVL=3.456,SPIN=3.,PARITY=-1.)
           (42-MO-94,E-LVL=3.532,SPIN=4.,PARITY=-1.)
           (42-MO-94,E-LVL=3.796,SPIN=5.,PARITY=-1.)
ERR-ANALYS (ANG-ERR-D)  Digitizing error
           (ERR-DIG)    Digitizing error
           (DATA-ERR)   Error from the graphic bar results from
           peak-integrating procedure and is related to statistics
STATUS     (CURVE)Fig.4,7,8 from NP/A,468,247,1987
HISTORY    (20120604A) SD: Digitized data were changed on
              digitized data from CNPD.
ENDBIB              22
COMMON               2          3
ANG-ERR-D  ERR-DIG
ADEG       PER-CENT
 0.2        0.1
ENDCOMMON            3
DATA                 4        402
E-LVL      ANG-CM     DATA-CM    DATA-ERR
KEV        ADEG       MB/SR      MB/SR
      870.0      10.22     1.8645     0.4812
      870.0      15.06     2.5453     0.1576
      870.0      17.60     4.8742     0.3982
      870.0      20.32     6.6375     0.2769
      870.0      22.71     9.3621     0.4525
      870.0      25.34     8.5621     0.4153
      870.0      30.32     8.9237     0.3708
      870.0      31.19     7.2690     0.2524
      870.0      36.25     4.8765     0.1763
      870.0      41.35     4.0780     0.1474
      870.0      45.43     1.7714     0.0618
      870.0      50.43     1.7944     0.0781
      870.0      55.61     1.7300
      870.0      56.50     1.7817     0.1042
      870.0      60.54     1.4987
      870.0      71.54     0.9565     0.0418
      870.0      75.67     0.8952     0.0390
      870.0      77.76     0.9499     0.0396
      870.0      80.73     0.6048     0.0802
      870.0      85.71     0.6349     0.0276
      870.0      90.75     0.4445     0.0185
      870.0      96.63     0.3590     0.0198
      870.0     101.62     0.3663     0.0214
      870.0     105.77     0.3332
      870.0     110.63     0.3304
      870.0     115.75     0.2648
      870.0     120.65     0.2411
      870.0     126.62     0.2182
      870.0     129.65     0.1648     0.0225
      870.0     131.76     0.2227
      870.0     134.62     0.2331     0.0081
      870.0     139.55     0.2005
      870.0     141.70     0.1927     0.0067
      870.0     144.59     0.1892     0.0079
      870.0     150.35     0.2531     0.0106
      870.0     152.26     0.2843     0.0099
      870.0     155.22     0.3219
      870.0     159.29     0.3423     0.0175
      870.0     165.09     0.3165     0.0161
      870.0     168.92     0.2228     0.0081
     1573.0      15.03     0.9840     0.1104
     1573.0      17.49     1.1710     0.2270
     1573.0      20.14     0.8284     0.0929
     1573.0      25.24     0.6497     0.0560
     1573.0      30.31     0.8672     0.0637
     1573.0      31.33     0.7168     0.0618
     1573.0      36.36     0.8303     0.0610
     1573.0      41.37     0.8855     0.0650
     1573.0      45.39     0.6327     0.0385
     1573.0      50.35     0.5082     0.0309
     1573.0      55.40     0.6547     0.0481
     1573.0      56.34     0.3753     0.0276
     1573.0      60.37     0.2811     0.0206
     1573.0      66.35     0.3704     0.0272
     1573.0      71.38     0.2188     0.0133
     1573.0      75.46     0.1980     0.0171
     1573.0      77.57     0.1883     0.0162
     1573.0      80.39     0.1430     0.0180
     1573.0      85.32     0.1057     0.0064
     1573.0      90.41     0.0772     0.0087
     1573.0      96.40     0.0551     0.0062
     1573.0     101.38     0.0498     0.0069
     1573.0     105.50     0.0577     0.0021
     1573.0     110.30     0.0464     0.0034
     1573.0     115.44     0.0439     0.0027
     1573.0     120.29     0.0426     0.0015
     1573.0     126.33     0.0385     0.0023
     1573.0     129.41     0.0480     0.0035
     1573.0     131.37     0.0456     0.0034
     1573.0     134.27     0.0500     0.0037
     1573.0     139.12     0.0508     0.0031
     1573.0     141.23     0.0478     0.0035
     1573.0     144.09     0.0438     0.0032
     1573.0     150.14     0.0410     0.0025
     1573.0     152.11     0.0409     0.0025
     1573.0     154.98     0.0398     0.0029
     1573.0     158.91     0.0382     0.0033
     1573.0     164.85     0.0421     0.0036
     1573.0     168.73     0.0320     0.0020
     1741.0      20.17     0.1538     0.0342
     1741.0      25.35     0.0887     0.0348
     1741.0      30.40     0.0550     0.0138
     1741.0      31.36     0.0679     0.0255
     1741.0      41.45     0.0499     0.0069
     1741.0      50.32     0.0090     0.0031
     1741.0      56.51     0.0163     0.0043
     1741.0      66.36     0.0163     0.0043
     1741.0      77.67     0.0122     0.0034
     1741.0      85.50     0.0049     0.0008
     1741.0      96.59     0.0107     0.0016
     1741.0     105.51     0.0049     0.0007
     1741.0     115.54     0.0014     0.0004
     1741.0     120.48     0.0020     0.0003
     1741.0     126.61     0.0058     0.0005
     1741.0     129.56     0.0078     0.0015
     1741.0     131.34     0.0066     0.0006
     1741.0     134.34     0.0058     0.0008
     1741.0     139.37     0.0066     0.0007
     1741.0     141.32     0.0060     0.0008
     1741.0     144.41     0.0039     0.0005
     1741.0     150.22     0.0024     0.0004
     1741.0     152.27     0.0017     0.0004
     1741.0     155.05     0.0022     0.0004
     1741.0     165.01     0.0037     0.0006
     1741.0     168.83     0.0085     0.0009
     1864.0      25.26     0.3196     0.0519
     1864.0      30.33     0.2253     0.0166
     1864.0      31.41     0.1188     0.0282
     1864.0      36.46     0.0371     0.0110
     1864.0      41.49     0.0434     0.0072
     1864.0      45.42     0.0828     0.0071
     1864.0      50.42     0.0823     0.0137
     1864.0      55.54     0.0684     0.0042
     1864.0      56.46     0.0734     0.0073
     1864.0      60.53     0.0648     0.0081
     1864.0      66.49     0.0207     0.0034
     1864.0      71.49     0.0205     0.0023
     1864.0      77.55     0.0199     0.0036
     1864.0      80.51     0.0289     0.0077
     1864.0      85.48     0.0247     0.0018
     1864.0      90.54     0.0160     0.0055
     1864.0     101.52     0.0112     0.0035
     1864.0     110.51     0.0140     0.0009
     1864.0     115.53     0.0149     0.0009
     1864.0     120.57     0.0179     0.0011
     1864.0     126.58     0.0142     0.0010
     1864.0     129.51     0.0182     0.0013
     1864.0     131.56     0.0130     0.0011
     1864.0     134.42     0.0115     0.0013
     1864.0     139.43     0.0121     0.0009
     1864.0     141.55     0.0060     0.0035
     1864.0     144.29     0.0125     0.0009
     1864.0     150.29     0.0190     0.0019
     1864.0     152.26     0.0191     0.0014
     1864.0     155.01     0.0207     0.0010
     1864.0     159.10     0.0213     0.0016
     1864.0     165.01     0.0212     0.0016
     1864.0     168.96     0.0218     0.0016
     2421.0      25.39     0.1240     0.0291
     2421.0      36.51     0.1088     0.0174
     2421.0      41.48     0.1059     0.0128
     2421.0      45.39     0.0811     0.0073
     2421.0      50.37     0.0500     0.0110
     2421.0      55.48     0.0597     0.0071
     2421.0      56.46     0.0421     0.0200
     2421.0      60.67     0.0629     0.0080
     2421.0      66.71     0.0312     0.0062
     2421.0      75.81     0.0162     0.0026
     2421.0      85.55     0.0175     0.0020
     2421.0      96.54     0.0158     0.0026
     2421.0     110.41     0.0146     0.0016
     2421.0     115.42     0.0149     0.0012
     2421.0     120.35     0.0107     0.0009
     2421.0     126.33     0.0097     0.0007
     2421.0     129.28     0.0108     0.0011
     2421.0     131.21     0.0080     0.0010
     2421.0     134.32     0.0058     0.0025
     2421.0     139.22     0.0080     0.0011
     2421.0     141.24     0.0068     0.0011
     2421.0     150.05     0.0072     0.0010
     2421.0     152.17     0.0090     0.0017
     2421.0     155.11     0.0079     0.0012
     2421.0     159.07     0.0129     0.0020
     2421.0     164.95     0.0099     0.0011
     2421.0     168.85     0.0094     0.0014
     2534.0      12.66     1.3293     0.4859
     2534.0      14.91     1.3810     0.0855
     2534.0      17.48     1.8669     0.2931
     2534.0      20.00     2.0830     0.1151
     2534.0      22.53     1.7366     0.2084
     2534.0      25.10     2.3476
     2534.0      30.26     4.1405
     2534.0      31.25     3.5705
     2534.0      36.10     4.7711
     2534.0      41.18     5.4542
     2534.0      45.32     3.7871
     2534.0      50.30     2.9491
     2534.0      55.37     1.9504
     2534.0      56.41     2.0234
     2534.0      60.47     1.6194
     2534.0      66.49     1.3270
     2534.0      71.66     1.2883
     2534.0      75.50     1.1799
     2534.0      77.58     1.2789
     2534.0      80.62     0.9590
     2534.0      85.60     0.9923
     2534.0      90.72     0.7952
     2534.0      96.75     0.6470
     2534.0     101.59     0.3711     0.0245
     2534.0     105.54     0.3623
     2534.0     110.59     0.3323
     2534.0     115.62     0.3203
     2534.0     120.58     0.3458
     2534.0     126.53     0.3243
     2534.0     129.49     0.3672
     2534.0     131.70     0.3171
     2534.0     134.58     0.3137
     2534.0     139.56     0.2478
     2534.0     141.57     0.2297
     2534.0     144.49     0.2116
     2534.0     150.49     0.2422
     2534.0     152.29     0.2497
     2534.0     155.39     0.2972
     2534.0     159.13     0.3250
     2534.0     165.27     0.3747
     2534.0     168.98     0.3288
     2768.0      25.44     0.2403     0.0384
     2768.0      30.44     0.2419     0.0231
     2768.0      31.55     0.2602     0.0467
     2768.0      36.52     0.2532     0.0210
     2768.0      41.54     0.2622     0.0255
     2768.0      45.65     0.2152     0.0142
     2768.0      50.53     0.2267     0.0147
     2768.0      55.56     0.1913     0.0089
     2768.0      56.62     0.1531     0.0194
     2768.0      60.59     0.1605     0.0080
     2768.0      66.65     0.1293     0.0099
     2768.0      71.70     0.1128     0.0080
     2768.0      75.73     0.1038     0.0080
     2768.0      80.57     0.0528     0.0245
     2768.0      85.61     0.0710
     2768.0      90.73     0.0436     0.0078
     2768.0      96.62     0.1041     0.0074
     2768.0     101.53     0.0919     0.0241
     2768.0     105.62     0.0591
     2768.0     110.49     0.0612
     2768.0     115.49     0.0490
     2768.0     120.63     0.0488
     2768.0     126.34     0.0367
     2768.0     129.39     0.0381     0.0020
     2768.0     131.43     0.0337     0.0016
     2768.0     134.46     0.0425     0.0022
     2768.0     139.37     0.0375     0.0017
     2768.0     141.48     0.0366     0.0016
     2768.0     144.40     0.0313     0.0015
     2768.0     150.34     0.0414     0.0019
     2768.0     152.22     0.0366     0.0021
     2768.0     155.15     0.0313     0.0016
     2768.0     159.21     0.0305     0.0020
     2768.0     165.21     0.0282     0.0016
     2768.0     169.03     0.0189     0.0016
     3202.0      20.20     0.1477     0.0453
     3202.0      31.08     0.1041     0.0271
     3202.0      36.08     0.0665     0.0114
     3202.0      41.08     0.0474     0.0081
     3202.0      45.17     0.0372     0.0064
     3202.0      50.32     0.0252     0.0081
     3202.0      55.30     0.0265     0.0057
     3202.0      56.50     0.0300     0.0083
     3202.0      60.45     0.0163     0.0042
     3202.0      66.63     0.0224     0.0035
     3202.0      71.51     0.0073     0.0012
     3202.0      75.45     0.0046     0.0022
     3202.0      77.56     0.0057     0.0030
     3202.0      85.58     0.1032
     3202.0      96.39     0.0128     0.0024
     3202.0     115.27     0.0095     0.0007
     3202.0     120.25     0.0109     0.0011
     3202.0     126.31     0.0069     0.0009
     3202.0     129.19     0.0053     0.0012
     3202.0     131.29     0.0072     0.0009
     3202.0     139.14     0.0063     0.0008
     3202.0     141.13     0.0041     0.0008
     3202.0     144.12     0.0077     0.0010
     3202.0     150.02     0.0055     0.0006
     3202.0     151.96     0.0087     0.0014
     3202.0     154.99     0.0081     0.0010
     3202.0     164.93     0.0117     0.0011
     3202.0     168.72     0.0078     0.0010
     3262.0      25.17     1.1073     0.8249
     3262.0      30.03     0.5433     0.1571
     3262.0      31.22     0.8299     0.2271
     3262.0      36.23     0.3975     0.1403
     3262.0      41.19     0.6379     0.0820
     3262.0      45.30     0.3284     0.1324
     3262.0      50.44     0.2614     0.0966
     3262.0      55.42     0.3216     0.0831
     3262.0      56.33     0.2556     0.0779
     3262.0      66.48     0.1272     0.0309
     3262.0      71.62     0.1156     0.0230
     3262.0      75.67     0.1855     0.0213
     3262.0      77.64     0.1665     0.0355
     3262.0      80.64     0.2638     0.0846
     3262.0      85.61     0.2876     0.0331
     3262.0     115.27     0.0656     0.0084
     3262.0     120.40     0.0806     0.0071
     3262.0     126.30     0.0555     0.0056
     3262.0     129.33     0.0442     0.0101
     3262.0     131.30     0.0364     0.0105
     3262.0     139.35     0.0153     0.0054
     3262.0     150.18     0.0345     0.0044
     3262.0     152.12     0.0473     0.0080
     3262.0     155.12     0.0786     0.0090
     3262.0     159.05     0.0706     0.0140
     3262.0     164.91     0.1189     0.0096
     3262.0     168.87     0.0666     0.0090
     3456.0      20.41     0.2547     0.0423
     3456.0      25.40     0.2372     0.0418
     3456.0      30.22     0.3216     0.0469
     3456.0      36.11     0.3069
     3456.0      41.22     0.4368
     3456.0      45.31     0.3153
     3456.0      50.30     0.3120
     3456.0      55.44     0.2669
     3456.0      56.64     0.2837
     3456.0      60.58     0.2098
     3456.0      66.63     0.1497
     3456.0      71.64     0.0957
     3456.0      75.72     0.0771     0.0071
     3456.0      77.52     0.1057
     3456.0      80.54     0.0948     0.0128
     3456.0      85.68     0.0821
     3456.0      90.78     0.1641
     3456.0      96.56     0.0766     0.0062
     3456.0     101.55     0.0560     0.0082
     3456.0     105.48     0.0515
     3456.0     110.48     0.0372
     3456.0     115.32     0.0268
     3456.0     120.30     0.0286
     3456.0     126.35     0.0216     0.0034
     3456.0     129.35     0.0343
     3456.0     131.32     0.0331
     3456.0     134.33     0.0384
     3456.0     139.32     0.0344
     3456.0     141.28     0.0340
     3456.0     144.29     0.0394
     3456.0     150.32     0.0451
     3456.0     152.13     0.0462
     3456.0     155.15     0.0504
     3456.0     159.22     0.0529
     3456.0     164.95     0.0628     0.0056
     3456.0     168.90     0.0412
     3532.0      10.15     1.2686     0.5424
     3532.0      15.21     0.2243     0.0722
     3532.0      17.56     1.0469     0.2354
     3532.0      20.19     0.1966     0.0729
     3532.0      22.63     0.1113     0.1035
     3532.0      25.17     0.2041     0.0515
     3532.0      29.90     0.0638     0.0113
     3532.0      31.10     0.0804     0.0265
     3532.0      41.06     0.0777     0.0090
     3532.0      45.15     0.0673     0.0078
     3532.0      50.17     0.0268     0.0038
     3532.0      55.32     0.0182     0.0050
     3532.0      60.35     0.0045     0.0023
     3532.0      66.48     0.0214     0.0062
     3532.0      71.47     0.0197     0.0031
     3532.0      75.39     0.0188     0.0049
     3532.0      77.35     0.0204     0.0056
     3532.0      85.35     0.0215     0.0034
     3532.0      96.41     0.0092     0.0050
     3532.0     105.33     0.0054     0.0011
     3532.0     110.30     0.0089     0.0012
     3532.0     115.09     0.0209     0.0010
     3532.0     120.12     0.0074     0.0008
     3532.0     126.16     0.0066     0.0006
     3532.0     129.18     0.0069     0.0013
     3532.0     131.00     0.0048     0.0007
     3532.0     134.16     0.0061     0.0011
     3532.0     139.16     0.0041     0.0008
     3532.0     141.11     0.0061     0.0010
     3532.0     143.99     0.0046     0.0009
     3532.0     149.99     0.0101     0.0010
     3532.0     151.97     0.0076     0.0009
     3532.0     154.97     0.0116     0.0012
     3532.0     158.87     0.0211     0.0022
     3532.0     164.77     0.0170     0.0015
     3532.0     168.70     0.0153     0.0016
     3796.0      15.33     0.3909     0.0836
     3796.0      20.36     0.1504     0.0435
     3796.0      25.36     0.0873     0.0295
     3796.0      30.18     0.1242     0.0177
     3796.0      31.24     0.0999     0.0270
     3796.0      36.22     0.1116     0.0144
     3796.0      41.22     0.0806     0.0074
     3796.0      45.47     0.0479     0.0055
     3796.0      50.46     0.0342     0.0044
     3796.0      55.43     0.0511     0.0052
     3796.0      56.49     0.0431     0.0089
     3796.0      60.58     0.0343     0.0057
     3796.0      66.61     0.0388     0.0048
     3796.0      71.60     0.0301     0.0034
     3796.0      75.69     0.0231     0.0043
     3796.0      77.79     0.0294     0.0050
     3796.0      85.68     0.0143     0.0028
     3796.0     105.63     0.0076     0.0012
     3796.0     110.43     0.0176
     3796.0     115.42     0.0137     0.0012
     3796.0     120.55     0.0146     0.0017
     3796.0     126.61     0.0092
     3796.0     129.46     0.0143     0.0016
     3796.0     131.45     0.0064     0.0008
     3796.0     134.44     0.0139     0.0012
     3796.0     139.46     0.0059     0.0009
     3796.0     141.42     0.0068     0.0011
     3796.0     144.44     0.0066     0.0011
     3796.0     150.29     0.0129     0.0015
     3796.0     152.12     0.0087     0.0011
     3796.0     155.28     0.0130     0.0012
     3796.0     159.21     0.0108     0.0015
     3796.0     165.38     0.0148
     3796.0     169.16     0.0131     0.0012
ENDDATA            404
ENDSUBENT          435
SUBENT        O0580004   20120604   20120921   20120918       O048
BIB                  5         10
REACTION   (42-MO-96(P,EL)42-MO-96,,DA,,RTH)
SAMPLE     (42-MO-96,ENR=0.967) Enriched (96.7%) Mo-96 foil
           with 390 mu-g/cm**2 thickness.
ERR-ANALYS (ANG-ERR-D)  Digitizing error
           (ERR-DIG)    Digitizing error
           (ERR-S)   Error from the graphic bar results from
           peak-integrating procedure and is related to statistics
STATUS     (CURVE) Fig.2 from NP/A,468,247,1987
HISTORY    (20120604A) SD: Digitized data were changed on
              digitized data from CNPD.
ENDBIB              10
COMMON               2          3
ANG-ERR-D  ERR-DIG
ADEG       PER-CENT
 0.12        0.1
ENDCOMMON            3
DATA                 3         43
ANG-CM     DATA       ERR-S
ADEG       NO-DIM     NO-DIM
       9.85     0.7607
      12.54     0.6348
      15.10     0.5736
      17.70     0.6380
      20.29     0.6428
      22.85     0.5983
      25.12     0.5738
      28.29     0.5233
      30.43     0.5487
      35.31     0.6274
      38.35     0.6256
      40.31     0.5943
      42.39     0.4865
      45.35     0.3330
      50.40     0.1020
      52.50     0.0940
      55.55     0.1932
      60.66     0.5946
      65.76     0.8881
      70.59     0.7849
      72.68     0.6620
      75.63     0.4486
      80.55     0.1502
      82.60     0.1092
      85.56     0.1525
      90.77     0.3700
      95.73     0.5866
     100.76     0.6382
     105.70     0.4673
     110.71     0.2372
     115.69     0.1027
     120.76     0.1349
     125.75     0.2481
     130.67     0.3259
     135.65     0.2768
     140.77     0.2260
     145.48     0.1170
     150.47     0.0538     0.0131
     155.14     0.0923     0.0095
     159.29     0.2310
     160.39     0.2651
     165.30     0.3313
     169.25     0.3367
ENDDATA             45
ENDSUBENT           64
SUBENT        O0580005   20120604   20120921   20120918       O048
BIB                  7         22
REACTION   (42-MO-96(P,INL)42-MO-96,PAR,DA)
EN-SEC     (E-LVL,42-MO-96)
SAMPLE     (42-MO-96,ENR=0.967) Enriched (96.7%) Mo-96 foil
           with 390 mu-g/cm**2 thickness.
LEVEL-PROP (42-MO-96,E-LVL=0.778,SPIN=2.,PARITY=+1.)
           (42-MO-96,E-LVL=2.235,SPIN=3.,PARITY=-1.)
           (42-MO-96,E-LVL=1.148,SPIN=0.,PARITY=+1.)
           (42-MO-96,E-LVL=1.498,SPIN=2.,PARITY=+1.)
           (42-MO-96,E-LVL=1.627,SPIN=4.,PARITY=+1.)
           (42-MO-96,E-LVL=2.981,SPIN=1.,PARITY=-1.)
           (42-MO-96,E-LVL=3.287,SPIN=2.,PARITY=-1.)
           (42-MO-96,E-LVL=2.807,SPIN=3.,PARITY=-1.)
           (42-MO-96,E-LVL=3.088,SPIN=4.,PARITY=-1.)
           (42-MO-96,E-LVL=2.739,SPIN=5.,PARITY=-1.)
           (42-MO-96,E-LVL=3.694,SPIN=5.,PARITY=-1.)
ERR-ANALYS (ANG-ERR-D)  Digitizing error
           (ERR-DIG)    Digitizing error
           (ERR-S)   Error from the graphic bar results from
           peak-integrating procedure and is related to statistics
STATUS     (CURVE) Fig.1,3b,5,9 from NP/A,468,247,1987
HISTORY    (20120604A) SD: Digitized data were changed on
              digitized data from CNPD.
ENDBIB              22
COMMON               2          3
ANG-ERR-D  ERR-DIG
ADEG       PER-CENT
 0.12        0.1
ENDCOMMON            3
DATA                 4        365
E-LVL      ANG-CM     DATA-CM    ERR-S
KEV        ADEG       MB/SR      MB/SR
      778.0      10.22     4.1011     0.5606
      778.0      12.65     3.0628     0.4435
      778.0      15.23     3.4318     0.2795
      778.0      17.53     8.3538     0.5527
      778.0      20.11     9.0976     0.3296
      778.0      22.69    10.4880     0.4386
      778.0      25.28    12.2650
      778.0      28.32    11.4210
      778.0      30.44    10.4850
      778.0      35.60     6.4605
      778.0      38.48     6.3232     0.1775
      778.0      40.60     3.4281
      778.0      42.41     2.7688
      778.0      45.61     3.0803     0.0890
      778.0      50.61     2.6521
      778.0      52.74     2.7285
      778.0      55.63     2.5048
      778.0      60.63     1.9520     0.0421
      778.0      65.49     1.4167
      778.0      70.65     1.2730
      778.0      72.77     1.2284
      778.0      75.81     1.2282     0.0429
      778.0      80.82     1.1355
      778.0      82.79     1.0132
      778.0      85.83     0.8300     0.0233
      778.0      90.98     0.5492
      778.0      96.14     0.4372
      778.0     101.16     0.4727
      778.0     106.02     0.5003
      778.0     110.88     0.4496
      778.0     115.88     0.3503     0.0127
      778.0     120.74     0.2829
      778.0     125.75     0.2597     0.0094
      778.0     130.61     0.2597     0.0113
      778.0     135.62     0.2350     0.0138
      778.0     140.63     0.2383
      778.0     145.34     0.2141     0.0093
      778.0     150.35     0.2399     0.0087
      778.0     155.37     0.3099     0.0087
      778.0     159.32     0.3572
      778.0     160.39     0.3755     0.0108
      778.0     165.09     0.3256
      778.0     169.03     0.2297
     1148.0      19.90     0.1710     0.0440
     1148.0      22.48     0.1728     0.0822
     1148.0      30.14     0.0555     0.0074
     1148.0      35.10     0.0270     0.0058
     1148.0      52.35     0.0116     0.0023
     1148.0      60.39     0.0117     0.0024
     1148.0      65.41     0.0124     0.0023
     1148.0      70.57     0.0125     0.0020
     1148.0      75.56     0.0097     0.0017
     1148.0      85.73     0.0095     0.0013
     1148.0      90.78     0.0167     0.0012
     1148.0      95.65     0.0219     0.0018
     1148.0     100.63     0.0138     0.0010
     1148.0     105.62     0.0109     0.0010
     1148.0     110.71     0.0040     0.0011
     1148.0     120.59     0.0045     0.0005
     1148.0     125.77     0.0065     0.0009
     1148.0     130.65     0.0081     0.0009
     1148.0     135.68     0.0112     0.0009
     1148.0     140.38     0.0107     0.0009
     1148.0     145.03     0.0047     0.0004
     1148.0     150.02     0.0035     0.0005
     1148.0     158.93     0.0019     0.0004
     1148.0     159.87     0.0029     0.0003
     1148.0     164.94     0.0073     0.0006
     1148.0     168.75     0.0083     0.0006
     1498.0      17.39     0.7703     0.1754
     1498.0      19.94     0.4934     0.0595
     1498.0      22.51     0.4299     0.1101
     1498.0      24.80     0.5520     0.0527
     1498.0      28.00     0.6179
     1498.0      30.11     0.4860
     1498.0      35.11     0.4279
     1498.0      38.13     0.3728
     1498.0      40.24     0.2966
     1498.0      42.36     0.2469
     1498.0      45.37     0.1713
     1498.0      50.51     0.1214
     1498.0      52.46     0.0913     0.0099
     1498.0      55.49     0.0851
     1498.0      60.50     0.0850
     1498.0      70.53     0.0927
     1498.0      72.49     0.0827
     1498.0      75.53     0.0835
     1498.0      80.68     0.0679
     1498.0      82.64     0.0599
     1498.0      85.66     0.0455     0.0035
     1498.0      90.65     0.0323
     1498.0      95.63     0.0226     0.0019
     1498.0     100.67     0.0344
     1498.0     105.68     0.0332
     1498.0     110.55     0.0407
     1498.0     115.70     0.0366
     1498.0     120.70     0.0334
     1498.0     125.68     0.0219
     1498.0     130.52     0.0155
     1498.0     135.67     0.0136     0.0020
     1498.0     140.39     0.0156
     1498.0     145.28     0.0255
     1498.0     149.99     0.0291     0.0035
     1498.0     155.01     0.0374     0.0031
     1498.0     158.82     0.0448
     1498.0     160.04     0.0453
     1498.0     164.89     0.0408
     1498.0     168.67     0.0355
     1627.0      12.31     0.9616     0.4404
     1627.0      20.02     0.5932     0.0718
     1627.0      25.00     0.4251     0.0569
     1627.0      28.04     0.4245     0.0460
     1627.0      30.16     0.4390     0.0153
     1627.0      35.18     0.4746     0.0337
     1627.0      38.37     0.4905     0.0288
     1627.0      40.49     0.4473     0.0156
     1627.0      42.46     0.4270     0.0149
     1627.0      45.48     0.3718     0.0130
     1627.0      50.47     0.2604     0.0153
     1627.0      52.58     0.2268     0.0106
     1627.0      55.45     0.1683     0.0140
     1627.0      60.44     0.1383     0.0098
     1627.0      65.59     0.1204     0.0085
     1627.0      70.61     0.1287     0.0091
     1627.0      72.73     0.1173     0.0083
     1627.0      75.61     0.1132     0.0094
     1627.0      80.60     0.0910     0.0053
     1627.0      82.72     0.0792     0.0056
     1627.0      85.75     0.0722     0.0051
     1627.0      90.75     0.0628     0.0045
     1627.0      95.60     0.0579     0.0034
     1627.0     100.76     0.0571     0.0019
     1627.0     105.77     0.0570     0.0055
     1627.0     110.76     0.0490     0.0041
     1627.0     115.76     0.0417     0.0025
     1627.0     120.77     0.0398     0.0019
     1627.0     125.78     0.0392     0.0028
     1627.0     130.78     0.0387     0.0018
     1627.0     135.79     0.0378     0.0027
     1627.0     140.50     0.0377     0.0022
     1627.0     145.19     0.0306     0.0022
     1627.0     150.20     0.0327     0.0023
     1627.0     155.06     0.0350     0.0025
     1627.0     159.17     0.0370     0.0026
     1627.0     160.07     0.0361     0.0021
     1627.0     164.94     0.0404     0.0024
     1627.0     168.88     0.0386     0.0027
     2235.0      12.54     1.6587     0.4088
     2235.0      14.97     1.5120     0.2685
     2235.0      17.41     2.0231     0.2681
     2235.0      19.99     1.8574     0.1227
     2235.0      22.58     2.1559     0.1903
     2235.0      25.17     2.8238
     2235.0      28.21     3.4940
     2235.0      30.19     4.4169
     2235.0      35.37     5.7024
     2235.0      38.25     5.9074
     2235.0      40.38     5.5801
     2235.0      42.35     5.1232
     2235.0      45.38     4.6370
     2235.0      50.53     3.2031
     2235.0      52.50     2.6623
     2235.0      55.53     2.1053
     2235.0      60.54     1.7745
     2235.0      65.40     1.6405
     2235.0      70.41     1.5058
     2235.0      72.53     1.4634
     2235.0      75.57     1.4946
     2235.0      80.58     1.3817
     2235.0      82.71     1.4213
     2235.0      85.74     1.1400
     2235.0      90.74     0.8824
     2235.0      95.74     0.6638
     2235.0     100.90     0.5400
     2235.0     105.75     0.4519
     2235.0     110.76     0.3975
     2235.0     115.62     0.3917
     2235.0     120.64     0.4029
     2235.0     125.49     0.3620
     2235.0     130.65     0.3073
     2235.0     135.35     0.2362
     2235.0     140.35     0.1908
     2235.0     145.21     0.1487
     2235.0     150.07     0.1642
     2235.0     155.25     0.2444
     2235.0     159.05     0.2757
     2235.0     160.11     0.2897
     2235.0     164.98     0.3245
     2235.0     168.92     0.2936
     2739.0      25.23     0.3280     0.0525
     2739.0      28.42     0.3018     0.0355
     2739.0      30.24     0.3024
     2739.0      35.40     0.2755
     2739.0      40.55     0.2605
     2739.0      42.51     0.2709
     2739.0      45.55     0.2493
     2739.0      50.58     0.2056
     2739.0      52.55     0.2036
     2739.0      55.60     0.1761
     2739.0      60.57     0.2054
     2739.0      65.71     0.2144
     2739.0      70.59     0.1662
     2739.0      72.71     0.1666
     2739.0      75.76     0.1477
     2739.0      80.68     0.0894
     2739.0      82.81     0.0864
     2739.0      85.83     0.0888
     2739.0      90.71     0.0715
     2739.0      95.73     0.0627     0.0074
     2739.0     100.74     0.0557
     2739.0     105.76     0.0471
     2739.0     110.61     0.0451
     2739.0     115.63     0.0386
     2739.0     120.47     0.0388
     2739.0     125.48     0.0362
     2739.0     130.63     0.0343
     2739.0     135.49     0.0308     0.0032
     2739.0     140.34     0.0306
     2739.0     145.17     0.0331
     2739.0     150.20     0.0254     0.0037
     2739.0     154.98     0.0379
     2739.0     159.06     0.0391
     2739.0     160.08     0.0489
     2739.0     165.10     0.0418
     2739.0     168.91     0.0371
     2807.0      25.11     0.2000     0.0208
     2807.0      28.13     0.2082     0.0350
     2807.0      30.26     0.1914
     2807.0      35.22     0.2318
     2807.0      38.31     0.1585     0.0277
     2807.0      40.20     0.2511
     2807.0      42.32     0.2486
     2807.0      45.25     0.1876
     2807.0      50.28     0.1510
     2807.0      52.27     0.1337
     2807.0      55.36     0.0903
     2807.0      70.45     0.0477
     2807.0      72.54     0.0575
     2807.0      75.53     0.0678
     2807.0      80.54     0.0649
     2807.0      82.66     0.0643
     2807.0      85.47     0.0383     0.0040
     2807.0      95.52     0.0264     0.0031
     2807.0     100.33     0.0131
     2807.0     105.24     0.0219
     2807.0     110.39     0.0212
     2807.0     115.39     0.0196     0.0023
     2807.0     120.24     0.0187     0.0022
     2807.0     125.09     0.0184     0.0032
     2807.0     130.10     0.0170
     2807.0     145.03     0.0094     0.0014
     2807.0     149.96     0.0139     0.0030
     2807.0     154.85     0.0253
     2807.0     158.87     0.0359
     2807.0     159.93     0.0364     0.0033
     2807.0     164.65     0.0304
     2807.0     168.76     0.0270
     2981.0      20.34     0.2921     0.0468
     2981.0      28.43     0.2008     0.0321
     2981.0      35.38     0.0861     0.0091
     2981.0      60.51     0.0341     0.0040
     2981.0      65.64     0.0374     0.0035
     2981.0      70.70     0.0253     0.0024
     2981.0      82.85     0.0203
     2981.0      85.72     0.0206     0.0024
     2981.0      90.60     0.0164
     2981.0     100.62     0.0328
     2981.0     105.47     0.0135
     2981.0     120.48     0.0111     0.0015
     2981.0     125.41     0.0070     0.0012
     2981.0     130.29     0.0056     0.0009
     2981.0     135.23     0.0073     0.0011
     2981.0     150.18     0.0090     0.0011
     2981.0     155.08     0.0063     0.0009
     2981.0     159.00     0.0072     0.0008
     2981.0     165.03     0.0080     0.0009
     2981.0     168.85     0.0066     0.0006
     3088.0      30.34     0.0474     0.0069
     3088.0      35.39     0.0333     0.0115
     3088.0      38.51     0.0467     0.0185
     3088.0      40.43     0.0265     0.0054
     3088.0      45.53     0.0337     0.0057
     3088.0      50.43     0.0237     0.0070
     3088.0      52.57     0.0210     0.0049
     3088.0      55.57     0.0244     0.0043
     3088.0      60.63     0.0423     0.0056
     3088.0      65.63     0.0158     0.0032
     3088.0      70.67     0.0295     0.0035
     3088.0      72.66     0.0268     0.0035
     3088.0      75.72     0.0213     0.0025
     3088.0      80.81     0.0302     0.0040
     3088.0      85.77     0.0152     0.0031
     3088.0      90.75     0.0159     0.0021
     3088.0      95.71     0.0083     0.0033
     3088.0     100.62     0.0130     0.0015
     3088.0     105.62     0.0128     0.0012
     3088.0     110.49     0.0106     0.0012
     3088.0     115.46     0.0129     0.0012
     3088.0     120.47     0.0117     0.0007
     3088.0     125.31     0.0115     0.0015
     3088.0     130.34     0.0095     0.0011
     3088.0     135.35     0.0086     0.0010
     3088.0     140.15     0.0045     0.0009
     3088.0     145.07     0.0069     0.0014
     3088.0     158.99     0.0173     0.0025
     3088.0     160.03     0.0194     0.0023
     3088.0     164.94     0.0130     0.0017
     3088.0     168.88     0.0123     0.0011
     3287.0      20.32     0.1284     0.0466
     3287.0      25.37     0.0913     0.0173
     3287.0      28.35     0.1189     0.0243
     3287.0      30.43     0.0618     0.0108
     3287.0      35.53     0.0837     0.0087
     3287.0      38.60     0.0640     0.0221
     3287.0      40.44     0.0553     0.0058
     3287.0      42.56     0.0561     0.0082
     3287.0      45.57     0.0606     0.0080
     3287.0      50.63     0.0421     0.0067
     3287.0      52.58     0.0449     0.0059
     3287.0      55.61     0.0439     0.0046
     3287.0      60.64     0.0371     0.0049
     3287.0      80.68     0.0045     0.0017
     3287.0      90.84     0.0094     0.0015
     3287.0      95.82     0.0099     0.0026
     3287.0     100.69     0.0087     0.0014
     3287.0     105.59     0.0063     0.0007
     3287.0     110.54     0.0033     0.0008
     3287.0     120.46     0.0049     0.0009
     3287.0     125.28     0.0055     0.0016
     3287.0     140.24     0.0064     0.0008
     3287.0     145.17     0.0039     0.0011
     3287.0     150.26     0.0054     0.0026
     3287.0     155.11     0.0021     0.0010
     3287.0     159.04     0.0053     0.0009
     3287.0     160.06     0.0067     0.0011
     3287.0     165.09     0.0023     0.0009
     3287.0     168.93     0.0039     0.0007
     3694.0      28.20     0.0677     0.0320
     3694.0      30.48     0.0985     0.0118
     3694.0      40.53     0.0821
     3694.0      42.44     0.1097     0.0098
     3694.0      45.65     0.1077     0.0096
     3694.0      50.49     0.0922     0.0093
     3694.0      52.70     0.0914     0.0103
     3694.0      55.67     0.0987
     3694.0      60.58     0.0690     0.0070
     3694.0      65.90     0.0886
     3694.0      70.89     0.0495     0.0050
     3694.0      72.73     0.0432     0.0040
     3694.0      75.74     0.0415     0.0046
     3694.0      80.74     0.0422
     3694.0      82.78     0.0368     0.0030
     3694.0      86.01     0.0335     0.0043
     3694.0      90.87     0.0278     0.0025
     3694.0     100.85     0.0154     0.0014
     3694.0     110.80     0.0177     0.0018
     3694.0     115.44     0.0156     0.0023
     3694.0     120.76     0.0201
     3694.0     135.54     0.0113     0.0018
     3694.0     150.25     0.0078     0.0058
     3694.0     155.03     0.0083     0.0013
     3694.0     159.00     0.0093     0.0015
     3694.0     160.12     0.0118     0.0013
     3694.0     164.82     0.0086     0.0011
     3694.0     168.76     0.0102     0.0010
ENDDATA            367
ENDSUBENT          398
SUBENT        O0580006   20120604   20120921   20120918       O048
BIB                  5          8
REACTION   (42-MO-100(P,EL)42-MO-100,,DA,,RTH)
SAMPLE     (42-MO-100,ENR=0.938) Enriched (93.8%) Mo-100 foil
           with 590 mu-g/cm**2 thickness.
ERR-ANALYS (ANG-ERR-D)  Digitizing error
           (ERR-DIG)    Digitizing error
STATUS     (CURVE) Fig.2 from NP/A,468,247,1987
HISTORY    (20120604A) SD: Digitized data were changed on
              digitized data from CNPD.
ENDBIB               8
COMMON               2          3
ANG-ERR-D  ERR-DIG
ADEG       PER-CENT
 0.12        0.1
ENDCOMMON            3
DATA                 2         37
ANG-CM     DATA
ADEG       NO-DIM
       7.51     0.8402
      10.07     0.7442
      12.62     0.6657
      15.19     0.6196
      17.63     0.6559
      20.20     0.6351
      22.63     0.6151
      25.34     0.5723
      30.33     0.5108
      35.35     0.5394
      40.49     0.4813
      45.50     0.2516
      50.61     0.1037
      55.67     0.2442
      60.72     0.5695
      65.64     0.7405
      70.59     0.5640
      75.55     0.2419
      80.76     0.0770
      85.65     0.1744
      90.69     0.3871
      95.76     0.4886
     100.73     0.4068
     105.79     0.2618
     110.60     0.1112
     115.66     0.0702
     120.64     0.1228
     125.76     0.1908
     130.67     0.2360
     135.62     0.1871
     140.53     0.1192
     145.21     0.0543
     150.30     0.0397
     155.31     0.0760
     158.11     0.1051
     165.08     0.1891
     168.12     0.1866
ENDDATA             39
ENDSUBENT           56
SUBENT        O0580007   20120604   20120921   20120918       O048
BIB                  7         20
REACTION   (42-MO-100(P,INL)42-MO-100,PAR,DA)
EN-SEC     (E-LVL,42-MO-100)
SAMPLE     (42-MO-100,ENR=0.938) Enriched (93.8%) Mo-100 foil
           with 590 mu-g/cm**2 thickness.
LEVEL-PROP (42-MO-100,E-LVL=0.535,SPIN=2.,PARITY=+1.)
           (42-MO-100,E-LVL=1.908,SPIN=3.,PARITY=-1.)
           (42-MO-100,E-LVL=0.694,SPIN=0.,PARITY=+1.)
           (42-MO-100,E-LVL=1.063,SPIN=2.,PARITY=+1.)
           (42-MO-100,E-LVL=1.135,SPIN=4.,PARITY=+1.)
           (42-MO-100,E-LVL=2.202,SPIN=2.,PARITY=-1.)
           (42-MO-100,E-LVL=2.371,SPIN=3.,PARITY=-1.)
           (42-MO-100,E-LVL=2.658,SPIN=4.,PARITY=-1.)
           (42-MO-100,E-LVL=3.050,SPIN=5.,PARITY=-1.)
ERR-ANALYS (ANG-ERR-D)  Digitizing error
           (ERR-DIG)    Digitizing error
           (ERR-S)   Error from the graphic bar results from
           peak-integrating procedure and is related to statistics
STATUS     (CURVE) Fig.3c,6,10 from NP/A,468,247,1987
HISTORY    (20120604A) SD: Digitized data were changed on
              digitized data from CNPD.
ENDBIB              20
COMMON               2          3
ANG-ERR-D  ERR-DIG
ADEG       PER-CENT
 0.12        0.1
ENDCOMMON            3
DATA                 4        231
E-LVL      ANG-CM     DATA-CM    ERR-S
KEV        ADEG       MB/SR      MB/SR
     535.00      12.46     3.3770     0.2738
     535.00      15.00     6.4115     0.3261
     535.00      17.59    11.1810     0.5687
     535.00      20.21    13.6770     0.3933
     535.00      22.78    18.3460     0.3942
     535.00      25.35    18.4000
     535.00      30.48    19.0410
     535.00      35.61     8.1205
     535.00      40.52     4.0183
     535.00      45.54     3.7916
     535.00      50.63     4.2118
     535.00      55.74     3.4246
     535.00      60.86     2.6686
     535.00      65.91     1.7789
     535.00      70.91     1.7639
     535.00      75.95     1.6294
     535.00      80.83     1.5156
     535.00      85.52     1.1393
     535.00      90.45     0.7175
     535.00      95.55     0.5875     0.0084
     535.00     100.63     0.6620
     535.00     105.42     0.7247
     535.00     110.63     0.6462
     535.00     115.51     0.4526     0.0164
     535.00     120.53     0.3193
     535.00     125.57     0.2908
     535.00     130.50     0.3276
     535.00     135.47     0.3463
     535.00     140.53     0.3065
     535.00     145.40     0.2871
     535.00     150.39     0.2888
     535.00     155.16     0.3370
     535.00     158.17     0.3454
     535.00     165.29     0.3433
     535.00     168.12     0.2765
     694.00      20.01     0.2531     0.0836
     694.00      30.17     0.1113     0.0178
     694.00      45.29     0.0129     0.0033
     694.00      50.48     0.0437     0.0053
     694.00      55.58     0.0522     0.0050
     694.00      75.74     0.0205     0.0038
     694.00      80.67     0.0280     0.0020
     694.00      85.67     0.0267     0.0029
     694.00      90.64     0.0297     0.0021
     694.00      95.42     0.0194     0.0021
     694.00     100.55     0.0199     0.0017
     694.00     105.45     0.0154     0.0015
     694.00     110.36     0.0106     0.0010
     694.00     120.44     0.0138     0.0011
     694.00     125.56     0.0153     0.0011
     694.00     130.37     0.0174     0.0012
     694.00     135.24     0.0153     0.0009
     694.00     140.27     0.0126     0.0009
     694.00     145.29     0.0054     0.0004
     694.00     150.19     0.0020     0.0003
     694.00     155.04     0.0038     0.0006
     694.00     165.03     0.0153     0.0009
     694.00     167.84     0.0206     0.0015
     1063.0      15.12     0.7163     0.1147
     1063.0      19.94     0.7987     0.0867
     1063.0      22.48     0.9402     0.0723
     1063.0      25.16     1.0944
     1063.0      30.18     0.9712
     1063.0      35.34     0.9127
     1063.0      40.41     0.6299
     1063.0      45.43     0.5590
     1063.0      50.48     0.2105
     1063.0      55.56     0.1404
     1063.0      60.53     0.1548
     1063.0      65.64     0.1767
     1063.0      70.78     0.1798
     1063.0      75.70     0.1213
     1063.0      80.70     0.1166
     1063.0      85.71     0.0539
     1063.0      90.58     0.0468
     1063.0      95.50     0.0330
     1063.0     100.43     0.0427
     1063.0     105.48     0.0649
     1063.0     110.48     0.0631
     1063.0     115.40     0.0435
     1063.0     120.48     0.0287
     1063.0     125.40     0.0203
     1063.0     130.44     0.0157
     1063.0     135.53     0.0203
     1063.0     140.48     0.0248
     1063.0     145.26     0.0321     0.0031
     1063.0     150.49     0.0429
     1063.0     155.28     0.0543     0.0045
     1063.0     158.15     0.0539     0.0058
     1063.0     165.10     0.0575
     1063.0     167.89     0.0405
     1135.0      15.08     0.6691     0.1159
     1135.0      20.06     0.3675     0.0637
     1135.0      22.54     0.2803     0.0524
     1135.0      25.08     0.3152     0.0302
     1135.0      30.27     0.2525     0.0241
     1135.0      35.25     0.2630     0.0219
     1135.0      40.30     0.2035     0.0144
     1135.0      50.42     0.2183     0.0155
     1135.0      60.65     0.1416     0.0100
     1135.0      65.61     0.1635     0.0116
     1135.0      70.64     0.1340     0.0079
     1135.0      75.75     0.0806     0.0057
     1135.0      80.75     0.0758     0.0054
     1135.0      85.77     0.0673     0.0039
     1135.0      90.69     0.0932     0.0066
     1135.0      95.44     0.0689     0.0057
     1135.0     100.59     0.0678     0.0056
     1135.0     105.46     0.0601     0.0043
     1135.0     110.47     0.0540     0.0038
     1135.0     115.37     0.0423     0.0030
     1135.0     120.40     0.0354     0.0025
     1135.0     125.36     0.0395     0.0028
     1135.0     130.35     0.0411     0.0050
     1135.0     135.31     0.0454     0.0027
     1135.0     140.30     0.0467     0.0033
     1135.0     145.32     0.0405     0.0034
     1135.0     150.18     0.0381     0.0017
     1135.0     155.21     0.0312     0.0022
     1135.0     157.97     0.0270     0.0019
     1908.0      17.53     2.2765     0.3105
     1908.0      20.13     2.1878     0.1611
     1908.0      22.61     2.6204
     1908.0      25.20     3.3702
     1908.0      30.35     4.5362
     1908.0      35.41     5.3719
     1908.0      40.60     4.9614
     1908.0      45.44     3.7009
     1908.0      50.65     2.3959
     1908.0      55.70     1.5955
     1908.0      60.74     1.4423
     1908.0      65.88     1.4713
     1908.0      71.05     1.3981
     1908.0      76.13     1.5866
     1908.0      80.72     1.0711
     1908.0      85.62     0.9544
     1908.0      90.63     0.6872
     1908.0      95.48     0.4948
     1908.0     100.44     0.3963
     1908.0     105.38     0.3289
     1908.0     110.68     0.3262
     1908.0     115.52     0.3233
     1908.0     120.55     0.3007
     1908.0     125.48     0.2550
     1908.0     130.43     0.2042
     1908.0     135.50     0.1303
     1908.0     140.52     0.0932
     1908.0     145.42     0.0830
     1908.0     150.34     0.0955
     1908.0     155.31     0.1361
     1908.0     158.33     0.1375
     1908.0     165.13     0.1868
     1908.0     168.07     0.1649
     2202.0      20.27     0.3830     0.1244
     2202.0      22.95     0.2146     0.0528
     2202.0      30.44     0.1296     0.0260
     2202.0      35.65     0.1136     0.0132
     2202.0      40.67     0.1111     0.0113
     2202.0      45.76     0.0904     0.0080
     2202.0      50.76     0.0643     0.0066
     2202.0      55.72     0.0493     0.0064
     2202.0      60.88     0.0246     0.0050
     2202.0      65.97     0.0279     0.0044
     2202.0      71.02     0.0253     0.0033
     2202.0      85.80     0.0106     0.0023
     2202.0     100.72     0.0064     0.0013
     2202.0     110.78     0.0040     0.0009
     2202.0     135.57     0.0046     0.0007
     2202.0     155.37     0.0073     0.0009
     2202.0     158.16     0.0032     0.0006
     2371.0      20.11     0.0416     0.0128
     2371.0      35.40     0.0308
     2371.0      40.60     0.0390
     2371.0      45.49     0.0354
     2371.0      50.75     0.0274
     2371.0      65.85     0.0110
     2371.0      75.87     0.0107
     2371.0      80.94     0.0129
     2371.0      90.58     0.0105
     2371.0      95.65     0.0062
     2371.0     100.58     0.0037
     2371.0     110.69     0.0028
     2371.0     115.84     0.0040
     2371.0     120.34     0.0046
     2371.0     125.42     0.0038
     2371.0     130.43     0.0026
     2371.0     135.26     0.0027
     2371.0     145.23     0.0015
     2371.0     150.16     0.0017
     2371.0     155.10     0.0028
     2371.0     165.15     0.0036
     2371.0     167.97     0.0041
     2658.0      30.24     0.0828     0.0229
     2658.0      50.44     0.0373     0.0043
     2658.0      60.69     0.0304     0.0052
     2658.0      65.57     0.0201     0.0038
     2658.0      80.57     0.0200     0.0032
     2658.0      85.70     0.0076     0.0024
     2658.0      95.52     0.0162     0.0023
     2658.0     100.47     0.0181     0.0021
     2658.0     115.52     0.0116     0.0020
     2658.0     120.30     0.0095     0.0012
     2658.0     130.27     0.0074     0.0009
     2658.0     135.34     0.0044     0.0008
     2658.0     140.26     0.0076     0.0007
     2658.0     145.13     0.0072     0.0006
     2658.0     150.18     0.0092     0.0007
     2658.0     155.13     0.0103     0.0011
     2658.0     165.06     0.0087     0.0009
     2658.0     167.98     0.0078     0.0008
     3050.0      22.54     0.2281     0.0595
     3050.0      30.19     0.1378     0.0318
     3050.0      35.36     0.1852
     3050.0      40.32     0.2046
     3050.0      55.56     0.1692
     3050.0      60.69     0.1250
     3050.0      65.68     0.1299
     3050.0      80.76     0.0529
     3050.0      85.59     0.0274     0.0039
     3050.0      90.54     0.0310     0.0032
     3050.0      95.62     0.0368
     3050.0     105.62     0.0259     0.0027
     3050.0     110.49     0.0247
     3050.0     115.62     0.0185
     3050.0     130.31     0.0134     0.0012
     3050.0     135.34     0.0087     0.0009
     3050.0     145.30     0.0069     0.0018
     3050.0     150.23     0.0113
     3050.0     155.19     0.0127     0.0015
     3050.0     158.13     0.0109     0.0014
     3050.0     165.02     0.0133     0.0011
ENDDATA            233
ENDSUBENT          262
SUBENT        O0580008   20120604   20120921   20120918       O048
BIB                  5          7
REACTION   (42-MO-94(P,INL)42-MO-94,PAR,SIG)
SAMPLE     (42-MO-94,ENR=0.884) Enriched (88.4%) Mo-94 foil with
                                670 mu-g/cm**2 thickness.
ERR-ANALYS (E-LVL-ERR) Overall mean error taking into account
           uncertainties of calibration.
STATUS     (TABLE) Table 2 from NP/A,468,247,1987
HISTORY    (20120604C) SD: Tabulated data were added from F0506.
ENDBIB               7
COMMON               1          3
E-LVL-ERR
KEV
 5.
ENDCOMMON            3
DATA                 2         20
E-LVL      DATA
KEV        MB
         0.      1384.
       871.       13.6
      1573.       2.18
      1741.       0.16
      1864.       0.31
      2066.       1.17
      2421.       0.39
      2534.       14.6
      2610.       1.67
      2768.       1.10
      2868.       0.87
      2960.       0.21
      3012.       0.88
      3166.       0.26
      3202.       0.24
      3262.       0.17
      3532.        0.6
      3702.       0.43
      3852.       0.35
      4095.       0.85
ENDDATA             22
ENDSUBENT           38
SUBENT        O0580009   20120604   20120921   20120918       O048
BIB                  5          7
REACTION   (42-MO-96(P,INL)42-MO-96,PAR,SIG)
SAMPLE     Target thickness was 390 mu-g/cm2, isotopic
           enrichment was 96.7%.
ERR-ANALYS (E-LVL-ERR) Overall mean error taking into account
           uncertainties of calibration.
STATUS     (TABLE) Table 3 from NP/A,468,247,1987
HISTORY    (20120604C) SD: Tabulated data were added from F0506.
ENDBIB               7
COMMON               1          3
E-LVL-ERR
KEV
 5.
ENDCOMMON            3
DATA                 2         29
E-LVL      DATA
KEV        MB
         0.      1412.
       778.       19.9
      1148.       0.21
      1498.       1.19
      1627.       1.49
      1870.       1.74
      2234.       16.6
      2432.       0.44
      2481.       1.53
      2625.       0.92
      2734.       1.51
      2807.       1.11
      2875.       0.27
      2981.       0.49
      3020.       2.28
      3088.       0.24
      3182.       1.22
      3287.        0.3
      3342.       0.22
      3430.       0.89
      3549.       0.29
      3597.       0.25
      3694.       0.52
      3736.       0.48
      3866.       0.39
      3965.       0.44
      4038.       0.34
      4098.        0.5
      4215.       0.57
ENDDATA             31
ENDSUBENT           47
SUBENT        O0580010   20120604   20120921   20120918       O048
BIB                  5          7
REACTION   (42-MO-100(P,INL)42-MO-100,PAR,SIG)
SAMPLE     (42-MO-100,ENR=0.938) Enriched (93.8%) Mo-100 foil
           with 590 mu-g/cm**2 thickness.
ERR-ANALYS (E-LVL-ERR) Overall mean error taking into account
           uncertainties of calibration.
STATUS     (TABLE) Table 4 from NP/A,468,247,1987
HISTORY    (20120604C) SD: Tabulated data were added from F0506.
ENDBIB               7
COMMON               1          3
E-LVL-ERR
KEV
 5.
ENDCOMMON            3
DATA                 2         26
E-LVL      DATA
KEV        MB
         0.      1526.
       535.       29.0
       694.       0.33
      1063.       2.20
      1135.       1.49
      1463.        0.3
      1908.       13.9
      2101.       0.59
      2158.       0.64
      2202.        0.5
      2288.        0.7
      2342.       0.94
      2371.       1.53
      2418.        1.2
      2516.       1.52
      2565.       0.71
      2610.       1.23
      2658.       0.40
      2740.       0.43
      2812.        0.9
      2838.        1.0
      2931.        0.8
      3000.        0.6
      3050.       0.95
      3296.       0.37
      3365.        0.5
ENDDATA             28
ENDSUBENT           44
ENDENTRY            10
