ENTRY            41332   20111219   20120210   20120207       4155
SUBENT        41332001   20111219   20120210   20120207       4155
BIB                 13         51
TITLE      .Inelastic neutron scattering and prompt fission
            neutron spectra for 237Np.
AUTHOR     (N.V.Kornilov,A.V.Kagalenko,V.Ya.Baryba,V.G.Demenkov,
           C.V.Pupko,P.A.Androsenko,A.A.Lychagin,B.V.Zhuravlev,
           V.I.Trykova)
INSTITUTE  (4RUSFEI)
REFERENCE  (J,ANE,27,1643,200002) Exp. details, graphs,tables
           #doi:10.1016/S0306-4549(00)00020-7
           (C,97TRIEST,1,577,199705)  Experiment description
                                      and graphs
           (W,KORNILOV,199712)   Data are given on diskette
           ((S,ISINN-5,297,199705)=(R,JINR-E3-97-213,297,199705))
            First exp.results. Graphs only.
           ((S,ISINN-5,304,199705)=(R,JINR-E3-97-213,304,199705))
            Measurement for 0.52 MeV inc.neutron energy.
METHOD     (TOF) Flight base is 2 m .
DETECTOR   (SOLST) Cylindrical stilbene detector 70 mm diameter,
                   50 mm height shielded by lead from gammas
                   emitted by Np.
           (LONGC) For relative measurements
           (SCIN)  Two plastic scintillation counters for time-of
                   flight monitoring
MONITOR    (98-CF-252(0,F),PR,NU/DE)
            Main parameters of detector were measured by standard
            Cf-252 fission neutron spectrum.
           (6-C-12(N,EL)6-C-12,,DE) Neutron scattering on C sample
             was measured to normalize Np data.
FACILITY   (VDG,4RUSFEI) EG-1 accelerator,
             ion current is 4-6 microAmper
INC-SOURCE (P-T)  For neutron with energies 1 - 2.5 MeV
           (P-LI7) For neutron with energies 0.5 MeV
SAMPLE     .Neptunium oxide Np-O2 in stainless-steel container
            having cylindrical shape, wall thickness is 0.1 mm.
            Container weight is 19.9 gram. neptunium oxide powder
            has dimensions 45 mm height, 47 mm diameter,
            weight of Np-O2 is 189.1 gram.
            Carbon sample of 47 mm outer diameter, 27 mm inner
            diameter, 45 mm height, weight 82.8 g.
CORRECTION For scattering on the oxygen and iron nuclei,
           For effect of finite sample size,
           For neutron background.
STATUS     (APRVD) .Data are obtained from the author
           (TABLE)
HISTORY    (19990906C)  + +  Compiled at the center - CJD
           (20051028U) 3d Reference was added. (M.M.)
           (20090429A) M.M.  References S,ISINN-5,297,
             S,ISINN-5,304 were added.
            Free text was corrected to be human-readable.
            BIB information was added.
           (20111219A) Reaction in Subent 002 was corrected
            according to memo CP-D/701.
ENDBIB              51
NOCOMMON             0          0
ENDSUBENT           54
SUBENT        41332002   20111219   20120210   20120207       4155
BIB                  4          6
REACTION   (93-NP-237(N,F),PR,NU/DE)
ANALYSIS    The spectrum normalization was adjusted
             by fitting the evaluated curve to experimental data.
ERR-ANALYS (ERR-S)  Relative Stat. Error - dN/N
HISTORY    (20090429A) 1/MEV -> PT/FIS/MEV .
           (20111219A) PR,DE,N -> PR,NU/DE
ENDBIB               6
COMMON               1          3
EN
MEV
 0.52
ENDCOMMON            3
DATA                 3         44
E          DATA       ERR-S
MEV        PT/FIS/MEV PER-CENT
  0.71       3.750E-01   2.5
  0.89       3.610E-01   2.4
  1.09       3.420E-01   2.4
  1.30       3.230E-01   2.9
  1.50       2.930E-01   3.4
  1.70       2.710E-01   3.4
  1.90       2.400E-01   3.7
  2.09       2.230E-01   3.7
  2.29       2.020E-01   3.9
  2.49       1.850E-01   4.0
  2.69       1.570E-01   4.4
  2.88       1.420E-01   4.5
  3.10       1.270E-01   4.6
  3.29       1.120E-01   5.8
  3.50       9.530E-02   4.8
  3.74       8.090E-02   6.0
  3.94       7.330E-02   6.3
  4.11       6.660E-02   6.4
  4.28       5.790E-02   6.5
  4.47       5.100E-02   6.6
  4.67       4.510E-02   6.7
  4.88       3.990E-02   7.0
  5.11       3.370E-02   7.3
  5.36       2.840E-02   7.5
  5.53       2.470E-02   7.6
  5.71       2.230E-02   7.8
  5.90       2.110E-02   8.4
  6.11       1.790E-02   8.2
  6.32       1.430E-02   8.9
  6.54       1.270E-02  10.0
  6.78       1.010E-02  10.2
  7.02       8.910E-03  10.8
  7.29       7.120E-03  11.8
  7.56       5.190E-03  13.6
  7.85       5.210E-03  14.8
  8.16       4.550E-03  14.4
  8.49       4.030E-03  17.0
  8.84       2.590E-03  19.0
  9.21       1.900E-03  23.1
  9.61       1.370E-03  29.0
 10.0        5.000E-04  57.9
 10.5        1.050E-03  32.5
 11.0        2.160E-04  55.0
 12.0        1.380E-04  57.0
ENDDATA             46
ENDSUBENT           61
SUBENT        41332003   20090429   20090724   20090724       4146
BIB                  5         21
REACTION   ((93-NP-237(N,F),PR,NU,,REL)*(93-NP-237(N,F),,SIG))
MISC-COL   (MISC)(((93-NP-237(N,F),PR,NU)*(93-NP-237(N,F),,SIG))/
             ((93-NP-237(N,F),PR,NU,,,EVAL)*
             (93-NP-237(N,F),,SIG,,,EVAL)))
            Deviation from ENDF/B-VI evaluation.
COMMENT    -The experimental (SIG-FISS*NU) values and their ratio
           to ENDF/B-6 data.
           -The errors of the fitting procedure are given
           in brackets.
           -The systematic errors due to normalization was not
           included.
            Eo, MeV (SFN)exp        ratio (SFN)exp/(SFN)eval
            0.99    3.89 (1.3%)     0.963
            1.00    4.00 (1.3%)     0.989
            1.46    4.53 (1.1%)     1.010
            1.49    4.50 (1.2%)     0.999
            1.77    5.02 (1.0%)     1.055
            1.99    5.05 (1.0%)     1.031
            2.47    5.25 (1.2%)     1.058
ERR-ANALYS (DATA-ERR)  Error of the fitting procedure
HISTORY    (20090429A)  DATA 2 were moved in MISC.
ENDBIB              21
NOCOMMON             0          0
DATA                 4          7
EN         DATA       DATA-ERR   MISC
MEV        ARB-UNITS  PER-CENT   NO-DIM
 0.99        3.89      1.3           0.963
 1.00        4.00      1.3           0.989
 1.46        4.53      1.1           1.010
 1.49        4.50      1.2           0.999
 1.77        5.02      1.0           1.055
 1.99        5.05      1.0           1.031
 2.47        5.25      1.2           1.058
ENDDATA              9
ENDSUBENT           35
SUBENT        41332004   20090429   20090724   20090724       4146
BIB                  3          3
REACTION   (93-NP-237(N,SCT)93-NP-237,,DA/DE)
ERR-ANALYS (ERR-S)  Relative Stat.Error
STATUS      Data are presented partly on Fig.4 of S,ISINN-5,297.
ENDBIB               3
COMMON               1          3
ANG
ADEG
120.
ENDCOMMON            3
DATA                 4        229
EN         E          DATA       ERR-S
MEV        MEV        MB/SR/MEV  PER-CENT
 0.99        0.241       157.9      080.
 0.99        0.274       128.0      086.
 0.99        0.325       90.0       100.
 0.99        0.375       71.6       078.
 0.99        0.425       102.3      046.
 0.99        0.474       100.1      038.
 0.99        0.524       153.9      026.
 0.99        0.573       172.3      019.
 0.99        0.624       208.5      017.
 0.99        0.673       152.1      030.
 0.99        0.721       106.1      050.
 0.99        0.774       30.4       100.
 0.99        0.827       101.8      100.
 0.99        0.875       332.1      041.
 0.99        0.921       908.7      006.
 0.99        0.971       1568.6     004.
 0.99        1.026       913.8      004.
 0.99        1.077       173.7      010.
 1.00        0.176       229.9      058.
 1.00        0.224       146.5      070.
 1.00        0.274       138.4      072.
 1.00        0.325       96.3       100.
 1.00        0.375       95.6       063.
 1.00        0.425       126.0      040.
 1.00        0.474       134.1      028.
 1.00        0.524       166.7      023.
 1.00        0.573       191.1      018.
 1.00        0.624       205.9      016.
 1.00        0.673       157.0      029.
 1.00        0.721       104.2      056.
 1.00        0.774       87.6       100.
 1.00        0.827       200.7      100.
 1.00        0.875       476.4      022.
 1.00        0.921       1003.5     005.
 1.00        0.971       1405.5     003.
 1.00        1.026       728.0      004.
 1.00        1.077       101.8      013.
 1.00        1.124       0.0        100.
 1.46        0.175       190.7      045.
 1.46        0.224       69.6       068.
 1.46        0.274       77.8       065.
 1.46        0.325       76.4       072.
 1.46        0.375       162.4      025.
 1.46        0.425       123.2      031.
 1.46        0.474       74.4       035.
 1.46        0.524       58.5       053.
 1.46        0.573       62.9       039.
 1.46        0.624       71.0       027.
 1.46        0.673       64.6       026.
 1.46        0.721       47.1       024.
 1.46        0.774       18.3       061.
 1.46        0.827       5.4        100.
 1.46        0.875       21.3       052.
 1.46        0.921       20.9       049.
 1.46        0.971       36.0       029.
 1.46        1.026       60.9       020.
 1.46        1.077       79.6       021.
 1.46        1.124       56.4       057.
 1.46        1.174       32.5       100.
 1.46        1.228       37.2       100.
 1.46        1.276       92.7       060.
 1.46        1.326       283.1      011.
 1.46        1.380       630.0      007.
 1.46        1.425       898.0      005.
 1.46        1.473       799.2      005.
 1.46        1.523       392.7      006.
 1.46        1.575        80.6      011.
 1.46        1.630        11.4      065.
 1.49        0.239       103.4      070.
 1.49        0.274       90.6       067.
 1.49        0.323       101.8      064.
 1.49        0.373       97.1       042.
 1.49        0.425       133.2      029.
 1.49        0.476       108.3      028.
 1.49        0.524       92.6       035.
 1.49        0.573       68.6       043.
 1.49        0.624       40.7       053.
 1.49        0.673       75.7       026.
 1.49        0.725       61.4       021.
 1.49        0.773       11.3       100.
 1.49        0.822       17.2       067.
 1.49        0.875       20.8       054.
 1.49        0.927       15.0       073.
 1.49        0.978       27.0       041.
 1.49        1.026       52.9       025.
 1.49        1.069       74.7       020.
 1.49        1.124       81.9       028.
 1.49        1.174       67.5       075.
 1.49        1.219       26.2       100.
 1.49        1.276       24.8       100.
 1.49        1.326       102.5      037.
 1.49        1.369       372.0      009.
 1.49        1.425       800.7      005.
 1.49        1.485       906.5      005.
 1.49        1.535       469.7      005.
 1.49        1.575       178.9      007.
 1.49        1.616       46.9       016.
 1.49        1.674       9.4        064.
 1.49        1.734       1.5        100.
 1.77        0.238      216.5       044.
 1.77        0.274      191.8       040.
 1.77        0.325      134.1       049.
 1.77        0.375      126.7       032.
 1.77        0.425      159.6       026.
 1.77        0.474      157.0       019.
 1.77        0.524      96.1        028.
 1.77        0.573      74.3        029.
 1.77        0.624      74.3        028.
 1.77        0.673      72.1        030.
 1.77        0.721      73.5        019.
 1.77        0.774      29.8        043.
 1.77        0.827      2.1         100.
 1.77        0.875      13.8        100.
 1.77        0.921      28.6        039.
 1.77        0.971      43.5        024.
 1.77        1.026      14.2        065.
 1.77        1.077      16.6        058.
 1.77        1.124      3.0         100.
 1.77        1.174      19.1        051.
 1.77        1.228      10.1        100.
 1.77        1.276      25.9        050.
 1.77        1.326      42.9        035.
 1.77        1.380      24.0        100.
 1.77        1.425      13.1        100.
 1.77        1.473      22.5        100.
 1.77        1.523      20.5        100.
 1.77        1.575      70.5        052.
 1.77        1.630      193.6       014.
 1.77        1.674      339.4       009.
 1.77        1.719      534.2       006.
 1.77        1.782      583.8       005.
 1.77        1.832      365.3       006.
 1.77        1.866      223.0       006.
 1.77        1.919       63.1       013.
 1.77        1.975        3.7       100.
 1.77        2.013        3.8       100.
 1.99        0.174      177.4       046.
 1.99        0.224      134.1       043.
 1.99        0.274      148.9       042.
 1.99        0.325      92.0        055.
 1.99        0.375      126.7       028.
 1.99        0.425      128.1       026.
 1.99        0.474      171.0       017.
 1.99        0.524      127.0       020.
 1.99        0.573      91.4        021.
 1.99        0.624      88.6        022.
 1.99        0.673      71.7        027.
 1.99        0.721      61.9        021.
 1.99        0.774      69.4        019.
 1.99        0.827      67.1        019.
 1.99        0.875      48.4        025.
 1.99        0.921      51.8        022.
 1.99        0.971      40.4        028.
 1.99        1.026      19.2        071.
 1.99        1.077      29.8        045.
 1.99        1.124      46.0        024.
 1.99        1.174      6.3         100.
 1.99        1.228      13.2        068.
 1.99        1.276      14.8        071.
 1.99        1.326      10.1        092.
 1.99        1.380      3.0         100.
 1.99        1.425      15.8        077.
 1.99        1.473      27.3        053.
 1.99        1.523      29.7        070.
 1.99        1.575      26.2        100.
 1.99        1.630      13.3        100.
 1.99        1.674      24.4        100.
 1.99        1.719      19.5        100.
 1.99        1.782      83.6        026.
 1.99        1.832      219.2       010.
 1.99        1.866      344.6       007.
 1.99        1.919      428.9       006.
 1.99        1.975      444.5       005.
 1.99        2.013      298.7       006.
 1.99        2.073      121.5       008.
 1.99        2.135      48.7        012.
 1.99        2.178      1.8         100.
 2.47        0.150       53.7       100.
 2.47        0.174       122.8      041.
 2.47        0.224       59.0       063.
 2.47        0.274       79.8       055.
 2.47        0.325       80.9       060.
 2.47        0.375       91.0       034.
 2.47        0.425       82.6       034.
 2.47        0.474       101.0      022.
 2.47        0.524       96.1       024.
 2.47        0.573       85.9       021.
 2.47        0.624       81.8       021.
 2.47        0.673       81.5       021.
 2.47        0.721       83.2       015.
 2.47        0.774       70.9       017.
 2.47        0.827       64.5       018.
 2.47        0.875       66.0       017.
 2.47        0.921       73.8       015.
 2.47        0.971       79.1       013.
 2.47        1.026       54.0       018.
 2.47        1.077       50.0       019.
 2.47        1.124       27.9       032.
 2.47        1.174       26.1       032.
 2.47        1.228       23.1       037.
 2.47        1.276       29.9       033.
 2.47        1.326       31.2       027.
 2.47        1.380       11.7       086.
 2.47        1.425       6.8        100.
 2.47        1.473       1.2        100.
 2.47        1.523       -1.6       100.
 2.47        1.575       2.7        100.
 2.47        1.630       6.3        100.
 2.47        1.674       3.7        100.
 2.47        1.719       6.1        100.
 2.47        1.782       10.8       074.
 2.47        1.832       33.3       026.
 2.47        1.866       29.4       032.
 2.47        1.919       24.5       050.
 2.47        1.975       21.2       083.
 2.47        2.013       19.9       100.
 2.47        2.073       9.0        100.
 2.47        2.135       18.3       100.
 2.47        2.178       31.1       062.
 2.47        2.222       24.5       061.
 2.47        2.268       69.7       020.
 2.47        2.316       121.7      013.
 2.47        2.364       192.6      009.
 2.47        2.415       216.8      007.
 2.47        2.467       218.5      007.
 2.47        2.520       151.6      007.
 2.47        2.576       86.8       009.
 2.47        2.633       19.0       026.
 2.47        2.693       1.8        100.
ENDDATA            231
ENDSUBENT          243
SUBENT        41332005   20090429   20090724   20090724       4146
BIB                  3          4
REACTION   (93-NP-237(N,X)0-NN-1,,DA/DE)
ERR-ANALYS (ERR-S)  Relative Stat.Error
COMMENT    .The  emission neutron spectrum and "inelastic+elastic"
           spectrum for initial energy 0.99 MeV - 2.47 MeV.
ENDBIB               4
COMMON               1          3
ANG
ADEG
120.
ENDCOMMON            3
DATA                 4        630
EN         E          DATA       ERR-S
MEV        MEV        MB/SR/MEV  PER-CENT
 0.99      0.241        252.6        050.
 0.99      0.274        226.6        048.
 0.99      0.325        193.7        048.
 0.99      0.375        179.1        031.
 0.99      0.425        212.7        022.
 0.99      0.474        212.7        018.
 0.99      0.524        268.1        015.
 0.99      0.573        287.5        012.
 0.99      0.624        324.4        011.
 0.99      0.673        268.4        017.
 0.99      0.721        222.3        024.
 0.99      0.774        146.3        105.
 0.99      0.827        217.0        119.
 0.99      0.875        446.5        030.
 0.99      0.921        1022.1       006.
 0.99      0.971        1680.9       003.
 0.99      1.026        1024.7       003.
 0.99      1.077        283.1        006.
 0.99      1.124        103.3        010.
 0.99      1.174        88.8         008.
 0.99      1.228        101.9        011.
 0.99      1.276        103.4        016.
 0.99      1.326        92.5         009.
 0.99      1.380        98.6         010.
 0.99      1.425        102.7        013.
 0.99      1.473        94.1         010.
 0.99      1.523        100.7        008.
 0.99      1.575        93.1         010.
 0.99      1.630        86.8         008.
 0.99      1.674        90.3         011.
 0.99      1.719        83.8         007.
 0.99      1.782        87.2         007.
 0.99      1.832        84.4         007.
 0.99      1.866        86.1         008.
 0.99      1.919        75.0         009.
 0.99      1.975        84.2         006.
 0.99      2.013        73.8         009.
 0.99      2.073        77.5         008.
 0.99      2.135        57.3         009.
 0.99      2.178        69.0         008.
 0.99      2.222        67.3         008.
 0.99      2.268        57.9         008.
 0.99      2.316        66.4         009.
 0.99      2.364        58.9         009.
 0.99      2.415        55.4         007.
 0.99      2.467        54.3         008.
 0.99      2.520        53.6         009.
 0.99      2.576        50.0         010.
 0.99      2.633        49.3         012.
 0.99      2.693        49.5         010.
 0.99      2.754        52.5         010.
 0.99      2.817        47.5         009.
 0.99      2.883        45.6         008.
 0.99      2.951        50.2         010.
 0.99      3.021        42.0         007.
 0.99      3.094        47.2         011.
 0.99      3.169        49.0         007.
 0.99      3.248        41.7         011.
 0.99      3.329        37.6         008.
 0.99      3.414        33.9         009.
 0.99      3.501        29.7         009.
 0.99      3.592        28.7         008.
 0.99      3.687        22.4         011.
 0.99      3.786        26.0         009.
 0.99      3.888        26.3         018.
 0.99      3.995        23.9         009.
 0.99      4.106        21.0         013.
 0.99      4.222        17.7         012.
 0.99      4.343        18.4         011.
 0.99      4.470        16.4         020.
 0.99      4.601        15.3         013.
 0.99      4.739        16.1         012.
 0.99      4.883        12.5         017.
 0.99      5.034        11.5         020.
 0.99      5.192        10.9         017.
 0.99      5.358        10.5         020.
 0.99      5.531        7.9          022.
 0.99      5.713        9.9          027.
 0.99      5.905        7.5          034.
 0.99      6.106        4.7          034.
 0.99      6.317        7.1          042.
 0.99      6.540        2.4          062.
 0.99      6.775        8.0          027.
 0.99      7.023        2.4          061.
 0.99      7.285        4.1          043.
 0.99      7.561        3.5          035.
 0.99      7.854        0.4          078.
 0.99      8.165        -1.3         082.
 0.99      8.494        0.6          062.
 0.99      8.843        1.2          087.
 1.00      0.176        312.3        043.
 1.00      0.224        236.3        044.
 1.00      0.274        234.3        042.
 1.00      0.325        197.1        050.
 1.00      0.375        200.1        030.
 1.00      0.425        233.3        021.
 1.00      0.474        243.6        015.
 1.00      0.524        277.7        014.
 1.00      0.573        303.2        011.
 1.00      0.624        318.7        011.
 1.00      0.673        270.0        017.
 1.00      0.721        217.2        027.
 1.00      0.774        200.3        090.
 1.00      0.827        312.7        080.
 1.00      0.875        587.6        018.
 1.00      0.921        1113.8       005.
 1.00      0.971        1514.7       003.
 1.00      1.026        835.8        003.
 1.00      1.077        208.2        006.
 1.00      1.124        104.9        008.
 1.00      1.174        100.3        008.
 1.00      1.228        95.0         007.
 1.00      1.276        97.3         011.
 1.00      1.326        102.0        011.
 1.00      1.380        97.2         013.
 1.00      1.425        86.7         013.
 1.00      1.473        85.9         010.
 1.00      1.523        86.2         010.
 1.00      1.575        76.7         008.
 1.00      1.630        87.2         011.
 1.00      1.674        69.1         008.
 1.00      1.719        80.5         009.
 1.00      1.782        91.2         011.
 1.00      1.832        89.8         012.
 1.00      1.866        76.4         007.
 1.00      1.919        72.0         011.
 1.00      1.975        63.8         007.
 1.00      2.013        63.6         007.
 1.00      2.073        67.8         007.
 1.00      2.135        65.0         011.
 1.00      2.178        67.2         008.
 1.00      2.222        67.6         012.
 1.00      2.268        60.5         008.
 1.00      2.316        65.5         007.
 1.00      2.364        60.2         007.
 1.00      2.415        61.7         010.
 1.00      2.467        62.3         007.
 1.00      2.520        56.3         007.
 1.00      2.576        58.0         010.
 1.00      2.633        53.1         008.
 1.00      2.693        50.6         009.
 1.00      2.754        51.5         008.
 1.00      2.817        51.2         011.
 1.00      2.883        41.5         009.
 1.00      2.951        50.0         009.
 1.00      3.021        45.7         014.
 1.00      3.094        44.0         011.
 1.00      3.169        40.1         008.
 1.00      3.248        36.9         009.
 1.00      3.329        30.0         010.
 1.00      3.414        36.3         015.
 1.00      3.501        33.8         010.
 1.00      3.592        30.5         010.
 1.00      3.687        25.6         011.
 1.00      3.786        29.0         008.
 1.00      3.888        27.4         015.
 1.00      3.995        29.8         017.
 1.00      4.106        21.9         012.
 1.00      4.222        22.9         012.
 1.00      4.343        18.3         015.
 1.00      4.470        16.6         013.
 1.00      4.601        19.6         021.
 1.00      4.739        13.0         015.
 1.00      4.883        12.8         017.
 1.00      5.034        16.2         013.
 1.00      5.192        12.7         020.
 1.00      5.358        15.8         038.
 1.00      5.531        10.1         019.
 1.00      5.713        7.8          045.
 1.00      5.905        7.9          031.
 1.00      6.106        4.1          044.
 1.00      6.317        4.4          051.
 1.00      6.540        4.2          051.
 1.00      6.775        3.7          042.
 1.00      7.023        2.1          077.
 1.00      7.285        2.9          077.
 1.00      7.561        0.2          077.
 1.00      7.854        0.3          077.
 1.00      8.165        2.5          050.
 1.00      8.494        1.1          072.
 1.46      0.175        285.5        030.
 1.46      0.224        173.3        027.
 1.46      0.274        188.5        027.
 1.46      0.325        192.7        029.
 1.46      0.375        283.0        014.
 1.46      0.425        247.1        015.
 1.46      0.474        200.8        013.
 1.46      0.524        186.7        016.
 1.46      0.573        192.4        013.
 1.46      0.624        201.3        009.
 1.46      0.673        195.2        009.
 1.46      0.721        177.7        006.
 1.46      0.774        148.5        008.
 1.46      0.827        134.9        009.
 1.46      0.875        150.0        007.
 1.46      0.921        148.6        007.
 1.46      0.971        162.4        006.
 1.46      1.026        185.8        007.
 1.46      1.077        202.8        008.
 1.46      1.124        178.0        018.
 1.46      1.174        152.3        039.
 1.46      1.228        154.9        047.
 1.46      1.276        208.6        027.
 1.46      1.326        396.9        008.
 1.46      1.380        741.6        006.
 1.46      1.425        1007.7       005.
 1.46      1.473        906.8        004.
 1.46      1.523        498.1        005.
 1.46      1.575        183.7        005.
 1.46      1.630        112.1        007.
 1.46      1.674        97.0         006.
 1.46      1.719        98.5         008.
 1.46      1.782        93.2         006.
 1.46      1.832        86.6         006.
 1.46      1.866        89.1         007.
 1.46      1.919        81.0         007.
 1.46      1.975        76.5         006.
 1.46      2.013        75.8         007.
 1.46      2.073        77.5         007.
 1.46      2.135        75.6         006.
 1.46      2.178        72.4         006.
 1.46      2.222        70.3         008.
 1.46      2.268        69.9         007.
 1.46      2.316        72.0         006.
 1.46      2.364        72.2         006.
 1.46      2.415        69.2         008.
 1.46      2.467        70.1         008.
 1.46      2.520        67.2         007.
 1.46      2.576        65.0         007.
 1.46      2.633        58.5         007.
 1.46      2.693        59.8         008.
 1.46      2.754        61.7         008.
 1.46      2.817        56.4         006.
 1.46      2.883        55.2         007.
 1.46      2.951        53.4         005.
 1.46      3.021        54.1         006.
 1.46      3.094        47.9         007.
 1.46      3.169        48.0         006.
 1.46      3.248        46.0         006.
 1.46      3.329        41.7         006.
 1.46      3.414        37.6         007.
 1.46      3.501        35.0         009.
 1.46      3.592        33.7         009.
 1.46      3.687        33.5         007.
 1.46      3.786        33.3         008.
 1.46      3.888        26.9         009.
 1.46      3.995        24.0         007.
 1.46      4.106        28.0         013.
 1.46      4.222        24.4         011.
 1.46      4.343        23.5         012.
 1.46      4.470        20.7         008.
 1.46      4.601        18.3         014.
 1.46      4.739        19.0         016.
 1.46      4.883        14.0         012.
 1.46      5.034        12.7         014.
 1.46      5.192        9.9          014.
 1.46      5.358        8.6          014.
 1.46      5.531        9.9          028.
 1.46      5.713        7.6          024.
 1.46      5.905        5.6          023.
 1.46      6.106        6.0          027.
 1.46      6.317        6.0          031.
 1.46      6.540        5.0          042.
 1.46      6.775        4.4          049.
 1.46      7.023        4.3          041.
 1.46      7.285        2.0          054.
 1.46      7.561        3.4          045.
 1.46      7.854        3.4          045.
 1.46      8.165        2.0          059.
 1.46      8.494        1.8          061.
 1.49      0.239        208.6        035.
 1.49      0.274        200.5        030.
 1.49      0.323        217.1        030.
 1.49      0.373        216.7        019.
 1.49      0.425        256.2        015.
 1.49      0.476        233.9        013.
 1.49      0.524        219.9        015.
 1.49      0.573        197.2        015.
 1.49      0.624        170.0        013.
 1.49      0.673        205.3        010.
 1.49      0.725        191.0        007.
 1.49      0.773        140.6        009.
 1.49      0.822        145.9        008.
 1.49      0.875        148.6        008.
 1.49      0.927        141.6        008.
 1.49      0.978        152.3        007.
 1.49      1.026        176.8        007.
 1.49      1.069        197.3        007.
 1.49      1.124        202.6        011.
 1.49      1.174        186.3        027.
 1.49      1.219        143.5        048.
 1.49      1.276        139.8        041.
 1.49      1.326        215.4        018.
 1.49      1.369        483.2        007.
 1.49      1.425        909.6        004.
 1.49      1.485        1012.7       004.
 1.49      1.535        573.8        004.
 1.49      1.575        281.3        004.
 1.49      1.616        147.5        005.
 1.49      1.674        107.4        006.
 1.49      1.734        96.9         007.
 1.49      1.782        98.2         008.
 1.49      1.832        91.5         006.
 1.49      1.883        93.3         007.
 1.49      1.919        87.6         007.
 1.49      1.975        89.0         007.
 1.49      2.033        85.4         007.
 1.49      2.072        85.6         007.
 1.49      2.114        83.1         010.
 1.49      2.156        75.2         009.
 1.49      2.223        72.0         007.
 1.49      2.292        72.5         006.
 1.49      2.340        70.2         007.
 1.49      2.389        71.4         006.
 1.49      2.441        71.4         006.
 1.49      2.493        64.3         006.
 1.49      2.548        66.1         009.
 1.49      2.604        66.4         007.
 1.49      2.663        60.8         006.
 1.49      2.723        65.3         008.
 1.49      2.785        55.5         007.
 1.49      2.850        51.4         006.
 1.49      2.916        48.2         008.
 1.49      2.985        47.3         007.
 1.49      3.057        44.5         007.
 1.49      3.131        44.5         008.
 1.49      3.208        42.7         006.
 1.49      3.288        38.6         007.
 1.49      3.371        35.4         007.
 1.49      3.457        35.5         010.
 1.49      3.546        35.9         007.
 1.49      3.639        32.4         010.
 1.49      3.736        32.3         009.
 1.49      3.837        29.6         007.
 1.49      3.941        26.5         010.
 1.49      4.050        25.8         007.
 1.49      4.164        23.3         016.
 1.49      4.282        18.8         019.
 1.49      4.406        18.0         008.
 1.49      4.535        18.1         008.
 1.49      4.670        15.0         018.
 1.49      4.810        15.1         025.
 1.49      4.958        11.1         017.
 1.49      5.112        13.7         019.
 1.49      5.274        11.3         032.
 1.49      5.443        9.4          017.
 1.49      5.621        8.1          021.
 1.49      5.808        7.6          020.
 1.49      6.004        7.2          015.
 1.49      6.210        7.4          046.
 1.49      6.427        6.5          048.
 1.49      6.656        2.4          037.
 1.49      6.897        1.7          061.
 1.49      7.152        3.0          046.
 1.49      7.421        1.9          053.
 1.49      7.706        1.1          065.
 1.49      8.007        1.9          036.
 1.49      8.327        0.7          081.
 1.49      8.666        2.1          078.
 1.49      9.026        1.4          060.
 1.77      0.238        333.2        028.
 1.77      0.274        314.0        024.
 1.77      0.325        262.5        025.
 1.77      0.375        259.9        016.
 1.77      0.425        296.4        014.
 1.77      0.474        296.5        010.
 1.77      0.524        237.6        012.
 1.77      0.573        217.3        010.
 1.77      0.624        218.2        009.
 1.77      0.673        216.3        010.
 1.77      0.721        217.7        007.
 1.77      0.774        173.6        007.
 1.77      0.827        145.2        010.
 1.77      0.875        156.0        009.
 1.77      0.921        169.7        007.
 1.77      0.971        183.2        006.
 1.77      1.026        152.2        006.
 1.77      1.077        152.8        006.
 1.77      1.124        137.4        007.
 1.77      1.174        151.5        006.
 1.77      1.228        140.3        007.
 1.77      1.276        154.0        008.
 1.77      1.326        168.8        009.
 1.77      1.380        147.4        019.
 1.77      1.425        134.4        034.
 1.77      1.473        141.6        044.
 1.77      1.523        137.2        043.
 1.77      1.575        184.7        020.
 1.77      1.630        305.1        009.
 1.77      1.674        448.8        006.
 1.77      1.719        641.4        005.
 1.77      1.782        688.0        005.
 1.77      1.832        467.1        004.
 1.77      1.866        323.1        004.
 1.77      1.919        160.7        005.
 1.77      1.975        98.7         005.
 1.77      2.013        96.9         005.
 1.77      2.073        95.5         006.
 1.77      2.135        86.4         005.
 1.77      2.178        96.5         006.
 1.77      2.222        87.1         007.
 1.77      2.268        82.2         006.
 1.77      2.316        80.8         005.
 1.77      2.364        75.6         005.
 1.77      2.415        79.9         008.
 1.77      2.467        69.9         006.
 1.77      2.520        65.5         006.
 1.77      2.576        66.6         006.
 1.77      2.633        68.5         005.
 1.77      2.693        65.2         006.
 1.77      2.754        62.5         006.
 1.77      2.817        62.4         006.
 1.77      2.883        60.5         006.
 1.77      2.951        61.7         005.
 1.77      3.021        54.9         007.
 1.77      3.094        54.2         006.
 1.77      3.169        52.2         006.
 1.77      3.248        46.2         006.
 1.77      3.329        44.6         006.
 1.77      3.414        38.0         006.
 1.77      3.501        36.5         007.
 1.77      3.592        38.5         007.
 1.77      3.687        34.8         006.
 1.77      3.786        30.9         008.
 1.77      3.888        32.2         006.
 1.77      3.995        31.0         006.
 1.77      4.106        31.3         008.
 1.77      4.222        26.9         009.
 1.77      4.343        23.3         008.
 1.77      4.470        21.5         009.
 1.77      4.601        17.4         010.
 1.77      4.739        17.1         010.
 1.77      4.883        19.1         013.
 1.77      5.034        11.0         012.
 1.77      5.192        15.7         009.
 1.77      5.358        8.5          018.
 1.77      5.531        8.8          014.
 1.77      5.713        10.1         012.
 1.77      5.905        7.2          022.
 1.77      6.106        6.1          017.
 1.77      6.317        6.5          020.
 1.77      6.540        4.9          022.
 1.77      6.775        4.6          025.
 1.77      7.023        6.7          033.
 1.77      7.285        3.5          031.
 1.77      7.561        5.0          041.
 1.77      7.854        1.0          063.
 1.77      8.165        0.6          092.
 1.77      8.494        1.4          067.
 1.77      8.843        0.1          110.
 1.99      0.174         281.8       029.
 1.99      0.224         248.5       023.
 1.99      0.274         271.2       023.
 1.99      0.325         220.5       023.
 1.99      0.375         260.0       014.
 1.99      0.425         265.0       013.
 1.99      0.474         310.7       009.
 1.99      0.524         268.8       010.
 1.99      0.573         234.5       008.
 1.99      0.624         232.7       008.
 1.99      0.673         216.2       009.
 1.99      0.721         206.3       006.
 1.99      0.774         213.5       006.
 1.99      0.827         210.4       006.
 1.99      0.875         190.9       006.
 1.99      0.921         193.1       006.
 1.99      0.971         180.3       006.
 1.99      1.026         157.5       009.
 1.99      1.077         166.3       008.
 1.99      1.124         180.8       006.
 1.99      1.174         139.1       006.
 1.99      1.228         143.7       006.
 1.99      1.276         143.3       007.
 1.99      1.326         136.4       007.
 1.99      1.380         126.7       009.
 1.99      1.425         137.5       009.
 1.99      1.473         146.7       010.
 1.99      1.523         146.7       014.
 1.99      1.575         140.8       023.
 1.99      1.630         125.2       035.
 1.99      1.674         134.1       032.
 1.99      1.719         127.0       025.
 1.99      1.782         188.1       012.
 1.99      1.832         321.3       007.
 1.99      1.866         445.1       006.
 1.99      1.919         526.8       005.
 1.99      1.975         539.9       004.
 1.99      2.013         392.2       005.
 1.99      2.073         212.3       005.
 1.99      2.135         136.7       004.
 1.99      2.178         87.8        006.
 1.99      2.222         75.0        006.
 1.99      2.268         84.6        005.
 1.99      2.316         83.2        005.
 1.99      2.364         75.7        006.
 1.99      2.415         79.8        005.
 1.99      2.467         76.7        005.
 1.99      2.520         70.4        006.
 1.99      2.576         70.0        005.
 1.99      2.633         65.0        006.
 1.99      2.693         62.5        006.
 1.99      2.754         63.8        006.
 1.99      2.817         60.4        006.
 1.99      2.883         56.3        006.
 1.99      2.951         59.7        005.
 1.99      3.021         55.5        006.
 1.99      3.094         57.4        006.
 1.99      3.169         52.1        006.
 1.99      3.248         46.9        005.
 1.99      3.329         47.1        006.
 1.99      3.414         40.6        006.
 1.99      3.501         41.6        006.
 1.99      3.592         38.1        006.
 1.99      3.687         34.8        006.
 1.99      3.786         31.0        006.
 1.99      3.888         32.1        006.
 1.99      3.995         29.7        007.
 1.99      4.106         27.7        007.
 1.99      4.222         25.9        007.
 1.99      4.343         21.6        008.
 1.99      4.470         21.3        008.
 1.99      4.601         19.0        009.
 1.99      4.739         19.6        009.
 1.99      4.883         13.7        011.
 1.99      5.034         13.5        009.
 1.99      5.192         9.6         014.
 1.99      5.358         11.9        012.
 1.99      5.531         9.8         014.
 1.99      5.713         10.5        013.
 1.99      5.905         8.9         013.
 1.99      6.106         8.0         014.
 1.99      6.317         7.7         014.
 1.99      6.540         4.4         020.
 1.99      6.775         4.5         021.
 1.99      7.023         5.7         020.
 1.99      7.285         3.4         025.
 1.99      7.561         3.4         026.
 1.99      7.854         2.0         047.
 1.99      8.165         2.5         028.
 1.99      8.494         0.6         095.
 2.47      0.150       155.5        100.
 2.47      0.174       230.6        022.
 2.47      0.224       177.2        021.
 2.47      0.274       206.0        021.
 2.47      0.325       213.5        023.
 2.47      0.375       228.6        013.
 2.47      0.425       224.0        013.
 2.47      0.474       245.3        009.
 2.47      0.524       242.6        009.
 2.47      0.573       233.9        008.
 2.47      0.624       230.7        007.
 2.47      0.673       230.8        008.
 2.47      0.721       232.5        005.
 2.47      0.774       219.9        005.
 2.47      0.827       212.8        005.
 2.47      0.875       213.3        005.
 2.47      0.921       220.0        005.
 2.47      0.971       223.9        005.
 2.47      1.026       197.2        005.
 2.47      1.077       191.4        005.
 2.47      1.124       167.5        005.
 2.47      1.174       163.6        005.
 2.47      1.228       158.4        005.
 2.47      1.276       163.1        006.
 2.47      1.326       162.0        005.
 2.47      1.380       140.1        007.
 2.47      1.425       133.0        008.
 2.47      1.473       125.1        009.
 2.47      1.523       119.9        011.
 2.47      1.575       121.6        010.
 2.47      1.630       122.5        008.
 2.47      1.674       117.7        007.
 2.47      1.719       117.8        007.
 2.47      1.782       119.4        007.
 2.47      1.832       139.4        006.
 2.47      1.866       133.9        007.
 2.47      1.919       126.3        010.
 2.47      1.975       120.4        015.
 2.47      2.013       117.3        019.
 2.47      2.073       103.5        025.
 2.47      2.135       109.9        022.
 2.47      2.178       120.7        016.
 2.47      2.222       112.0        013.
 2.47      2.268       155.1        009.
 2.47      2.316       205.1        008.
 2.47      2.364       273.8        006.
 2.47      2.415       295.9        005.
 2.47      2.467       295.4        005.
 2.47      2.520       226.3        005.
 2.47      2.576       159.3        005.
 2.47      2.633       89.2         006.
 2.47      2.693       69.7         005.
 2.47      2.754       71.2         005.
 2.47      2.817       64.4         005.
 2.47      2.883       61.4         005.
 2.47      2.951       59.5         005.
 2.47      3.021       55.4         005.
 2.47      3.094       53.6         005.
 2.47      3.169       53.0         005.
 2.47      3.248       47.5         005.
 2.47      3.329       48.0         005.
 2.47      3.414       43.4         006.
 2.47      3.501       46.1         005.
 2.47      3.592       41.4         005.
 2.47      3.687       40.1         006.
 2.47      3.786       35.2         006.
 2.47      3.888       32.4         006.
 2.47      3.995       31.7         006.
 2.47      4.106       31.6         006.
 2.47      4.222       28.8         006.
 2.47      4.343       23.8         007.
 2.47      4.470       20.7         008.
 2.47      4.601       22.1         007.
 2.47      4.739       17.8         009.
 2.47      4.883       16.6         009.
 2.47      5.034       13.5         010.
 2.47      5.192       13.8         008.
 2.47      5.358       10.9         012.
 2.47      5.531       8.1          015.
 2.47      5.713       10.5         012.
 2.47      5.905       7.7          015.
 2.47      6.106       8.6          012.
 2.47      6.317       6.6          012.
 2.47      6.540       5.4          020.
 2.47      6.775       4.9          022.
 2.47      7.023       4.4          023.
 2.47      7.285       1.8          049.
 2.47      7.561       1.0          073.
 2.47      7.854       3.1          027.
 2.47      8.165       3.2          016.
ENDDATA            632
ENDSUBENT          645
SUBENT        41332006   20090429   20090724   20090724       4146
BIB                  3          4
REACTION   (93-NP-237(N,INL)93-NP-237,,DA)
COMMENT     The inelastic cross section integrated over the
            energy range from 0.25 MeV to (E0-0.25) MeV.
ERR-ANALYS (ERR-S)  Relative Stat.Error
ENDBIB               4
COMMON               1          3
ANG
ADEG
120.
ENDCOMMON            3
DATA                 3          7
EN         DATA       ERR-S
MEV        MB/SR      MB/SR
0.99        63.8       9.1
1.00        70.4       9.2
1.46        57.6       6.0
1.49        59.1       6.4
1.77        73.8       7.4
1.99        83.8       6.8
2.47        90.5       6.1
ENDDATA              9
ENDSUBENT           22
SUBENT        41332007   20090429   20090724   20090724       4146
BIB                  3          6
REACTION   (93-NP-237(N,TOT),,SIG)
INC-SOURCE (CF252)
ERR-ANALYS (ERR-T)  Relative total error
            ERR-S   Statistical error 1. -20.% .
           (ERR-2)  Error due to nuclear density in samples
           (ERR-3)  Max error caused by spectrometer calibration
ENDBIB               6
COMMON               2          3
ERR-2      ERR-3
PER-CENT   PER-CENT
    1.3       2.2
ENDCOMMON            3
DATA                 3         61
EN         DATA       ERR-T
MEV        B          PER-CENT
 0.5        8.39       03.5
 0.6        7.68       02.8
 0.7        7.43       02.9
 0.8        7.14       04.5
 0.9        6.98       04.4
 1.0        6.90       04.4
 1.1        6.65       04.4
 1.2        6.56       04.4
 1.3        6.75       04.3
 1.4        6.80       04.3
 1.5        6.78       04.4
 1.6        6.91       04.4
 1.7        6.74       04.6
 1.8        6.77       04.7
 1.9        7.02       04.4
 2.0        7.21       04.3
 2.1        7.18       04.9
 2.2        7.16       05.4
 2.3        7.30       05.3
 2.4        7.36       05.2
 2.5        7.38       05.2
 2.6        7.44       05.2
 2.7        7.49       05.1
 2.8        7.60       05.8
 2.9        7.65       05.8
 3.0        7.62       05.8
 3.1        7.73       05.1
 3.2        7.67       05.2
 3.3        7.66       05.2
 3.4        7.73       05.2
 3.5        7.81       05.3
 3.6        7.90       05.3
 3.7        7.91       05.3
 3.8        7.73       05.5
 3.9        7.77       05.5
 4.0        7.67       05.6
 4.2        7.62       05.8
 4.4        7.66       05.9
 4.6        7.53       06.2
 4.8        7.41       06.4
 5.0        7.40       06.7
 5.2        7.32       07.1
 5.4        7.34       07.3
 5.6        6.94       08.1
 5.8        6.98       08.4
 6.0        6.93       08.8
 6.2        7.00       09.1
 6.4        6.85       09.8
 6.6        6.42       10.9
 6.8        6.47       11.3
 7.0        6.32       12.2
 7.2        6.39       12.8
 7.4        6.29       13.3
 7.6        6.50       13.6
 7.8        6.41       14.4
 8.0        6.06       16.2
 8.2        5.79       18.0
 8.4        6.13       18.1
 8.6        5.96       19.6
 8.8        5.78       21.8
 9.0        5.48       24.7
ENDDATA             63
ENDSUBENT           78
ENDENTRY             7
