ENTRY            41353   20061025   20070521   20060816       4139
SUBENT        41353001   20061025   20070521   20060816       4139
BIB                 11         40
TITLE       Measurement of the Gamma-Ray Multiplicity Spectra,
            The Alfa-Value of 239Pu in the Energy Range 2-2150keV
            And of a Resonance Self-Shielding Effect in
            The Alfa-Value of 235-U, 239-Pu in the 4.65-2150 eV
            Energy Range
AUTHOR     (YU.V.GRIGORIEV,V.YA.KITAEV, V.V.SINITSA, K.V.MOISEEV,
            H.FAIKOV-STANCHIK, TS.TS.PANTELEEV)
INSTITUTE  (4RUSFEI) Grigor'eV, Kitaev, Sinitsa, Moiseev
           (4ZZZDUB) Fajkov-Stanczyk, Panteleev
REFERENCE  (J,YF,62,(5),923,199905)  Main Reference
           (J,NSTS,2,(1),222,200208)   Data Confirmed
           (C,2001TSUKUB,,(221),200110)  Abstract
           (S,JINR-E3-98-212,233,199905) Data For Averaged Values
             Alpha and Multiplicity For 235-U, 239-Pu
           (J,PAN,62,862,1999) English translation of main Ref.
FACILITY   (REAC,4ZZZDUB)  Reactor IBR-30  in Booster Mode at
              Average Thermal Power 10 Kwt, Pulse Repetition Rate
              100 Hz, Pulse Duration 4 Microsec
METHOD     (TOF)  Time-Of-Flight, Flight Bases 123 and 500 M
DETECTOR   (NAICR)  Crystal NaJ(TL) Detector, Volume 36 Liters
           (STANK)  16-Section Liquid Scintillation Detector
                    Consisting of Two 40 Liter Tanks, Each Consi-
             Sting of Aluminium Cylinder 40 Cm Diameter, 40 Cm
             Length, 2 mm Thick Al Walls. Scintillating Liquid is
             The Mixture of 86% Tholuol and, to 94% Enriched in
             10B, 14% Threemethilborate.
CORRECTION .For Background Neutrons Determination Four Resonance
            Neutrons Filters were Used. Those of Natrium and
            Indium were Placed at 122m Flight Base and Those of
            Aluminium and Cobalt were Placed at 500m Flight Base.
            Maximum Value of Correction For Background is 10%.
ERR-ANALYS (DATA-ERR)    Errors, If Given,  are not Specified
STATUS     (COREL,41292001)
HISTORY    (20000204C)  + + Compiled at the Centre - CJD + +
           (20000426A)  . New Data Added
           (20030102A)  . Two References Added.
                     Data Status Corrected in SAN 005, 006, 007
           (20030102U) Last checking has been done.
           (20061025U) 5th Ref.was added. Some misprints were
                       corrected.  M.M.
ENDBIB              40
NOCOMMON             0
ENDSUBENT           43
SUBENT        41353002   20000426   20001110   20050926       0000
BIB                  3          8
REACTION  1(94-PU-239(N,0),,EN)  Resonance Energy
          2(94-PU-239(N,ABS),,ALF,,RES) Alfa at Resonance
          3(94-PU-239(N,G),,MLT,G,RES)   Gamma Multiplicity
SAMPLE      .Metallic Disk 80 mm Diameter, 0.3 mm Thick, Weight
             22.785 Gram, 239Pu Content 99.9%,
             Thickness 1.1424E-3 Atoms/B
STATUS     (TABLE)  Data are from Table 1 of Main Reference
           (COREL,41292002)
ENDBIB               8
NOCOMMON
DATA                 6        128
DATA      1DATA      2DATA-ERR  2DATA      3DATA-ERR  3SPIN J
EV         NO-DIM     NO-DIM     GAM/PART   GAM/PART   NO-DIM
      21.09       0.87       0.06       5.38       0.05         1.
      23.85        0.7       0.06        5.6       0.05         1.
      26.22       0.97        0.1       5.42        0.1         1.
      27.27                             4.71       0.23
      32.27       0.43       0.11       5.37       0.22         0.
      34.02
      35.42                             4.41       0.25         1.
      41.38       4.35        0.2       4.57       0.07         1.
       41.6                              5.3       0.13         1.
      44.42       5.13       0.38       4.57       0.04         1.
      47.56       0.23       0.06       5.89       0.09         0.
       49.7                             5.69       0.17         0.
      50.01       2.19       0.11         5.       0.05         1.
      52.52       3.57       0.12       4.69       0.04         1.
       55.6       1.35       0.08       5.11       0.09         1.
      57.48       0.18       0.06       6.11       0.04         0.
      58.76                             5.96       0.11         0.
      59.16        0.3       0.07       5.92       0.05         1.
      60.94       0.15        0.1       6.02       0.14         0.
      63.07       0.32       0.08       5.85       0.11         1.
      65.35                             5.62       0.09         1.
       65.7       0.65       0.12       5.54       0.04         1.
      74.01       0.98       0.09       5.49       0.06         1.
      74.84       0.41        0.1        5.8       0.03         1.
      78.95
      80.15
      81.35
      82.58
      83.59
      84.44
      85.39       0.76       0.12       5.48       0.04         0.
      86.27                                                     1.
       90.6       2.42       0.09       4.91       0.04         1.
      92.83        1.3       0.12       5.11       0.18         1.
      95.36       0.87       0.12       5.34       0.09         1.
       96.5       0.18       0.07       6.07       0.11         0.
      98.63
     100.06
     101.96
     102.88       1.27       0.18       5.07       0.13         1.
     105.23       3.54       0.24       4.67       0.07         1.
     106.68       1.54       0.13       5.17       0.05         1.
     110.43       6.24       0.43       4.29       0.17         1.
      114.8
     115.21
     115.89       0.29       0.08         6.       0.09         0.
      118.7       0.94       0.11       5.44       0.04         1.
     120.88       0.84       0.13       5.36       0.16         0.
     123.42
      126.2       1.46       0.35       5.01       0.16         0.
     127.46                                                     1.
     131.87        0.2       0.08       6.09        0.1         0.
     133.73       2.28       0.14       4.96       0.14         1.
     136.69       0.39       0.07       5.76       0.11         0.
      139.2
     142.91        0.7        0.1       5.59        0.1         1.
     143.48       1.05       0.08        5.2       0.16         1.
     146.18       2.61       0.16       4.81       0.08         1.
     147.55
     148.35
     149.36       0.94       0.12       5.31       0.21         1.
      155.6
      156.9       0.23       0.07        6.1       0.09         0.
      160.8
      161.8
     164.33        3.4       0.19       4.78       0.04         1.
     166.92       0.76       0.09       5.58       0.08         1.
     170.32       0.66        0.1       5.55       0.17
     171.06
     174.58
     175.86       1.22       0.13       5.19        0.1         1.
     177.16       2.58       0.19       4.89        0.1         1.
     178.73       1.63       0.12       5.14        0.2         0.
     183.59       0.66       0.11       5.49       0.12
     184.69       0.25       0.06       5.94        0.2         0.
     188.27                             5.03       0.42
     190.67       2.09       0.14       4.92       0.22         1.
     195.11       0.25       0.07       6.03       0.06         1.
     196.63                              5.5       0.14         1.
     199.39        0.6        0.1       5.63       0.08         1.
      203.2       0.29       0.07       5.97       0.06
     203.84
     205.13                                                     0.
      207.1       3.84       0.35       4.64       0.12         1.
     211.09                             5.66       0.37         0.
     212.02                                                     0.
     213.51
      216.3        3.3       0.34       4.74       0.09         1.
      219.5       1.97       0.18       4.96       0.11         1.
     220.22       2.31       0.18       4.85       0.14         1.
     222.78       2.79       0.26       4.69       0.13         1.
       225.                             5.27        0.2
      226.5                                                     0.
     227.64
      231.1       2.72        0.2       4.77       0.08         1.
     232.66
     234.24       1.97       0.16       4.94       0.11         1.
     238.66       1.63       0.15       5.03       0.15         1.
      240.6
      242.8       0.69       0.08       5.56       0.13         1.
      247.5                                                     1.
     248.76       3.31       0.24       4.67       0.08         1.
     250.95       2.43       0.14        4.9       0.07         1.
     254.51                             5.25       0.15         1.
     255.86       0.83       0.09       5.49       0.12         1.
      258.6                             5.95       0.19
       261.                                                     0.
     262.32
     264.21
     268.05
     269.51       0.79        0.1       5.49       0.13         1.
     272.48       0.66        0.1       5.56       0.06         1.
     274.98       0.35       0.09       5.88       0.07
     275.49       0.48       0.12       5.74       0.08         1.
     278.03                                                     0.
     279.06       0.71       0.09       5.51        0.1         0.
     282.71       1.95       0.16       5.07       0.06         1.
     285.89
     288.04
      289.7
     292.42       0.96       0.11       5.32       0.19         0.
     296.33       1.58       0.11       5.07       0.23         1.
      298.6       1.39       0.13       5.22       0.13         1.
     301.48       1.12       0.12       5.45        0.1         1.
     307.35                             5.44       0.35         1.
     308.55       1.39       0.14       5.24       0.13         1.
     311.12
      313.4       2.56       0.29       4.86       0.18         1.
ENDDATA            130
ENDSUBENT          143
SUBENT        41353003   20000426   20001110   20050926       0000
BIB                  3          7
REACTION   (94-PU-239(N,ABS),,ALF,,AV)  Data are Averaged Over
              Energy Interval Given in Data Section
SAMPLE      .Metallic Disk 80 mm Diameter, 0.3 mm Thick, Weight
             22.785 Gram, 239Pu Content 99.9%,
             Thickness 1.1424E-3 Atoms/B
STATUS     (TABLE)  Data from Table 4 of Main Reference
           (COREL,41342002)
ENDBIB               7
NOCOMMON
DATA                 4          7
EN-MIN     EN-MAX     DATA       DATA-ERR
EV         EV         NO-DIM     NO-DIM
       4.65        10.       0.88       0.07
        10.       21.5        0.6        0.1
       21.5       46.5       1.45        0.3
       46.5       100.       0.52        0.2
       100.       215.        0.8       0.15
       465.      1000.        0.8        0.2
      1000.      2150.       0.72       0.25
ENDDATA              9
ENDSUBENT           21
SUBENT        41353004   20000426   20001110   20050926       0000
BIB                  4          9
REACTION   (94-PU-239(N,ABS),,ALF,,AV) Alfa Averaged Over Energy
            Interval Given in Data Table Taking Into Account
            Self-Shielding
SAMPLE     .Radiator Sample is Metallic Disk 80 mm Diameter,
            0.3 mm Thick, Weight 22.785 Gram, 239Pu Content 99.9%,
            Thickness 1.1424E-3 Atoms/B
FLAG       (1.) Extrapolated to Filter  Sample Thickness 0. Mm
           (2.) Filter Sample Thickness is 1. Mm
STATUS     (TABLE)  Data from Table 4 of Second Reference
ENDBIB               9
NOCOMMON
DATA                 5         18
EN-MIN     EN-MAX     DATA       DATA-ERR   FLAG
EV         EV         NO-DIM     NO-DIM     NO-DIM
       4.65        10.       0.88       0.09         1.
        10.       21.5        0.6       0.07         1.
        10.       21.5       0.57       0.05         2.
       21.5       46.5       1.45       0.16         1.
       21.5       46.5       1.07       0.05         2.
       46.2       48.6       0.23       0.05         1.
       46.2       48.6        0.3       0.05         2.
       46.5       100.       0.52       0.06         1.
       46.5       100.       0.35       0.06         2.
        51.       54.1       3.57       0.12         1.
        51.       54.1       1.66       0.04         2.
       100.       215.        0.8       0.08         1.
       100.       215.       0.53       0.06         2.
       215.       465.       0.56       0.05         2.
       465.      1000.        0.8       0.09         1.
       465.      1000.       0.55       0.05         2.
      1000.      2150.       0.72       0.08         1.
      1000.      2150.       0.69       0.05         2.
ENDDATA             20
ENDSUBENT           34
SUBENT        41353005   20030102   20030502   20050926       0000
BIB                  4         13
REACTION   (94-PU-239(N,G),,MLT,G,RES/AV) Gamma Multiplicity
            At Resonance Averaged Over Energy Interval Given in
            Data Table Taking Into Account Self-Shielding
SAMPLE     .Radiator Sample is Metallic Disk 80 mm Diameter,
            0.3 mm Thick, Weight 22.785 Gram, 239Pu Content 99.9%,
            Thickness 1.1424E-3 Atoms/B
FLAG       (1.) Extrapolated to Filter  Sample Thickness 0. Mm
           (2.) Filter Sample Thickness is 0.3 mm
           (3.) Filter Sample Thickness is 1.0 mm
           (4.) Filter Sample Thickness is 2.3 mm
                Data not Given in New Reference 2
STATUS     (TABLE)  Data from Table 2 of the 4th Reference and
                    Table One in the Second Ref
ENDBIB              13
NOCOMMON
DATA                 5         40
EN-RES-MIN EN-RES-MAX DATA       DATA-ERR   FLAG
EV         EV         PRT/INC    PRT/INC    NO-DIM
       4.65       10.        4.51       0.05         1.
       4.65       10.        4.34       0.04         2.
       4.65       10.        4.12       0.04         3.
       4.65       10.        4.52       0.05         4.
       10.        21.5       4.72       0.05         1.
       10.        21.5       4.79       0.05         2.
       10.        21.5       5.27       0.05         3.
       10.        21.5       4.65       0.05         4.
       21.5       46.5       4.17       0.04         1.
       21.5       46.5       4.13       0.04         2.
       21.5       46.5       4.71       0.05         3.
       21.5       46.5       4.1        0.04         4.
       46.2       48.6       5.13       0.05         1.
       46.2       48.6       5.22       0.05         2.
       46.2       48.6       5.75       0.06         3.
       46.2       48.6       5.16       0.05         4.
       46.5      100.        4.82       0.05         1.
       46.5      100.        5.12       0.05         2.
       46.5      100.        5.66       0.06         3.
       46.5      100.        5.27       0.05         4.
       51.        54.1       3.68       0.04         1.
       51.        54.1       3.91       0.04         2.
       51.        54.1       4.41       0.04         3.
       51.        54.1       4.02       0.04         4.
      100.       215.        4.61       0.05         1.
      100.       215.        4.85       0.05         2.
      100.       215.        5.36       0.06         3.
      100.       215.        5.28       0.05         4.
      215.       465.        4.68       0.05         1.
      215.       465.        4.89       0.05         2.
      215.       465.        5.3        0.05         3.
      215.       465.        5.65       0.06         4.
      465.      1000.        4.81       0.05         1.
      465.      1000.        5.08       0.05         2.
      465.      1000.        5.29       0.05         3.
      465.      1000.        5.89       0.06         4.
     1000.      2150.        4.13       0.04         1.
     1000.      2150.        4.41       0.04         2.
     1000.      2150.        4.94       0.05         3.
     1000.      2150.        5.52       0.06         4.
ENDDATA             42
ENDSUBENT           60
SUBENT        41353006   20030102   20030502   20050926       0000
BIB                  4         10
REACTION   (92-U-235(N,ABS),,ALF,,AV) Alfa Averaged Over Energy
            Interval Given in Data Table Taking Into Account
            Self-Shielding
SAMPLE     .Radiator Sample is Metallic Disk 45 mm Diameter,
            Contained 90% 235U and 10% 238U. Thickness 1.37E-3
            Atoms/B. Packed Into Al Container Made from a Foil
            Of 0.15 mm Thickness
FLAG       (1.) Filter Sample Thickness is 0. Mm
           (2.) Filter Sample Thickness is 0.5 mm
STATUS     .From Table 3 of 2-nd Reference and Table 3 of the 4-th
ENDBIB              10
NOCOMMON
DATA                 5         18
EN-MIN     EN-MAX     DATA       DATA-ERR   FLAG
EV         EV         NO-DIM     NO-DIM     NO-DIM
       4.65       10.        1.17       0.08         1.
       4.65       10.        0.67       0.15         2.
      10.         21.5       1.02       0.08         1.
      10.         21.5       0.53       0.12         2.
      21.5        46.5       0.78       0.07         1.
      21.5        46.5       0.53       0.11         2.
      44.1        45.4       0.38       0.05         1.
      44.1        45.4       0.26       0.05         2.
      46.5       100.        0.66       0.06         1.
      46.5       100.        0.45       0.1          2.
      93.4        95.1       2.04       0.2          1.
      93.4        95.1       1.29       0.14         2.
     100.        215.        0.75       0.07         1.
     100.        215.        0.48       0.1          2.
     215.        465.        0.45       0.05         1.
     215.        465.        0.28       0.06         2.
     465.       1000.        0.49       0.05         1.
     465.       1000.        0.29       0.06         2.
ENDDATA             20
ENDSUBENT           35
SUBENT        41353007   20030102   20030502   20050926       0000
BIB                  4         14
REACTION   (92-U-235(N,G),,MLT,G,RES/AV) Gamma Multiplicity
            At Resonance Averaged Over Energy Interval Given in
            Data Table  Taking Into Account Self-Shielding
SAMPLE     .Radiator Sample is Metallic Disk 45 mm Diameter,
            Contained 90% 235U and 10% 238U. Thickness 1.37E-3
            Atoms/B. Packed Into Al Container Made from a Foil
            Of 0.15 mm Thickness
FLAG       (1.) Extrapolated to Filter  Sample Thickness 0. Mm
           (2.) Filter Sample Thickness is 0.3 mm
           (3.) Filter Sample Thickness is 1.0 mm
           (4.) Filter Sample Thickness is 2.3 mm
                Data not Given in New Reference 2
STATUS     .        From Table 1 of 4Th Reference and Table 3
                    Of the 2Nd Ref
ENDBIB              14
NOCOMMON
DATA                 5         40
EN-RES-MIN EN-RES-MAX DATA       DATA-ERR   FLAG
EV         EV         PRT/INC    PRT/INC    NO-DIM
       4.65      10.         3.99       0.04         1.
       4.65      10.         4.16       0.04         2.
       4.65      10.         4.25       0.04         3.
       4.65      10.         4.33       0.04         4.
      10.        21.5        4.1        0.04         1.
      10.        21.5        4.31       0.04         2.
      10.        21.5        4.51       0.04         3.
      10.        21.5        4.42       0.04         4.
      21.5       46.5        4.32       0.04         1.
      21.5       46.5        4.45       0.04         2.
      21.5       46.5        4.51       0.04         3.
      21.5       46.5        4.45       0.04         4.
      44.13      45.35       4.76       0.05         1.
      44.13      45.35       4.91       0.05         2.
      44.13      45.35       4.92       0.05         3.
      44.13      45.35       4.57       0.05         4.
      46.5      100.         4.42       0.04         1.
      46.5      100.         4.6        0.05         2.
      46.5      100.         4.64       0.05         3.
      46.5      100.         4.61       0.05         4.
      93.42      95.08       3.65       0.04         1.
      93.42      95.08       3.86       0.04         2.
      93.42      95.08       3.95       0.04         3.
      93.42      95.08       4.11       0.04         4.
     100.       215.         4.31       0.04         1.
     100.       215.         4.59       0.05         2.
     100.       215.         4.66       0.05         3.
     100.       215.         4.6        0.05         4.
     215.       465.         4.6        0.05         1.
     215.       465.         4.93       0.05         2.
     215.       465.         5.04       0.05         3.
     215.       465.         4.94       0.05         4.
     465.      1000.         4.45       0.05         1.
     465.      1000.         4.98       0.05         2.
     465.      1000.         5.04       0.05         3.
     465.      1000.         4.9        0.05         4.
    1000.      2150.         3.47       0.03         1.
    1000.      2150.         4.95       0.05         2.
    1000.      2150.         5.06       0.05         3.
    1000.      2150.         4.83       0.05         4.
ENDDATA             42
ENDSUBENT           61
SUBENT        41353008   20000426   20001110   20050926       0000
BIB                  5         13
REACTION  1(94-PU-239(N,ABS),,ALF,,RES/AV)  Data are Averaged Over
              Energy Interval Given in Data Section
          2(94-PU-239(N,ABS),,ALF,,RES/AV)  Data are Averaged Over
              Energy Interval Given in Data Section
ANALYSIS  1.Liquid Scintillation Detector
          2.Na-J(TL) Detector
SAMPLE      .Metallic Disk 80 mm Diameter, 0.3 mm Thick, Weight
             22.785 Gram, 239Pu Content 99.9%,
             Thickness 1.1424E-3 Atoms/B
STATUS     (TABLE)  Data from Table 2 of Main Reference
           (DEP,41353002)
           (COREL,41368000)
FLAG       (1.)  In Data Table Energy Interval is 93.42 - 63.08
ENDBIB              13
NOCOMMON
DATA                 6         12
EN-RES-MIN EN-RES-MAX DATA      1DATA-ERR  1DATA      2FLAG
EV         EV         NO-DIM     NO-DIM     NO-DIM     NO-DIM
        7.3       8.28       0.83       0.06
      10.18      11.48       0.31       0.06
      11.48      12.32       1.91        0.2
       13.7       14.5       0.54       0.04
       14.5      15.07       0.85       0.05
      15.07      16.49       0.29       0.05
      17.11      18.19       0.83       0.06
       20.8      21.29       0.89       0.07       0.87
       23.5      24.16       0.84       0.06        0.7
      25.82      26.67       1.03        0.1       0.97
       44.8      45.35       0.21       0.06       0.23
      93.42      95.08       2.54       0.12       3.57      1.
ENDDATA             14
ENDSUBENT           32
SUBENT        41353009   20000426   20001110   20050926       0000
BIB                  4         11
REACTION  1(94-PU-239(N,G),,MLT,G,RES)   Gamma Multiplicity
                                         at Resonance
          2(94-PU-239(N,G),,MLT,G,RES)
ANALYSIS  1.Liquid Scintillation Detector
          2.Na-J(TL) Detector
SAMPLE      .Metallic Disk 80 mm Diameter, 0.3 mm Thick, Weight
             22.785 Gram, 239Pu Content 99.9%,
             Thickness 1.1424E-3 Atoms/B
STATUS     (TABLE)  Data from Table 2 of Main Reference
           (DEP,41353002)
           (COREL,41368000)
ENDBIB              11
NOCOMMON
DATA                 4         12
EN-RES     DATA      1DATA      2SPIN J
EV         NO-DIM     NO-DIM     NO-DIM
      7.826       4.55                    1.
      10.92       5.06                    1.
      11.89       3.93                    1.
       14.3       4.82                    1.
      14.65       4.42                    0.
      15.44       5.18                    1.
      17.64       4.43                    1.
      22.29       4.69       0.87         1.
      23.85       4.66        0.7         1.
      26.22       4.54       0.97         1.
      47.56       5.15       0.23         0.
      52.52       3.66       3.57         1.
ENDDATA             14
ENDSUBENT           30
ENDENTRY             9
