ENTRY            T0021   19991109   20000306
SUBENT        T0021001   19991109   20000306
BIB                  9         18
INSTITUTE  (1USAPEN)
REFERENCE  (J,PR/C,50,2116,199410)
AUTHOR     (Z.Q.MAO,H.T.FORTUNE)
TITLE      Mechanism of 20Ne(t,p) and nuclear structure of 22Ne
SAMPLE     Ne gas target in a closed rotating cell with a 250
            mu-g/cm2 aluminium window containing isotopically
            enriched 20Ne (99.99%). Gas cell pressure maintained
            at 45+-1 Torr.
FACILITY   (VDGT)
DETECTOR   (PLATE) Ilford K-5 nuclear emulsion plates.
            Outgoing protons momentum analyzed with multiangle
            spectograph and recorded in 7.5 degr. intervals in
            the angular range 7.5 - 82.5 degrees(lab).
           (SOLST) Indirect monitoring of cell pressure using
            elastically-scattered tritons in a Si surface barrier
            detector mounted at a 30 degrees(lab).
STATUS     No reply to author proof from H.T. Fortune.
HISTORY    (19990414C) SD
ENDBIB              18
COMMON               2          3
EN         EN-RSL-FW
MEV        MEV
  15.         0.02
ENDCOMMON            3
ENDSUBENT           25
SUBENT        T0021002   19991109   20000306
BIB                  3          5
REACTION   (10-NE-20(T,P)10-NE-22,PAR,DA)
ERR-ANALYS (ANG-ERR) Digitizing error
           (DATA-ERR) Error from graphic bars
STATUS     (CURVE) Data not available from authors. Scanned from
            Figs. 2-8 in reference by RFNC-VNIIEF.
ENDBIB               5
COMMON               1          3
ANG-ERR
ADEG
 0.8
ENDCOMMON            3
DATA                 5        807
E-EXC      E-EXC      ANG        DATA       DATA-ERR
MEV        MEV        ADEG       MB/SR      MB/SR
  0.000                 7.357      1.681      0.170
  0.000                15.127      0.452      0.047
  0.000                23.193      0.495      0.073
  0.000                30.919      0.756      0.100
  0.000                38.562      0.410      0.061
  0.000                47.372      0.052      0.008
  0.000                54.740      0.089      0.010
  0.000                62.158      0.283      0.024
  0.000                69.854      0.294      0.027
  0.000                77.683      0.166      0.017
  0.000                85.454      0.045      0.007
  1.279                 7.183      0.209      0.022
  1.279                15.065      0.204      0.030
  1.279                23.936      0.199      0.029
  1.279                31.170      0.170      0.015
  1.279                39.026      0.126      0.012
  1.279                46.906      0.125      0.011
  1.279                54.778      0.114      0.012
  1.279                62.658      0.114      0.011
  1.279                70.173      0.115      0.013
  1.279                77.689      0.119      0.010
  1.279                85.209      0.128      0.014
  3.359                 7.328      0.114      0.011
  3.359                15.192      0.100      0.011
  3.359                22.887      0.104      0.012
  3.359                31.330      0.132      0.013
  3.359                39.390      0.135      0.011
  3.359                47.076      0.126      0.012
  3.359                55.131      0.120      0.011
  3.359                62.817      0.112      0.011
  3.359                70.504      0.106      0.010
  3.359                78.187      0.095      0.011
  3.359                85.670      0.070      0.009
  4.460                 7.047      0.156      0.020
  4.460                15.109      0.128      0.012
  4.460                23.319      0.067      0.007
  4.460                31.347      0.036      0.004
  4.460                39.023      0.024      0.003
  4.460                47.104      0.024      0.003
  4.460                55.371      0.026      0.004
  4.460                62.904      0.028      0.004
  4.460                70.773      0.021      0.003
  4.460                78.412      0.008      0.002
  4.460                86.007      0.020      0.005
  5.148                 8.303      0.018      0.003
  5.148                16.481      0.027      0.005
  5.148                24.531      0.025      0.006
  5.148                32.478      0.032      0.007
  5.148                40.724      0.030      0.006
  5.148                48.378      0.024      0.005
  5.148                56.244      0.022      0.004
  5.148                64.011      0.013      0.003
  5.148                71.755      0.016      0.003
  5.148                79.236      0.013      0.003
  5.148                87.250      0.010      0.003
  5.367                 6.996      1.509      0.140
  5.367                15.043      1.220      0.113
  5.367                23.073      0.801      0.094
  5.367                31.087      0.433      0.064
  5.367                39.262      0.175      0.026
  5.367                47.150      0.192      0.020
  5.367                54.876      0.278      0.026
  5.367                62.746      0.244      0.021
  5.367                70.420      0.184      0.022
  5.367                78.438      0.104      0.011
  5.367                85.926      0.075      0.009
  5.524                 5.068      0.168      0.015
  5.524                13.330      0.217      0.021
  5.524                21.224      0.219      0.021
  5.524                29.302      0.224      0.020
  5.524                37.381      0.201      0.028
  5.524                45.276      0.148      0.012
  5.524                53.354      0.078      0.009
  5.524                61.065      0.046      0.005
  5.524                69.143      0.038      0.005
  5.524                76.854      0.039      0.005
  5.524                84.565      0.045      0.006
  5.641                 6.124      0.076      0.008
  5.641                13.990      0.071      0.008
  5.641                22.039      0.070      0.009
  5.641                29.722      0.065      0.008
  5.641                38.136      0.055      0.006
  5.641                45.819      0.040      0.007
  5.641                53.685      0.021      0.003
  5.641                61.551      0.022      0.004
  5.641                69.417      0.014      0.003
  5.641                77.100      0.014      0.003
  5.641                84.600      0.010      0.002
  5.911                 8.170      0.085      0.014
  5.911                16.047      0.085      0.010
  5.911                24.517      0.113      0.017
  5.911                32.235      0.133      0.015
  5.911                40.236      0.093      0.009
  5.911                48.076      0.074      0.009
  5.911                55.934      0.067      0.009
  5.911                63.931      0.045      0.006
  5.911                71.542      0.027      0.005
  5.911                79.253      0.031      0.006
  5.911                86.927      0.027      0.005
  6.115                 7.840      1.164      0.098
  6.115                16.295      1.292      0.116
  6.115                24.157      1.066      0.122
  6.115                32.158      0.645      0.054
  6.115                40.087      0.236      0.018
  6.115                48.127      0.187      0.017
  6.115                56.224      0.223      0.022
  6.115                63.745      0.219      0.022
  6.115                71.917      0.122      0.013
  6.115                79.389      0.086      0.010
  6.115                87.104      0.091      0.010
  6.236                 8.061      1.102      0.115
  6.236                16.501      0.267      0.031
  6.236                24.557      0.298      0.027
  6.236                32.421      0.539      0.050
  6.236                40.093      0.399      0.061
  6.236                48.342      0.122      0.012
  6.236                56.399      0.025      0.006
  6.236                63.687      0.080      0.011
  6.236                71.934      0.097      0.010
  6.236                79.607      0.079      0.008
  6.236                87.280      0.042      0.004
  6.330                 4.310      0.123      0.027
  6.330                12.254      0.228      0.035
  6.330                20.283      0.252      0.034
  6.330                28.689      0.289      0.027
  6.330                36.391      0.228      0.020
  6.330                44.283      0.183      0.019
  6.330                52.363      0.148      0.015
  6.330                60.465      0.106      0.010
  6.330                67.225      0.076      0.008
  6.330                75.871      0.065      0.008
  6.330                83.333      0.069      0.017
  6.636                 4.830      0.312      0.046
  6.636                13.120      0.228      0.032
  6.636                21.211      0.174      0.048
  6.636                28.934      0.121      0.029
  6.636                37.202      0.101      0.012
  6.636                45.135      0.063      0.008
  6.636                53.173      0.066      0.009
  6.636                60.891      0.047      0.012
  6.636                68.360      0.048      0.009
  6.636                76.410      0.047      0.006
  6.636                84.132      0.033      0.011
  6.682                 8.375      0.081      0.021
  6.682                16.417      0.069      0.020
  6.682                24.850      0.064      0.015
  6.682                32.719      0.067      0.019
  6.682                40.762      0.058      0.012
  6.682                48.626      0.058      0.010
  6.682                56.475      0.048      0.005
  6.682                64.326      0.041      0.009
  6.682                72.186      0.039      0.008
  6.682                79.812      0.022      0.005
  6.820                 7.943      0.081      0.015
  6.820                16.191      0.081      0.023
  6.820                24.237      0.071      0.022
  6.820                32.493      0.081      0.027
  6.820                40.538      0.072      0.016
  6.820                48.367      0.045      0.011
  6.820                56.231      0.045      0.005
  6.820                64.093      0.043      0.005
  6.820                71.948      0.039      0.005
  6.820                79.406      0.030      0.004
  6.820                87.266      0.028      0.005
  6.856                 8.310      0.025      0.026
  6.856                16.397      0.048      0.018
  6.856                24.484      0.041      0.019
  6.856                32.571      0.026      0.019
  6.856                40.466      0.020      0.010
  6.856                48.553      0.030      0.008
  6.856                56.448      0.032      0.009
  6.856                64.342      0.039      0.010
  6.856                72.045      0.020      0.006
  6.856                79.940      0.016      0.004
  6.856                87.449      0.021      0.006
  6.903                 8.321      0.055      0.021
  6.903                16.408      0.058      0.022
  6.903                24.303      0.088      0.022
  6.903                32.390      0.089      0.026
  6.903                40.477      0.055      0.015
  6.903                48.179      0.025      0.007
  6.903                56.459      0.015      0.005
  6.903                71.863      0.020      0.005
  6.903                79.565      0.025      0.006
  6.903                87.460      0.022      0.005
  7.050                15.828      0.126      0.060
  7.050                23.915      0.106      0.044
  7.050                32.003      0.062      0.020
  7.050                39.897      0.039      0.010
  7.050                47.599      0.043      0.006
  7.050                55.687      0.030      0.007
  7.050                63.581      0.031      0.009
  7.050                71.284      0.028      0.006
  7.050                79.178      0.028      0.008
  7.050                86.880      0.018      0.003
  7.343                 7.789      1.297      0.244
  7.343                15.673      0.623      0.107
  7.343                23.942      0.572      0.055
  7.343                32.212      0.681      0.065
  7.343                40.096      0.565      0.051
  7.343                47.981      0.431      0.039
  7.343                55.673      0.253      0.023
  7.343                63.750      0.253      0.024
  7.343                71.634      0.281      0.031
  7.343                79.134      0.293      0.024
  7.343                87.019      0.193      0.017
  7.406      7.423      7.884      0.200      0.055
  7.406      7.423     16.163      0.212      0.018
  7.406      7.423     24.253      0.184      0.025
  7.406      7.423     32.152      0.142      0.014
  7.406      7.423     40.433      0.126      0.011
  7.406      7.423     48.327      0.134      0.013
  7.406      7.423     56.028      0.140      0.012
  7.406      7.423     64.119      0.110      0.010
  7.406      7.423     71.823      0.101      0.010
  7.406      7.423     79.525      0.101      0.010
  7.406      7.423     87.226      0.108      0.013
  7.470      7.489      6.480      0.257      0.023
  7.470      7.489     14.609      0.137      0.015
  7.470      7.489     22.929      0.063      0.011
  7.470      7.489     30.873      0.059      0.014
  7.470      7.489     39.014      0.064      0.013
  7.470      7.489     46.764      0.058      0.008
  7.470      7.489     54.903      0.060      0.006
  7.470      7.489     62.658      0.069      0.010
  7.470      7.489     70.408      0.064      0.009
  7.470      7.489     78.157      0.053      0.009
  7.470      7.489     85.905      0.045      0.011
  7.639                 6.387      0.224      0.026
  7.639                14.516      0.276      0.033
  7.639                22.645      0.313      0.029
  7.639                30.774      0.211      0.033
  7.639                38.710      0.184      0.019
  7.639                47.032      0.145      0.015
  7.639                54.968      0.135      0.012
  7.639                62.516      0.148      0.012
  7.639                70.258      0.157      0.015
  7.639                78.001      0.163      0.015
  7.639                85.936      0.106      0.011
  7.720                 6.750      1.528      0.136
  7.720                14.680      1.250      0.150
  7.720                23.191      0.862      0.090
  7.720                35.928      0.676      0.071
  7.720                41.858      0.393      0.041
  7.720                52.788      0.249      0.024
  7.720                62.456      0.195      0.020
  7.720                71.192      0.146      0.018
  7.720                77.929      0.113      0.011
  7.720                85.860      0.099      0.009
  7.925                 7.552      0.117      0.032
  7.925                15.672      0.089      0.026
  7.925                24.007      0.085      0.008
  7.925                32.311      0.058      0.006
  7.925                39.846      0.041      0.008
  7.925                48.166      0.034      0.005
  7.925                56.144      0.047      0.006
  7.925                63.702      0.044      0.007
  7.925                71.442      0.036      0.010
  7.925                79.183      0.031      0.007
  7.925                86.919      0.024      0.006
  8.081                 8.171      0.031      0.032
  8.081                16.545      0.039      0.011
  8.081                24.691      0.041      0.010
  8.081                32.877      0.054      0.010
  8.081                40.435      0.054      0.016
  8.081                48.567      0.051      0.013
  8.081                56.670      0.041      0.014
  8.081                64.523      0.024      0.008
  8.081                71.944      0.033      0.008
  8.081                79.920      0.040      0.011
  8.081                87.456      0.035      0.008
  8.129                 8.312      0.087      0.030
  8.129                16.671      0.098      0.024
  8.129                24.599      0.066      0.015
  8.129                32.551      0.060      0.009
  8.129                40.690      0.049      0.010
  8.129                48.624      0.035      0.009
  8.129                56.370      0.028      0.008
  8.129                64.133      0.027      0.008
  8.129                71.907      0.029      0.009
  8.129                79.872      0.030      0.007
  8.129                87.643      0.032      0.008
  8.164                 7.294      0.136      0.035
  8.164                15.443      0.118      0.016
  8.164                23.401      0.108      0.020
  8.164                31.353      0.087      0.019
  8.164                39.490      0.057      0.016
  8.164                47.634      0.043      0.010
  8.164                55.389      0.033      0.009
  8.164                63.152      0.030      0.010
  8.164                71.113      0.030      0.008
  8.164                78.683      0.028      0.007
  8.164                86.445      0.025      0.007
  8.387                 4.895      0.123      0.017
  8.387                13.051      0.122      0.015
  8.387                21.211      0.115      0.011
  8.387                29.375      0.104      0.013
  8.387                37.154      0.091      0.007
  8.387                45.348      0.057      0.008
  8.387                53.117      0.056      0.007
  8.387                60.902      0.045      0.008
  8.387                68.659      0.051      0.006
  8.387                76.623      0.049      0.006
  8.387                84.239      0.029      0.005
  8.500                 7.722      0.172      0.045
  8.500                15.680      0.167      0.043
  8.500                23.830      0.157      0.030
  8.500                32.174      0.146      0.027
  8.500                39.745      0.144      0.040
  8.500                48.090      0.137      0.031
  8.500                56.040      0.120      0.022
  8.500                63.589      0.090      0.014
  8.500                71.519      0.063      0.009
  8.500                79.286      0.063      0.010
  8.545                 7.867      0.110      0.010
  8.545                16.207      0.098      0.032
  8.545                24.157      0.090      0.030
  8.545                32.312      0.080      0.022
  8.545                40.080      0.087      0.022
  8.545                48.226      0.078      0.012
  8.545                56.173      0.066      0.016
  8.545                64.129      0.062      0.014
  8.545                71.680      0.048      0.011
  8.545                79.281      0.068      0.017
  8.545                86.819      0.045      0.008
  8.590                 8.243      0.606      0.074
  8.590                16.172      0.547      0.112
  8.590                24.720      0.298      0.046
  8.590                32.811      0.257      0.038
  8.590                40.696      0.140      0.047
  8.590                48.956      0.127      0.013
  8.590                56.894      0.126      0.014
  8.590                64.831      0.124      0.014
  8.590                72.433      0.117      0.012
  8.590                80.164      0.072      0.009
  8.590                88.104      0.074      0.009
  8.743                 5.711      0.473      0.053
  8.743                13.810      0.417      0.042
  8.743                22.074      0.357      0.034
  8.743                30.504      0.226      0.023
  8.743                38.603      0.218      0.065
  8.743                46.702      0.176      0.018
  8.743                54.470      0.142      0.014
  8.743                62.404      0.131      0.013
  8.743                70.007      0.109      0.013
  8.743                77.940      0.086      0.011
  8.743                85.874      0.068      0.009
  8.865                 5.308      0.073      0.018
  8.865                13.083      0.069      0.015
  8.865                21.688      0.060      0.010
  8.865                29.798      0.051      0.006
  8.865                37.907      0.043      0.007
  8.865                45.855      0.033      0.006
  8.865                53.800      0.027      0.004
  8.865                61.576      0.025      0.005
  8.865                69.197      0.017      0.006
  8.865                77.126      0.022      0.004
  8.865                84.724      0.029      0.006
  8.980                 6.389      0.219      0.035
  8.980                14.639      0.210      0.024
  8.980                22.560      0.183      0.023
  8.980                30.811      0.175      0.018
  8.980                38.731      0.133      0.013
  8.980                46.982      0.086      0.009
  8.980                54.738      0.082      0.009
  8.980                62.493      0.056      0.007
  8.980                70.249      0.044      0.007
  8.980                78.170      0.033      0.005
  8.980                85.925      0.020      0.003
  9.050                16.198      0.046      0.041
  9.050                23.996      0.070      0.027
  9.050                32.128      0.112      0.034
  9.050                40.242      0.137      0.042
  9.050                48.149      0.095      0.021
  9.050                56.239      0.084      0.023
  9.050                63.975      0.053      0.014
  9.050                71.740      0.051      0.010
  9.050                79.504      0.048      0.006
  9.050                87.259      0.040      0.012
  9.096                 7.771      0.548      0.057
  9.096                16.275      0.211      0.025
  9.096                24.476      0.113      0.017
  9.096                32.403      0.115      0.008
  9.096                40.478      0.097      0.007
  9.096                48.681      0.053      0.005
  9.096                56.619      0.061      0.018
  9.096                64.049      0.062      0.013
  9.096                72.294      0.054      0.016
  9.096                79.851      0.035      0.012
  9.096                87.459      0.041      0.014
  9.182                 8.111      0.154      0.043
  9.182                16.369      0.160      0.033
  9.182                24.483      0.222      0.046
  9.182                32.427      0.287      0.045
  9.182                40.356      0.303      0.053
  9.182                48.594      0.239      0.050
  9.182                56.656      0.160      0.022
  9.182                64.381      0.098      0.015
  9.182                72.123      0.076      0.012
  9.182                79.877      0.071      0.009
  9.182                87.630      0.064      0.012
  9.229                 7.989      1.223      0.117
  9.229                16.234      1.010      0.097
  9.229                24.465      0.672      0.082
  9.229                32.521      0.393      0.054
  9.229                40.231      0.188      0.043
  9.229                48.465      0.130      0.018
  9.229                56.425      0.200      0.019
  9.229                64.156      0.125      0.015
  9.229                72.058      0.086      0.009
  9.229                79.756      0.034      0.006
  9.229                87.375      0.045      0.007
  9.337                 4.720      0.311      0.032
  9.337                12.977      0.252      0.025
  9.337                21.075      0.188      0.031
  9.337                45.311      0.175      0.016
  9.337                53.230      0.158      0.016
  9.337                60.997      0.119      0.012
  9.337                68.768      0.087      0.009
  9.337                76.506      0.098      0.010
  9.337                84.441      0.071      0.009
  9.510                 8.646      0.802      0.181
  9.510                16.849      0.610      0.127
  9.510                25.088      0.599      0.106
  9.510                33.496      0.605      0.079
  9.510                41.379      0.492      0.079
  9.510                49.112      0.446      0.079
  9.510                57.140      0.317      0.056
  9.510                64.799      0.172      0.022
  9.510                72.676      0.134      0.013
  9.510                80.415      0.126      0.014
  9.510                87.991      0.121      0.025
  9.541                 8.011      1.507      0.153
  9.541                16.244      1.328      0.131
  9.541                24.609      0.859      0.084
  9.541                32.606      0.392      0.040
  9.541                40.450      0.199      0.032
  9.541                48.503      0.153      0.027
  9.541                56.268      0.174      0.028
  9.541                64.482      0.129      0.015
  9.541                72.204      0.098      0.011
  9.541                79.812      0.119      0.017
  9.541                87.378      0.098      0.019
  9.654                 7.910      0.245      0.023
  9.654                16.324      0.217      0.023
  9.654                24.232      0.160      0.022
  9.654                32.325      0.171      0.015
  9.654                40.561      0.121      0.011
  9.654                48.324      0.127      0.018
  9.654                56.569      0.107      0.013
  9.654                64.321      0.094      0.009
  9.654                72.399      0.075      0.009
  9.654                79.655      0.065      0.007
  9.654                88.227      0.051      0.007
  9.734                 3.250      0.146      0.014
  9.734                11.398      0.080      0.009
  9.734                19.732      0.093      0.009
  9.734                27.880      0.064      0.008
  9.734                36.028      0.056      0.007
  9.734                43.806      0.065      0.009
  9.734                51.769      0.080      0.009
  9.734                59.917      0.065      0.008
  9.734                67.509      0.072      0.008
  9.734                75.102      0.069      0.009
  9.734                82.694      0.096      0.016
  9.841                 4.564      0.166      0.016
  9.841                12.527      0.135      0.012
  9.841                20.860      0.094      0.011
  9.841                29.893      0.073      0.009
  9.841                38.955      0.066      0.008
  9.841                49.118      0.057      0.008
  9.841                60.711      0.061      0.008
  9.841                66.858      0.058      0.007
  9.841                72.636      0.051      0.009
  9.841                80.228      0.045      0.006
  9.841                89.634      0.038      0.005
 10.072                 4.353      0.164      0.016
 10.072                12.521      0.113      0.012
 10.072                20.875      0.084      0.011
 10.072                29.228      0.082      0.009
 10.072                37.025      0.065      0.008
 10.072                45.194      0.066      0.008
 10.072                52.805      0.074      0.008
 10.072                60.973      0.051      0.007
 10.072                68.770      0.054      0.008
 10.072                76.381      0.033      0.006
 10.072                83.807      0.018      0.004
 10.142                 6.668      1.987      0.167
 10.142                14.632      1.682      0.170
 10.142                22.950      1.155      0.117
 10.142                31.244      0.593      0.072
 10.142                39.355      0.315      0.034
 10.142                47.339      0.339      0.036
 10.142                55.116      0.282      0.034
 10.142                63.069      0.210      0.045
 10.142                71.022      0.156      0.017
 10.142                78.635      0.169      0.018
 10.142                86.234      0.155      0.016
 10.230                 7.732      0.107      0.016
 10.230                16.045      0.103      0.012
 10.230                23.976      0.090      0.011
 10.230                32.296      0.093      0.014
 10.230                40.240      0.090      0.012
 10.230                48.383      0.099      0.010
 10.230                56.121      0.081      0.008
 10.230                64.008      0.049      0.006
 10.230                71.714      0.031      0.005
 10.230                79.331      0.043      0.006
 10.230                87.076      0.037      0.007
 10.316                 7.928      0.328      0.049
 10.316                16.080      0.301      0.030
 10.316                24.214      0.241      0.036
 10.316                32.695      0.160      0.016
 10.316                40.660      0.145      0.015
 10.316                48.822      0.144      0.014
 10.316                56.587      0.117      0.010
 10.316                64.332      0.081      0.009
 10.316                72.129      0.085      0.010
 10.316                79.942      0.100      0.010
 10.316                87.703      0.079      0.010
 10.384                 5.857      0.178      0.040
 10.384                14.291      0.079      0.011
 10.384                30.545      0.078      0.011
 10.384                38.411      0.029      0.007
 10.384                46.417      0.066      0.007
 10.384                54.171      0.062      0.008
 10.384                62.098      0.051      0.006
 10.384                70.016      0.037      0.006
 10.384                77.563      0.026      0.005
 10.384                85.520      0.032      0.005
 10.466                 7.748      0.546      0.140
 10.466                16.053      0.486      0.125
 10.466                24.116      0.466      0.149
 10.466                32.164      0.351      0.096
 10.466                40.366      0.255      0.069
 10.466                48.352      0.241      0.066
 10.466                56.225      0.171      0.047
 10.466                64.092      0.115      0.033
 10.466                72.093      0.126      0.034
 10.466                79.740      0.106      0.028
 10.466                87.374      0.079      0.024
 10.504                 6.010      0.548      0.057
 10.504                14.318      0.488      0.042
 10.504                22.630      0.453      0.068
 10.504                30.007      0.366      0.043
 10.504                38.299      0.265      0.024
 10.504                46.611      0.250      0.022
 10.504                54.533      0.240      0.025
 10.504                62.265      0.180      0.011
 10.504                70.036      0.134      0.012
 10.504                77.785      0.111      0.010
 10.504                85.896      0.085      0.011
 10.551                 6.209      0.784      0.075
 10.551                14.696      0.630      0.060
 10.551                22.442      0.485      0.044
 10.551                30.725      0.264      0.032
 10.551                38.836      0.186      0.032
 10.551                46.582      0.143      0.013
 10.551                54.892      0.137      0.013
 10.551                62.649      0.133      0.012
 10.551                70.387      0.086      0.009
 10.551                78.119      0.050      0.008
 10.551                86.244      0.047      0.007
 10.618     10.654      7.954      0.040      0.023
 10.618     10.654     15.825      0.106      0.025
 10.618     10.654     23.942      0.091      0.027
 10.618     10.654     32.317      0.152      0.016
 10.618     10.654     40.245      0.127      0.012
 10.618     10.654     48.186      0.120      0.010
 10.618     10.654     56.082      0.075      0.008
 10.618     10.654     64.177      0.054      0.007
 10.618     10.654     71.768      0.060      0.011
 10.618     10.654     79.336      0.055      0.007
 10.618     10.654     87.421      0.036      0.007
 10.720                 8.382      0.292      0.042
 10.720                16.518      0.326      0.037
 10.720                24.821      0.314      0.027
 10.720                32.747      0.281      0.026
 10.720                40.651      0.207      0.023
 10.720                48.590      0.208      0.023
 10.720                56.694      0.176      0.016
 10.720                64.785      0.131      0.013
 10.720                72.343      0.119      0.017
 10.720                80.097      0.120      0.012
 10.720                87.662      0.116      0.014
 10.820                 5.019      0.095      0.037
 10.820                15.199      0.080      0.023
 10.820                20.354      0.093      0.029
 10.820                30.524      0.090      0.024
 10.820                45.866      0.098      0.011
 10.820                53.885      0.064      0.019
 10.820                58.466      0.108      0.011
 10.820                65.458      0.100      0.010
 10.820                72.282      0.077      0.009
 10.820                79.088      0.076      0.009
 10.820                88.902      0.067      0.009
 10.870                 6.602      0.265      0.031
 10.870                14.760      0.219      0.029
 10.870                22.921      0.196      0.023
 10.870                30.894      0.150      0.020
 10.870                39.590      0.108      0.010
 10.870                47.374      0.072      0.009
 10.870                55.352      0.061      0.010
 10.870                63.152      0.057      0.010
 10.870                70.943      0.044      0.006
 10.870                78.736      0.034      0.006
 10.933                 3.576      0.857      0.109
 10.933                11.788      0.396      0.050
 10.933                19.981      0.236      0.038
 10.933                27.987      0.152      0.020
 10.933                36.002      0.087      0.011
 10.933                44.371      0.055      0.009
 10.933                52.546      0.041      0.008
 10.933                60.116      0.068      0.011
 10.933                68.296      0.047      0.006
 10.933                75.700      0.063      0.008
 10.933                83.886      0.041      0.006
 11.064                 6.675      1.602      0.213
 11.064                12.110      1.454      0.211
 11.064                23.511      0.977      0.096
 11.064                31.456      0.562      0.050
 11.064                39.579      0.304      0.027
 11.064                47.726      0.239      0.020
 11.064                55.713      0.266      0.026
 11.064                63.506      0.241      0.022
 11.064                71.292      0.199      0.018
 11.064                79.082      0.172      0.018
 11.064                86.881      0.171      0.018
 11.173                 7.856      0.522      0.079
 11.173                16.039      0.528      0.090
 11.173                24.394      0.485      0.051
 11.173                32.385      0.439      0.058
 11.173                40.547      0.356      0.032
 11.173                48.694      0.247      0.024
 11.173                56.702      0.270      0.020
 11.173                64.503      0.226      0.020
 11.173                72.133      0.211      0.022
 11.173                79.935      0.180      0.019
 11.173                87.738      0.153      0.015
 11.291                 7.858      0.515      0.086
 11.291                15.858      0.521      0.082
 11.291                24.408      0.553      0.063
 11.291                32.564      0.397      0.041
 11.291                40.709      0.249      0.029
 11.291                48.661      0.137      0.016
 11.291                56.848      0.146      0.013
 11.291                64.663      0.141      0.013
 11.291                72.292      0.128      0.013
 11.291                80.285      0.118      0.012
 11.291                88.092      0.102      0.012
 11.433     11.466      9.689      0.717      0.098
 11.433     11.466     17.773      0.674      0.081
 11.433     11.466     26.025      0.590      0.090
 11.433     11.466     34.422      0.411      0.076
 11.433     11.466     42.188      0.160      0.030
 11.433     11.466     50.181      0.084      0.014
 11.433     11.466     58.125      0.102      0.012
 11.433     11.466     66.013      0.087      0.012
 11.433     11.466     74.032      0.054      0.006
 11.433     11.466     81.590      0.055      0.006
 11.433     11.466     89.072      0.035      0.010
 11.533                 5.480      0.527      0.072
 11.533                13.409      0.489      0.040
 11.533                21.696      0.508      0.061
 11.533                29.807      0.426      0.046
 11.533                37.741      0.282      0.026
 11.533                45.852      0.237      0.028
 11.533                53.600      0.229      0.027
 11.533                61.709      0.219      0.026
 11.533                69.276      0.218      0.021
 11.533                77.206      0.185      0.031
 11.533                84.779      0.137      0.020
 11.594                 7.258      0.102      0.058
 11.594                15.330      0.061      0.036
 11.594                23.510      0.144      0.044
 11.594                31.702      0.039      0.015
 11.594                39.692      0.082      0.022
 11.594                55.552      0.076      0.022
 11.594                85.583      0.043      0.012
 11.656                 8.182      0.039      0.026
 11.656                16.676      0.038      0.025
 11.656                24.548      0.070      0.025
 11.656                33.057      0.075      0.026
 11.656                40.877      0.100      0.028
 11.656                49.159      0.079      0.025
 11.656                56.858      0.154      0.044
 11.656                64.963      0.126      0.026
 11.656                72.884      0.100      0.018
 11.656                80.491      0.108      0.029
 11.656                88.279      0.117      0.019
 11.708                 8.644      0.140      0.068
 11.708                16.733      0.132      0.051
 11.708                24.818      0.121      0.041
 11.708                33.227      0.088      0.026
 11.708                40.894      0.056      0.023
 11.708                49.051      0.081      0.021
 11.708                56.836      0.109      0.023
 11.708                64.923      0.101      0.030
 11.708                72.504      0.117      0.039
 11.708                80.349      0.073      0.033
 11.772                 8.513      1.385      0.152
 11.772                16.618      1.355      0.130
 11.772                24.900      1.307      0.126
 11.772                33.140      0.957      0.087
 11.772                41.021      0.711      0.078
 11.772                49.190      0.333      0.030
 11.772                56.945      0.350      0.034
 11.772                64.998      0.245      0.020
 11.772                72.751      0.255      0.024
 11.772                80.493      0.246      0.020
 11.772                88.000      0.167      0.014
 11.907                 8.297      1.467      0.162
 11.907                16.143      1.109      0.108
 11.907                24.329      0.665      0.100
 11.907                32.686      0.458      0.051
 11.907                40.701      0.363      0.045
 11.907                48.717      0.250      0.024
 11.907                56.904      0.281      0.031
 11.907                64.578      0.193      0.034
 11.907                72.424      0.189      0.016
 11.907                80.099      0.184      0.016
 11.907                87.773      0.148      0.013
 12.071                14.093      0.284      0.048
 12.071                24.426      0.173      0.027
 12.071                32.590      0.179      0.026
 12.071                40.753      0.144      0.015
 12.071                48.746      0.130      0.014
 12.071                56.739      0.146      0.014
 12.071                64.562      0.154      0.015
 12.071                72.385      0.223      0.021
 12.071                80.208      0.193      0.019
 12.071                87.691      0.141      0.012
 12.218                13.330      0.100      0.020
 12.218                21.662      0.104      0.019
 12.218                29.869      0.080      0.015
 12.218                38.054      0.071      0.012
 12.218                46.277      0.049      0.009
 12.218                54.268      0.052      0.011
 12.218                62.053      0.069      0.011
 12.218                69.644      0.108      0.010
 12.218                77.444      0.130      0.011
 12.218                85.483      0.098      0.009
 12.390                 7.589      0.742      0.114
 12.390                15.752      0.642      0.144
 12.390                24.085      0.557      0.071
 12.390                32.248      0.444      0.056
 12.390                40.241      0.306      0.031
 12.390                49.404      0.222      0.025
 12.390                59.194      0.167      0.029
 12.390                65.731      0.130      0.013
 12.390                71.384      0.111      0.023
 12.390                80.037      0.093      0.022
 12.390                89.682      0.119      0.025
 12.450                 8.373      0.478      0.189
 12.450                24.816      0.270      0.065
 12.450                32.930      0.122      0.035
 12.450                41.079      0.123      0.024
 12.450                49.058      0.121      0.020
 12.450                57.021      0.083      0.015
 12.450                65.165      0.075      0.010
 12.450                72.820      0.105      0.011
 12.450                80.479      0.159      0.018
 12.643                 7.844      0.602      0.163
 12.643                16.328      0.391      0.166
 12.643                24.134      0.236      0.049
 12.643                32.448      0.116      0.030
 12.643                40.423      0.101      0.023
 12.643                48.568      0.066      0.013
 12.643                56.373      0.059      0.013
 12.643                64.518      0.048      0.012
 12.643                72.323      0.063      0.013
 12.643                79.959      0.047      0.012
 12.862                 7.838      0.162      0.071
 12.862                16.152      0.154      0.039
 12.862                24.127      0.133      0.038
 12.862                32.442      0.124      0.029
 12.862                40.756      0.063      0.013
 12.862                48.731      0.041      0.011
 12.862                64.851      0.032      0.009
 12.910                 7.442      0.263      0.045
 12.910                15.912      0.228      0.049
 12.910                23.873      0.135      0.027
 12.910                32.173      0.096      0.022
 12.910                40.304      0.082      0.016
 12.910                48.604      0.066      0.019
 12.910                56.397      0.061      0.015
 12.910                64.528      0.064      0.014
 12.910                72.150      0.067      0.016
 12.910                79.942      0.069      0.018
 13.078                 7.688      0.505      0.142
 13.078                16.008      0.218      0.065
 13.078                23.987      0.206      0.065
 13.078                32.476      0.107      0.028
 13.078                40.456      0.146      0.039
 13.078                48.775      0.129      0.036
 13.078                64.904      0.093      0.026
 13.274                 7.841      0.262      0.101
 13.274                16.155      0.126      0.038
 13.274                32.784      0.151      0.061
 13.274                40.929      0.089      0.026
 13.274                49.074      0.100      0.040
 13.274                56.709      0.110      0.037
 13.274                65.024      0.069      0.021
 13.384                 8.181      0.197      0.139
 13.384                16.514      0.125      0.072
 13.384                49.167      0.094      0.028
 13.384                57.330      0.100      0.025
ENDDATA            809
ENDSUBENT          823
ENDENTRY             2
