ENTRY            T0049   20220418   20230113   20230112       C217
SUBENT        T0049001   20220418   20230113   20230112       C217
BIB                  9         17
TITLE      Neutron pickup strength in 87Sr from the (p(pol),d)
           reaction
AUTHOR     (M.C.Radhakrishna,N.G.Puttaswamy,H.Nann,D.W.Miller,
           P.P.Singh,W.W.Jacobs,W.P.Jones,E.J.Stephenson)
REFERENCE  (J,PR/C,40,1603,1989)
           #doi:10.1103/PhysRevC.40.1603
           (T,RADHAKRISHNA,1989)
INSTITUTE  (1USAINU)
FACILITY   (CYCLO,1USAINU) Indiana University Cyclotron Facility.
INC-SOURCE (POLIS)
METHOD     Particle spectra analyzed using computer code ALLFIT.
ERR-ANALYS (ERR-S) Statistical uncertainty given.
HISTORY    (20000418C) VM
           (20220418A) BP: Added doi, updated STATUS and
           REFERENCE, digitized data (unobtainable data) per an
           NRDC decision for data sets that were published
           before 2000 (C32 of WP2022-01).
ENDBIB              17
NOCOMMON             0          0
ENDSUBENT           20
SUBENT        T0049002   20220418   20230113   20230112       C217
BIB                  7         14
REACTION   (38-SR-87(P,EL)38-SR-87,,DA)
SAMPLE     (38-SR-87,ENR=0.8488)
           (38-SR-88,ENR=0.1384) Targets isotopic composition
           87Sr (84.88%), 88Sr(13.84%). Areal density of targets
           5.0 and 10 mg/cm2.
DETECTOR   (MAGSP,PROPC,SCIN) QDDM magnetic spectrometer.
           Position-sensitive helical proportional counters in
           focal plane, followed by 2 plastic scintillators for
           particle identification.
MONITOR    (40-ZR-90(P,EL)40-ZR-90,,DA)
CORRECTION Corrected for 88Sr content of targets.
STATUS     (TABLE) Tabulated data from thesis, Radhakrishna,
           received from E. Stephenson, 21 April 2000.
HISTORY    (20220418A) BP: Corrected SAMPLE and STATUS.
ENDBIB              14
COMMON               1          3
EN
MEV
       94.2
ENDCOMMON            3
DATA                 3         48
ANG-CM     DATA-CM    ERR-S
ADEG       MB/SR      MB/SR
       7.68     9284.0       11.0
       8.71     3812.2        6.0
       9.73     1262.2        3.3
      10.76      366.4        2.6
      11.78      357.8        2.5
      12.80      538.6        3.5
      13.83      650.7        3.7
      14.34      604.5        2.9
      15.88      394.4        1.5
      16.90      196.6        1.2
      17.92      57.65       0.53
      18.95      10.56       0.15
      19.97      25.91       0.28
      20.99      73.36       0.34
      22.01      106.0        0.4
      23.04      116.7        0.3
      24.06      99.88       0.46
      25.08      74.07       0.65
      27.13      28.71       0.25
      28.15      21.47       0.23
      29.17      23.14       0.21
      30.19      30.10       0.27
      31.21      35.39       0.38
      32.74      39.03       0.37
      33.25      38.10       0.36
      34.28      34.02       0.19
      36.32      20.94       0.14
      38.35      13.24       0.09
      40.39      11.85       0.08
      42.43      11.22       0.09
      44.47      9.163      0.075
      46.50      6.270      0.067
      48.54      4.286      0.026
      51.58      3.125      0.041
      54.63      2.438      0.034
      57.67      1.515      0.017
      60.71     0.7820     0.0146
      63.75     0.6171     0.0085
      66.78     0.4233     0.0051
      69.81     0.2482     0.0034
      73.84     0.1518     0.0020
      77.86     0.0915     0.0017
      81.88     0.0467     0.0010
      86.90     0.0270     0.0007
      91.90     0.0136     0.0007
     100.88     0.0068     0.0003
     110.82     0.0012     0.0002
     120.72     0.0005     0.0002
ENDDATA             50
ENDSUBENT           73
SUBENT        T0049003   20220418   20230113   20230112       C217
BIB                  6         13
REACTION   (38-SR-87(P,EL)38-SR-87,,POL/DA,,ANA)
SAMPLE     (38-SR-87,ENR=0.8488)
           (38-SR-88,ENR=0.1384) Targets isotopic composition
           87Sr (84.88%), 88Sr (13.84%). Areal density of
           targets 5.0 and 10 mg/cm2.
DETECTOR   (MAGSP,PROPC,SCIN) QDDM magnetic spectrometer.
           Position-sensitive helical proportional counters in
           focal plane, followed by 2 plastic scintillators for
           particle identification.
CORRECTION Corrected for 88Sr content of targets.
STATUS     (TABLE) Tabulated data from thesis, Radhakrishna,
           received from E. Stephenson, 21 April 2000.
HISTORY    (20220418A) BP: Corrected SAMPLE and STATUS.
ENDBIB              13
COMMON               1          3
EN
MEV
       94.2
ENDCOMMON            3
DATA                 3         48
ANG-CM     DATA       ERR-S
ADEG       NO-DIM     NO-DIM
       7.68     -0.058      0.001
       8.71     -0.080      0.002
       9.73     -0.085      0.003
      10.76     -0.130      0.007
      11.78     -0.038      0.007
      12.80     -0.017      0.007
      13.83     -0.049      0.006
      14.34     -0.066      0.005
      15.88     -0.101      0.004
      16.90     -0.130      0.007
      17.92     -0.184      0.010
      18.95     -0.002      0.015
      19.97      0.103      0.001
      20.99     -0.047      0.005
      22.01     -0.128      0.004
      23.04     -0.178      0.003
      24.06     -0.241      0.004
      25.08     -0.313      0.008
      27.13     -0.398      0.008
      28.15     -0.204      0.011
      29.17      0.103      0.010
      30.19      0.197      0.010
      31.21      0.181      0.012
      32.74      0.088      0.010
      33.25      0.026      0.010
      34.28     -0.020      0.006
      36.32     -0.035      0.007
      38.35      0.199      0.007
      40.39      0.411      0.007
      42.43      0.424      0.008
      44.47      0.334      0.009
      46.50      0.339      0.012
      48.54      0.448      0.007
      51.58      0.677      0.014
      54.63      0.646      0.016
      57.67      0.632      0.016
      60.71      0.818      0.018
      63.75      0.828      0.014
      66.78      0.835      0.013
      69.81      0.836      0.013
      73.84      0.919      0.013
      77.86      0.911      0.016
      81.88      0.916      0.019
      86.90      0.962      0.021
      91.90      0.958      0.028
     100.88      0.995      0.016
     110.82      0.955      0.044
     120.72      0.977      0.049
ENDDATA             50
ENDSUBENT           72
SUBENT        T0049004   20220418   20230113   20230112       C217
BIB                  6         10
REACTION   (38-SR-86(D,EL)38-SR-86,,DA)
SAMPLE     (38-SR-87,ENR=0.8488) Target enriched to 84.88% 87Sr.
           Areal density 5.0 and 10 mg/cm2.
DETECTOR   (MAGSP,PROPC,SCIN) QDDM magnetic spectrometer.
           Position sensitive helical proportional counters in
           focal plane followed by 2 plastic scintillators for
           particle identification.
MONITOR    (40-ZR-90(D,EL)40-ZR-90,,DA)
STATUS     (TABLE) Data taken from thesis, Radhakrishna.
HISTORY    (20220418A) BP: Corrected SAMPLE and STATUS.
ENDBIB              10
COMMON               1          3
EN
MEV
       88.0
ENDCOMMON            3
DATA                 3         60
ANG-CM     DATA-CM    ERR-S
ADEG       MB/SR      MB/SR
       9.06     9643.6       13.9
      10.08     7429.2       11.0
      11.09     5426.5        9.4
      12.10     3781.6        7.9
      13.11     2375.6        3.4
      14.13     1435.6        1.9
      15.14     731.66       1.08
      16.15     346.88       0.72
      16.25     284.28       0.72
      17.16     112.06       0.39
      17.26     100.80       0.53
      18.18      50.07       0.30
      18.28      46.26       0.36
      19.19      61.10       0.27
      20.20     106.90       0.20
      21.21     163.51       0.41
      22.22     200.00       0.52
      23.24     213.55       0.50
      24.25     210.85       0.12
      25.26     185.19       0.24
      26.27     152.59       0.13
      27.28     118.31       0.34
      28.29      86.27       0.26
      29.30      59.14       0.18
      30.31      37.09       0.12
      31.33      23.43       0.08
      32.34      15.51       0.06
      33.35      12.26       0.06
      34.36      12.32       0.05
      35.37      13.58       0.05
      36.38      15.62       0.06
      37.39      16.61       0.06
      38.40      16.33       0.03
      39.41      16.09       0.06
      40.42      15.34       0.03
      42.44      11.24       0.05
      44.46      6.797      0.031
      46.47      3.594      0.018
      48.49      2.745      0.016
      50.51      2.627      0.008
      52.52      2.777      0.014
      54.54      2.313      0.012
      56.55      1.820      0.010
      58.57      1.103      0.008
      60.58     0.6594     0.0043
      62.59     0.4562     0.0046
      64.61     0.4173     0.0027
      66.62     0.4140     0.0040
      68.63     0.4113     0.0023
      70.64     0.3402     0.0029
      72.64     0.2401     0.0017
      74.65     0.1607     0.0015
      76.66     0.0811     0.0009
      78.66     0.0534     0.0006
      80.67     0.0430     0.0007
      82.67     0.0467     0.0006
      84.68     0.0509     0.0007
      86.68     0.0506     0.0006
      88.68     0.0393     0.0006
      90.68     0.0334     0.0005
ENDDATA             62
ENDSUBENT           81
SUBENT        T0049005   20220418   20230113   20230112       C217
BIB                  5          9
REACTION   (38-SR-86(D,EL)38-SR-86,,POL/DA,,ANA)
SAMPLE     (38-SR-87,ENR=0.9689) Target enriched to 96.89% 86Sr.
           Areal density 4.2 and 11.7 mg/cm2.
DETECTOR   (MAGSP,PROPC,SCIN) QDDM magnetic spectrometer.
           Position sensitive helical proportional counters in
           focal plane followed by 2 plastic scintillators for
           particle identification.
STATUS     (TABLE) Data taken from thesis, Radhakrishna.
HISTORY    (20220418A) BP: Corrected SAMPLE and STATUS.
ENDBIB               9
COMMON               1          3
EN
MEV
       88.0
ENDCOMMON            3
DATA                 3         60
ANG-CM     DATA       ERR-S
ADEG       NO-DIM     NO-DIM
       9.06      0.151      0.002
      10.08      0.143      0.002
      11.09      0.107      0.002
      12.10      0.077      0.003
      13.11      0.033      0.002
      14.13     -0.032      0.002
      15.14     -0.092      0.002
      16.15     -0.211      0.003
      16.25     -0.266      0.003
      17.16     -0.340      0.004
      17.26     -0.359      0.006
      18.18      0.021      0.007
      18.28      0.083      0.010
      19.19      0.753      0.005
      20.20      0.746      0.002
      21.21      0.629      0.003
      22.22      0.555      0.003
      23.24      0.506      0.003
      24.25      0.450      0.001
      25.26      0.417      0.001
      26.27      0.392      0.001
      27.28      0.366      0.003
      28.29      0.345      0.004
      29.30      0.324      0.004
      30.31      0.310      0.004
      31.33      0.355      0.004
      32.34      0.476      0.005
      33.35      0.688      0.005
      34.36      0.822      0.004
      35.37      0.865      0.004
      36.38      0.852      0.004
      37.39      0.822      0.004
      38.40      0.781      0.002
      39.41      0.760      0.004
      40.42      0.740      0.002
      42.44      0.702      0.005
      44.46      0.669      0.005
      46.47      0.655      0.005
      48.49      0.735      0.006
      50.51      0.769      0.003
      52.52      0.802      0.005
      54.54      0.839      0.005
      56.55      0.853      0.005
      58.57      0.905      0.007
      60.58      0.886      0.006
      62.59      0.860      0.009
      64.61      0.729      0.006
      66.62      0.694      0.010
      68.63      0.715      0.006
      70.64      0.720      0.009
      72.64      0.772      0.007
      74.65      0.821      0.009
      76.66      0.925      0.009
      78.66      0.957      0.009
      80.67      0.880      0.015
      82.67      0.808      0.012
      84.68      0.743      0.014
      86.68      0.720      0.013
      88.68      0.761      0.014
      90.68      0.746      0.014
ENDDATA             62
ENDSUBENT           80
SUBENT        T0049006   20220418   20230113   20230112       C217
BIB                  5         11
REACTION   (38-SR-87(P,D)38-SR-86,PAR,DA)
SAMPLE     (38-SR-87,ENR=0.8488) Target enriched to 84.88% 87Sr.
           Areal density 5.0 and 10 mg/cm2.
DETECTOR   (MAGSP,PROPC,SCIN) QDDM magnetic spectrometer used at
           94.2 MeV; K600 magnetic spectrometer used at 91.8
           MeV. Position-sensitive helical proportional counters
           in focal plane, followed by 2 plastic scintillators
           for particle identification.
STATUS     (CURVE) Figs. 4,6-9, pages 1606-1607 of
           J,PR/C,40,1603,1989.
HISTORY    (20220418A) BP: Digitized data.
ENDBIB              11
COMMON               1          3
EN
MEV
       91.8
ENDCOMMON            3
DATA                 4        269
E-EXC      ANG-CM     DATA-CM    ERR-S
MEV        ADEG       MB/SR      MB/SR
      0.000      8.688  1.344E-01
      0.000     10.675  1.429E-01
      0.000     12.788  1.594E-01
      0.000     15.020  1.566E-01
      0.000     16.879  1.492E-01
      0.000     18.852  1.105E-01
      0.000     20.948  7.799E-02
      0.000     23.901  4.210E-02
      1.077      6.178  5.357E-01
      1.077      8.906  5.333E-01
      1.077     10.943  6.519E-01
      1.077     12.990  6.311E-01
      1.077     14.811  5.936E-01
      1.077     16.640  4.553E-01
      1.077     18.926  3.389E-01
      1.077     21.677  1.997E-01
      1.847      6.332  1.540E-01
      1.847      8.604  1.586E-01
      1.847     10.867  2.085E-01
      1.847     12.692  1.744E-01
      1.847     14.510  1.737E-01
      1.847     17.249  1.261E-01
      1.847     18.627  8.564E-02
      1.847     22.284  4.860E-02
      2.097      6.929  6.273E-03
      2.097      8.739  7.693E-03
      2.097     11.002  9.713E-03
      2.097     13.276  9.434E-03
      2.097     14.855  1.263E-02
      2.097     17.148  7.920E-03
      2.097     19.440  5.115E-03
      2.097     22.413  3.401E-03
      2.223      6.428  1.185E+00
      2.223      8.922  1.334E+00
      2.223     10.964  1.431E+00
      2.223     13.238  1.393E+00
      2.223     15.285  1.357E+00
      2.223     17.342  1.088E+00
      2.223     19.402  8.317E-01
      2.223     22.377  5.625E-01
      2.476      6.005  1.017E+00
      2.476      8.201  8.600E-01
      2.476     10.203  5.447E-01
      2.476     12.383  2.845E-01
      2.476     14.015  1.636E-01
      2.476     16.401  1.720E-01
      2.476     17.992  3.034E-02  5.325E-03
      2.476     20.180  2.017E-02  4.319E-03
      2.476     23.288  1.477E-02  3.717E-03
      2.639      7.005  6.458E-02
      2.639      9.280  6.093E-02
      2.639     11.070  1.191E-01
      2.639     13.580  9.434E-02
      2.639     15.394  1.060E-01
      2.639     17.452  7.920E-02
      2.639     19.751  4.421E-02
      2.639     22.725  2.856E-02
      2.674      8.073  3.241E-01
      2.674     10.459  1.893E-01
      2.674     12.294  1.186E-01
      2.674     14.312  8.948E-02
      2.674     16.147  7.412E-02
      2.674     18.532  5.721E-02
      2.674     20.367  4.630E-02
      2.674     23.486  2.405E-02
      2.780      7.626  1.502E-02
      2.780      9.424  2.256E-02
      2.780     11.475  2.048E-02
      2.780     13.516  2.275E-02
      2.780     15.800  1.822E-02
      2.780     17.610  2.181E-02
      2.780     19.907  1.357E-02
      2.780     22.660  8.246E-03
      2.856      7.259  1.935E+00
      2.856      9.304  1.944E+00
      2.856     11.571  2.222E+00
      2.856     13.616  2.291E+00
      2.856     15.435  2.242E+00
      2.856     17.493  1.790E+00
      2.856     19.778  1.393E+00
      2.856     22.981  9.318E-01
      2.956      8.029  1.773E+00
      2.956      9.620  1.773E+00
      2.956     11.660  1.960E+00
      2.956     13.929  2.082E+00
      2.956     15.521  2.041E+00
      2.956     17.577  1.737E+00
      2.956     19.864  1.392E+00
      2.956     23.065  1.030E+00
      2.995      7.152  4.549E-01
      2.995      9.419  4.458E-01
      2.995     11.366  4.030E-01
      2.995     13.638  3.498E-01
      2.995     15.417  3.717E-01
      2.995     17.366  3.162E-01
      2.995     19.644  2.243E-01
      2.995     22.902  1.224E-01
      3.068      7.661  1.393E-01
      3.068      9.765  1.454E-01
      3.068     11.871  1.399E-01
      3.068     13.651  1.489E-01
      3.068     15.760  1.323E-01
      3.068     17.872  1.083E-01
      3.068     20.148  8.351E-02
      3.068     23.241  4.956E-02
      3.186      8.030  9.431E-01
      3.186      9.849  6.348E-01
      3.186     11.854  4.545E-01  5.334E-02
      3.186     13.861  3.464E-01
      3.186     16.056  2.868E-01
      3.186     17.877  2.054E-01
      3.186     20.068  1.565E-01
      3.186     22.807  1.143E-01
      3.320      8.307  4.435E-01
      3.320     10.278  3.145E-01
      3.320     12.498  2.230E-01
      3.320     14.347  1.658E-01
      3.320     16.570  1.271E-01
      3.320     18.407  7.023E-02
      3.320     20.630  5.384E-02
      3.320     23.597  4.127E-02
      3.491      8.811  1.094E+00
      3.491     10.973  1.094E+00
      3.491     12.951  1.000E+00
      3.491     14.744  8.161E-01
      3.491     17.079  6.813E-01
      3.491     19.039  4.146E-01
      3.491     20.822  2.762E-01
      3.491     24.043  1.643E-01
      3.664      8.505  6.927E-02
      3.664     10.485  6.458E-02
      3.664     12.647  6.441E-02
      3.664     14.799  5.126E-02
      3.664     16.792  6.408E-02
      3.664     18.748  3.555E-02
      3.664     20.887  2.109E-02
      3.664     23.745  1.196E-02
      3.697      8.699  1.746E-01
      3.697     10.316  1.561E-01
      3.697     12.655  1.462E-01
      3.697     14.628  1.194E-01
      3.697     16.596  8.700E-02
      3.697     18.560  5.786E-02
      3.697     20.531  4.514E-02
      3.697     23.389  2.562E-02
      3.772      8.589  3.323E-02
      3.772     10.543  2.460E-02
      3.772     12.318  2.956E-02
      3.772     14.440  1.753E-02
      3.772     16.383  1.792E-02
      3.772     18.660  1.327E-02
      3.772     20.604  1.303E-02
      3.772     23.694  8.556E-03
      3.825      7.706  1.193E+00
      3.825      8.624  9.014E-01
      3.825     10.459  5.028E-01
      3.825     12.661  2.937E-01
      3.825     14.679  2.165E-01
      3.825     16.514  1.923E-01
      3.825     18.532  1.485E-01
      3.825     20.917  1.120E-01
      3.825     23.670  6.239E-02
      3.941      8.440  8.881E-01
      3.941     10.642  5.010E-01
      3.941     12.661  1.176E-01
      3.941     14.495  1.398E-01
      3.941     16.514  1.278E-01
      3.941     20.550  1.217E-01
      3.941     23.486  3.713E-02
      3.963      8.329  2.628E-01
      3.963     10.322  3.205E-01
      3.963     12.325  4.779E-01
      3.963     14.653  3.594E-01
      3.963     16.270  3.243E-01
      3.963     18.435  3.435E-01
      3.963     20.543  1.156E-01
      3.963     23.599  9.996E-02
      4.096      7.890  2.101E-01
      4.096      8.624  1.510E-01
      4.096     11.009  8.980E-02
      4.096     12.661  5.220E-02
      4.096     14.862  3.574E-02
      4.096     16.697  3.483E-02
      4.096     19.083  2.222E-02
      4.096     21.284  1.836E-02
      4.096     24.404  9.926E-03
      4.173      8.774  1.040E-01
      4.173     10.562  8.364E-02
      4.173     12.671  7.425E-02
      4.173     14.617  6.996E-02
      4.173     16.560  6.996E-02
      4.173     18.512  5.298E-02
      4.173     20.625  4.175E-02
      4.173     23.557  2.492E-02
      4.251      8.221  2.438E-01
      4.251     10.390  2.819E-01
      4.251     12.186  2.489E-01
      4.251     14.160  2.108E-01
      4.251     16.313  1.713E-01
      4.251     18.275  1.131E-01
      4.251     20.225  5.942E-02
      4.251     23.276  4.537E-02
      4.285      9.944  4.089E-01
      4.285     12.469  4.273E-01
      4.285     14.261  3.429E-01
      4.285     16.238  3.072E-01
      4.285     18.017  1.852E-01
      4.285     20.527  1.422E-01
      4.285     23.023  7.850E-02
      4.407      7.854  3.482E-01
      4.407     10.008  2.972E-01
      4.407     12.346  2.692E-01
      4.407     13.961  2.343E-01
      4.407     16.112  1.885E-01
      4.407     18.074  1.268E-01
      4.407     20.038  8.880E-02
      4.407     23.255  5.306E-02
      4.478      7.897  1.809E-01
      4.478     10.052  1.542E-01
      4.478     11.848  1.345E-01
      4.478     13.820  1.071E-01
      4.478     16.156  9.128E-02
      4.478     17.940  6.056E-02
      4.478     20.085  4.110E-02
      4.478     22.945  2.433E-02
      4.845      6.980  2.201E-01
      4.845     11.483  2.091E-01
      4.845     13.817  1.738E-01
      4.845     15.609  1.380E-01
      4.845     17.756  9.779E-02
      4.845     19.730  7.945E-02
      4.845     22.942  3.903E-02
      4.890      7.072  4.340E-02
      4.890      7.953  8.175E-02
      4.890     10.010  6.310E-02
      4.890     12.282  6.494E-02
      4.890     13.648  6.131E-02
      4.890     16.141  7.286E-02
      4.890     18.207  4.597E-02
      4.890     20.042  3.162E-02
      4.890     23.246  1.939E-02
      4.963      8.159  1.480E-01
      4.963     10.419  1.909E-01
      4.963     12.046  1.876E-01
      4.963     13.198  1.529E-01
      4.963     18.250  1.284E-01
      4.963     20.545  9.651E-02
      4.963     23.832  5.555E-02
      4.963     26.771  4.640E-02
      4.963     29.555  3.421E-02
      4.963     32.826  2.526E-02
      4.963     35.615  1.714E-02
      4.963     38.712  1.524E-02
      5.035      8.299  1.366E-01
      5.035     10.262  1.137E-01
      5.035     12.054  1.071E-01
      5.035     14.004  1.094E-01
      5.035     16.116  1.118E-01
      5.035     18.087  8.233E-02
      5.035     20.059  5.941E-02
      5.035     23.183  3.495E-02
      5.454      7.660  5.539E-02
      5.454      9.641  5.298E-02
      5.454     11.786  3.593E-02
      5.454     13.959  4.525E-02
      5.454     15.929  3.442E-02
      5.454     17.731  3.445E-02
      5.454     19.690  2.037E-02
      5.454     23.237  5.659E-03
ENDDATA            271
ENDSUBENT          291
SUBENT        T0049007   20220420   20230113   20230112       C217
BIB                  5         11
REACTION   (38-SR-87(P,D)38-SR-86,,POL/DA/DE,,ANA)
SAMPLE     (38-SR-87,ENR=0.8488) Target enriched to 84.88% 87Sr.
           Areal density 5.0 and 10 mg/cm2.
DETECTOR   (MAGSP,PROPC,SCIN) QDDM magnetic spectrometer used at
           94.2 MeV; K600 magnetic spectrometer used at 91.8
           MeV. Position-sensitive helical proportional counters
           in focal plane, followed by 2 plastic scintillators
           for particle identification.
STATUS     (CURVE) Figs. 4,6-9, pages 1606-1607 of
           J,PR/C,40,1603,1989.
HISTORY    (20220418C) BP
ENDBIB              11
COMMON               1          3
EN
MEV
       91.8
ENDCOMMON            3
DATA                 4        286
E-EXC      ANG-CM     DATA       ERR-S
MEV        ADEG       NO-DIM     NO-DIM
      0.000      6.426      0.072
      0.000      8.130      0.227
      0.000     10.215      0.245
      0.000     12.301      0.240
      0.000     14.389      0.217
      0.000     16.232      0.186
      0.000     18.319      0.172
      0.000     20.409      0.119
      0.000     23.349      0.176      0.058
      1.077      6.136      0.090
      1.077      7.727      0.148
      1.077     10.000      0.189
      1.077     12.273      0.213
      1.077     14.091      0.197
      1.077     15.909      0.164
      1.077     17.955      0.131
      1.077     20.000      0.123
      1.077     23.182      0.172
      1.847      6.364      0.042
      1.847      7.500      0.125
      1.847      9.545      0.167
      1.847     12.076      0.187
      1.847     13.836      0.219
      1.847     15.948      0.187
      1.847     18.061      0.136
      1.847     20.349      0.090
      1.847     23.517      0.148
      2.097      6.267      0.169      0.091
      2.097      7.675      0.130      0.071
      2.097      9.963      0.221      0.071
      2.097     12.076      0.273      0.104
      2.097     13.660      0.058      0.065
      2.097     15.948      0.058      0.058
      2.097     18.061      0.221      0.084
      2.097     20.173      0.325      0.110
      2.097     22.813      0.104      0.097
      2.223      6.267      0.078
      2.223      7.851      0.169
      2.223     10.139      0.227
      2.223     11.900      0.221
      2.223     14.012      0.214
      2.223     15.948      0.201
      2.223     17.885      0.143
      2.223     20.173      0.104
      2.223     23.165      0.162
      2.476      6.612      0.080
      2.476      8.246      0.060
      2.476     10.242      0.020
      2.476     12.420     -0.010
      2.476     14.794      0.070
      2.476     16.639      0.290
      2.476     18.479      0.470
      2.476     20.490      0.550
      2.476     23.585      0.580
      2.639      6.443      0.104
      2.639      8.027     -0.007
      2.639     10.139      0.124
      2.639     12.076      0.196
      2.639     14.188      0.222
      2.639     16.124      0.241
      2.639     18.061      0.137
      2.639     22.989      0.098      0.046
      2.674      6.492     -0.411      0.099
      2.674      8.534     -0.318      0.086
      2.674     10.677      0.172      0.073
      2.780      6.619     -0.045      0.058
      2.780      8.203      0.357      0.065
      2.780      9.963      0.214      0.058
      2.780     12.076      0.156      0.058
      2.780     14.012      0.156      0.058
      2.780     15.948      0.104      0.084
      2.780     17.885      0.097      0.052
      2.780     20.173      0.195      0.071
      2.780     23.165      0.078      0.091
      2.856      6.443      0.065
      2.856      8.203      0.175
      2.856      9.963      0.247
      2.856     12.076      0.221
      2.856     14.012      0.214
      2.856     16.300      0.182
      2.856     18.061      0.130
      2.856     20.349      0.104
      2.856     23.517      0.130
      2.956      6.795      0.071
      2.956      8.203      0.162
      2.956      9.963      0.240
      2.956     12.076      0.227
      2.956     14.188      0.208
      2.956     16.300      0.188
      2.956     18.413      0.123
      2.956     20.525      0.104
      2.956     23.517      0.149
      2.995      5.546      0.043
      2.995      6.845      0.107
      2.995      8.798      0.161
      2.995     11.083      0.173
      2.995     13.201      0.209
      2.995     15.171      0.117
      2.995     17.284      0.199
      2.995     19.410      0.165
      2.995     22.497      0.300
      3.068      7.757     -0.451
      3.068      9.485      0.200
      3.068     11.573      0.565
      3.068     13.546      0.518
      3.068     15.692      0.389      0.029
      3.068     18.006      0.219      0.029
      3.068     19.980      0.160      0.046
      3.068     22.925      0.211      0.041
      3.186      6.395     -0.230
      3.186      8.243     -0.176
      3.186     10.130      0.034
      3.186     12.213      0.297
      3.186     14.447      0.426
      3.186     16.659      0.466
      3.186     18.472      0.378
      3.186     20.656      0.311
      3.186     23.619      0.419
      3.320      6.451     -0.366
      3.320      8.039     -0.286
      3.320     10.105     -0.040
      3.320     12.046      0.215
      3.320     14.119      0.367
      3.320     16.208      0.335      0.040
      3.320     18.174      0.299      0.036
      3.320     20.260      0.303
      3.320     23.305      0.566      0.036
      3.491      4.964      0.052
      3.491      6.779     -0.052
      3.491      8.776     -0.175
      3.491     10.771     -0.279
      3.491     12.573     -0.286
      3.491     15.090     -0.240
      3.491     16.695     -0.104
      3.491     18.648      0.123
      3.491     21.861      0.370
      3.664      5.043      0.077
      3.664      6.494      0.000
      3.664      8.837     -0.006
      3.664     10.656     -0.141
      3.664     12.819     -0.147
      3.664     14.992     -0.237
      3.664     16.762      0.013      0.051
      3.664     18.897      0.231      0.064
      3.664     22.132      0.295
      3.697      5.193      0.212
      3.697      6.658      0.023
      3.697      8.851     -0.232
      3.697     10.851     -0.376
      3.697     12.828     -0.337
      3.697     14.990     -0.330
      3.697     16.948     -0.141
      3.697     19.084      0.069
      3.697     21.758      0.304
      3.772      6.514     -0.157      0.066
      3.772      7.829     -0.072      0.042
      3.772      9.985      0.229      0.060
      3.772     12.117      0.319      0.084
      3.772     14.238      0.301      0.054
      3.772     16.200      0.325      0.084
      3.772     18.146      0.211      0.060
      3.772     20.273      0.253      0.060
      3.772     23.354      0.060      0.072
      3.825      6.809      0.051
      3.825      8.259      0.016
      3.825     10.264      0.056
      3.825     12.440      0.007
      3.825     14.098      0.182
      3.825     16.303      0.370
      3.825     18.679      0.471
      3.825     20.329      0.585
      3.825     23.788      0.617
      3.941      6.488      0.021
      3.941      8.487      0.007
      3.941     10.485     -0.007
      3.941     12.130      0.069
      3.941     14.322      0.153
      3.941     16.332      0.236
      3.941     20.908      0.493
      3.963      5.373      0.064
      3.963      7.011     -0.077
      3.963      8.835     -0.259
      3.963     11.009     -0.352
      3.963     13.172     -0.358
      3.963     14.954     -0.195
      3.963     16.911      0.016
      3.963     19.035      0.334
      3.963     22.261      0.478
      4.096      6.703      0.062
      4.096      8.084      0.023
      4.096      9.982     -0.028
      4.096     12.049     -0.124      0.038
      4.096     14.313     -0.016      0.051
      4.096     16.073      0.225      0.051
      4.096     18.014      0.537      0.057
      4.096     20.103      0.632      0.045
      4.096     23.054      0.689      0.064
      4.173      6.179      0.202
      4.173      8.130      0.173
      4.173     10.081      0.185
      4.173     12.358      0.155
      4.173     14.309      0.214
      4.173     16.260      0.310      0.048
      4.173     18.537      0.250
      4.173     20.488      0.167
      4.173     23.577      0.292      0.060
      4.251      5.468     -0.007
      4.251      6.923     -0.117
      4.251      8.920     -0.235
      4.251     11.092     -0.320
      4.251     13.254     -0.313
      4.251     14.870     -0.274
      4.251     17.193     -0.117
      4.251     19.321      0.157
      4.251     22.544      0.320
      4.285      5.177      0.086
      4.285      6.814     -0.039
      4.285      8.989     -0.145
      4.285     10.985     -0.257
      4.285     13.149     -0.270
      4.285     14.940     -0.184
      4.285     17.273     -0.105
      4.285     19.405      0.132
      4.285     22.085      0.316
      4.407      5.302     -0.039
      4.407      6.929     -0.086
      4.407      9.101     -0.164
      4.407     11.097     -0.276
      4.407     13.079     -0.276
      4.407     14.871     -0.197
      4.407     17.198     -0.072
      4.407     18.970      0.171
      4.407     22.357      0.461
      4.478      5.413     -0.030      0.061
      4.478      6.851     -0.004      0.040
      4.478      8.847     -0.119
      4.478     10.827     -0.107
      4.478     12.814     -0.155
      4.478     14.812     -0.285
      4.478     17.131     -0.090
      4.478     19.082      0.159      0.041
      4.478     22.298      0.387      0.054
      4.845      5.680      0.105      0.041
      4.845      7.672      0.023
      4.845      9.671     -0.120
      4.845     11.493     -0.290
      4.845     13.830     -0.244
      4.845     15.989     -0.224      0.054
      4.845     17.765     -0.009
      4.845     19.541      0.206
      4.845     22.760      0.407      0.054
      4.890      6.619      0.080
      4.890      8.203      0.119
      4.890     10.139      0.041
      4.890     12.076      0.028
      4.890     16.124      0.274
      4.890     18.237      0.241
      4.890     20.525      0.274
      4.890     23.517      0.190      0.052
      4.963      6.365      0.012
      4.963      7.996      0.030
      4.963      9.788      0.067
      4.963     12.074      0.061
      4.963     15.983      0.146
      4.963     18.435      0.116
      4.963     20.560      0.091
      4.963     23.317      0.268      0.043
      5.035      6.327      0.073
      5.035      8.102      0.134
      5.035     10.034      0.220
      5.035     12.004      0.134
      5.035     14.107      0.183
      5.035     16.219      0.189      0.037
      5.035     18.344      0.140
      5.035     20.289      0.165
      5.035     23.348      0.305      0.049
      5.454      6.452     -0.107
      5.454      7.886     -0.040
      5.454      8.041      0.167
      5.454      9.850      0.100
      5.454     12.374      0.093
      5.454     14.168      0.153
      5.454     16.153      0.133
      5.454     18.134      0.140
      5.454     20.298      0.120      0.053
      5.454     23.179      0.140      0.073
ENDDATA            288
ENDSUBENT          308
SUBENT        T0049008   20220420   20230113   20230112       C217
BIB                  5         11
REACTION   (38-SR-87(P,D)38-SR-86,PAR,DA)
SAMPLE     (38-SR-87,ENR=0.8488) Target enriched to 84.88% 87Sr.
           Areal density 5.0 and 10 mg/cm2.
DETECTOR   (MAGSP,PROPC,SCIN) QDDM magnetic spectrometer used at
           94.2 MeV; K600 magnetic spectrometer used at 91.8
           MeV. Position-sensitive helical proportional counters
           in focal plane, followed by 2 plastic scintillators
           for particle identification.
STATUS     (CURVE) Figs. 4,6-9, pages 1606-1607 of
           J,PR/C,40,1603,1989.
HISTORY    (20220418C) BP
ENDBIB              11
COMMON               1          3
EN
MEV
       94.2
ENDCOMMON            3
DATA                 4        254
E-EXC      ANG-CM     DATA-CM    ERR-S
MEV        ADEG       MB/SR      MB/SR
      0.000      7.696  1.366E-01
      0.000      8.566  1.431E-01
      0.000     10.181  1.523E-01
      0.000     12.787  1.569E-01
      0.000     14.896  1.542E-01
      0.000     16.751  1.336E-01
      0.000     18.972  9.737E-02
      0.000     20.823  7.557E-02
      0.000     23.900  4.079E-02
      0.000     26.987  2.833E-02
      0.000     30.080  2.267E-02
      0.000     33.044  1.625E-02
      0.000     36.130  1.077E-02
      0.000     39.220  8.091E-03
      1.077      5.269  5.365E-01
      1.077      8.672  6.172E-01
      1.077     10.945  6.150E-01
      1.077     12.762  6.313E-01
      1.077     15.039  5.763E-01
      1.077     16.640  4.553E-01
      1.077     18.700  3.293E-01
      1.077     21.905  1.939E-01
      1.077     24.877  1.321E-01
      1.077     27.843  1.012E-01
      1.077     30.812  7.306E-02
      1.077     34.012  4.833E-02
      1.077     36.976  3.922E-02
      1.847      5.416  1.837E-01
      1.847      8.596  1.955E-01
      1.847     10.868  2.014E-01
      1.847     13.140  2.074E-01
      1.847     15.192  1.734E-01
      1.847     17.021  1.306E-01
      1.847     19.081  8.555E-02
      1.847     22.055  5.035E-02
      1.847     25.255  3.067E-02
      1.847     28.219  2.386E-02
      1.847     31.189  1.559E-02
      1.847     34.389  9.498E-03
      1.847     37.126  7.394E-03
      2.097      6.012  7.472E-03
      2.097      7.604  7.472E-03
      2.097      9.413  9.163E-03
      2.097     11.225  1.060E-02
      2.097     13.051  8.900E-03
      2.097     14.648  7.920E-03
      2.097     16.923  7.472E-03
      2.097     19.213  5.115E-03
      2.097     22.415  3.209E-03
      2.097     25.173  1.594E-03  2.558E-04
      2.097     28.348  1.899E-03  3.046E-04
      2.097     31.321  1.263E-03  2.026E-04
      2.097     34.287  9.713E-04  1.793E-04
      2.097     37.271  4.968E-04  1.665E-04
      2.223      6.655  1.184E+00
      2.223      9.149  1.333E+00
      2.223     11.191  1.431E+00
      2.223     13.237  1.427E+00
      2.223     15.741  1.323E+00
      2.223     16.887  1.116E+00
      2.223     19.628  8.519E-01
      2.223     22.607  5.357E-01
      2.223     25.801  4.292E-01
      2.223     28.313  3.441E-01
      2.223     31.056  2.565E-01
      2.223     34.483  1.820E-01
      2.223     37.447  1.531E-01
      2.476      6.789  4.002E-01
      2.476      8.073  2.819E-01
      2.476     16.697  6.442E-02
      2.476     26.789  1.854E-02
      2.476     29.541  1.805E-02
      2.476     32.844  1.360E-02
      2.476     36.147  9.552E-03
      2.476     39.083  6.118E-03
      2.856      6.575  1.981E+00
      2.856      9.754  2.152E+00
      2.856     11.569  2.330E+00
      2.856     14.068  2.402E+00
      2.856     16.116  2.296E+00
      2.856     17.717  1.885E+00
      2.856     20.004  1.438E+00
      2.856     22.755  9.218E-01
      2.856     25.724  7.044E-01
      2.856     28.919  5.522E-01
      2.856     32.114  4.329E-01
      2.856     34.859  3.067E-01
      2.856     38.048  2.725E-01
      2.956      6.891  1.809E+00
      2.956      9.839  2.041E+00
      2.956     11.660  1.960E+00
      2.956     13.477  2.000E+00
      2.956     15.528  1.845E+00
      2.956     18.039  1.540E+00
      2.956     20.098  1.259E+00
      2.956     22.843  9.501E-01
      2.956     26.042  7.314E-01
      2.956     29.233  6.354E-01
      2.956     32.432  4.891E-01
      2.956     35.401  3.920E-01
      2.956     38.366  3.338E-01
      3.186      6.569  1.115E+00
      3.186      8.025  8.328E-01
      3.186     15.865  2.430E-01
      3.186     26.102  9.260E-02
      3.186     29.028  7.349E-02
      3.186     31.945  4.642E-02
      3.186     35.054  3.534E-02
      3.186     38.350  2.984E-02  4.032E-03
      3.320      7.323  5.518E-01
      3.320      8.180  4.102E-01
      3.320     10.406  3.453E-01
      3.320     12.377  2.411E-01
      3.320     14.472  1.684E-01
      3.320     16.441  1.139E-01
      3.320     18.412  7.833E-02
      3.320     20.506  5.469E-02
      3.320     23.468  3.700E-02
      3.320     26.692  3.528E-02
      3.320     29.778  2.424E-02
      3.320     32.740  1.640E-02
      3.320     35.824  1.059E-02
      3.320     38.789  7.627E-03
      3.491      7.735  1.253E+00
      3.491     11.340  1.253E+00
      3.491     13.314  1.046E+00
      3.491     14.745  8.348E-01
      3.491     16.714  6.225E-01
      3.491     19.220  4.241E-01
      3.491     21.177  2.412E-01
      3.491     24.048  1.840E-01
      3.491     27.102  1.501E-01
      3.491     30.153  1.145E-01
      3.491     33.378  7.457E-02
      3.491     36.423  4.967E-02
      3.491     39.654  3.788E-02
      3.664     26.985  1.113E-02
      3.664     30.219  8.844E-03
      3.664     33.256  4.899E-03
      3.664     36.314  4.360E-03
      3.664     39.549  3.544E-03
      3.697     26.995  2.633E-02
      3.697     29.870  2.202E-02
      3.697     32.906  1.195E-02
      3.697     35.964  1.070E-02
      3.697     39.018  8.552E-03
      3.825     10.826  6.053E-01
      3.825     12.661  3.537E-01
      3.825     14.495  2.797E-01
      3.825     18.716  1.917E-01
      3.825     20.917  1.349E-01
      3.825     24.037  8.637E-02
      3.825     26.972  7.143E-02
      3.825     29.908  5.139E-02
      3.825     33.028  5.001E-02
      3.825     36.147  2.917E-02
      3.825     39.266  2.148E-02
      4.096     10.642  1.084E-01
      4.096     13.211  7.777E-02
      4.096     14.679  4.214E-02
      4.096     17.248  4.300E-02
      4.096     19.083  2.877E-02
      4.096     21.284  2.114E-02
      4.096     27.339  1.138E-02
      4.096     30.642  7.427E-03
      4.096     33.394  7.576E-03
      4.096     36.514  4.943E-03
      4.096     39.266  4.082E-03
      4.251     26.514  4.089E-02
      4.251     29.752  3.611E-02
      4.251     32.616  2.434E-02
      4.251     35.486  1.858E-02
      4.251     38.714  1.361E-02
      4.285     26.437  6.440E-02
      4.285     29.495  5.643E-02
      4.285     32.359  3.715E-02
      4.285     35.229  2.791E-02
      4.285     38.097  2.006E-02
      4.407      6.957  3.769E-01
      4.407     10.009  3.031E-01
      4.407     11.993  3.092E-01
      4.407     14.149  2.746E-01
      4.407     16.115  2.000E-01
      4.407     17.900  1.428E-01
      4.407     20.041  9.423E-02
      4.407     23.264  6.341E-02
      4.407     26.320  5.412E-02
      4.407     29.558  4.902E-02
      4.407     32.236  2.988E-02
      4.407     35.474  2.653E-02
      4.407     38.511  1.585E-02
      4.478      6.823  2.122E-01
      4.478      8.071  1.578E-01
      4.478     10.055  1.651E-01
      4.478     12.217  1.614E-01
      4.478     14.005  1.173E-01
      4.478     15.979  9.775E-02
      4.478     18.127  7.104E-02
      4.478     19.913  4.933E-02
      4.478     22.953  2.920E-02
      4.478     26.013  2.727E-02
      4.478     29.067  2.171E-02
      4.478     32.295  1.542E-02
      4.478     35.517  9.339E-03
      4.478     38.226  1.071E-02
      4.845      7.527  2.580E-01
      4.845      9.864  2.244E-01
      4.845     11.666  2.239E-01
      4.845     13.823  1.947E-01
      4.845     16.157  1.618E-01
      4.845     17.748  8.149E-02
      4.845     19.917  9.318E-02
      4.845     22.963  6.300E-02
      4.845     26.363  3.630E-02
      4.845     29.063  3.378E-02
      4.845     32.278  1.777E-02
      4.845     35.508  1.316E-02
      4.845     38.737  9.312E-03
      4.890      8.208  4.340E-02
      4.890     10.018  5.309E-02
      4.890     12.288  5.623E-02
      4.890     13.643  6.879E-02
      4.890     15.916  6.879E-02
      4.890     18.198  5.623E-02
      4.890     20.483  4.340E-02
      4.890     23.451  3.255E-02
      4.890     26.428  1.939E-02
      4.890     29.411  1.029E-02
      4.890     32.587  1.189E-02
      4.890     35.100  8.913E-03
      4.890     38.511  8.660E-03
      4.963      8.159  1.480E-01
      4.963     10.419  1.909E-01
      4.963     12.046  1.876E-01
      4.963     13.198  1.529E-01
      4.963     18.250  1.284E-01
      4.963     20.545  9.651E-02
      4.963     23.832  5.555E-02
      4.963     26.771  4.640E-02
      4.963     29.555  3.421E-02
      4.963     32.826  2.526E-02
      4.963     35.615  1.714E-02
      4.963     38.712  1.524E-02
      5.454      6.404  6.206E-02
      5.454     11.806  5.682E-02
      5.454     16.292  3.687E-02
      5.454     18.444  2.870E-02
      5.454     20.231  2.085E-02
      5.454     23.095  1.351E-02
      5.454     26.331  1.127E-02
      5.454     29.394  1.130E-02
      5.454     32.437  6.995E-03
      5.454     35.484  4.858E-03
      5.454     38.354  3.613E-03
ENDDATA            256
ENDSUBENT          276
SUBENT        T0049009   20220420   20230113   20230112       C217
BIB                  5         11
REACTION   (38-SR-87(P,D)38-SR-86,PAR,POL/DA,,ANA)
SAMPLE     (38-SR-87,ENR=0.8488) Target enriched to 84.88% 87Sr.
           Areal density 5.0 and 10 mg/cm2.
DETECTOR   (MAGSP,PROPC,SCIN) QDDM magnetic spectrometer used at
           94.2 MeV; K600 magnetic spectrometer used at 91.8
           MeV. Position-sensitive helical proportional counters
           in focal plane, followed by 2 plastic scintillators
           for particle identification.
STATUS     (CURVE) Figs. 4,6-9, pages 1606-1607 of
           J,PR/C,40,1603,1989.
HISTORY    (20220418C) BP
ENDBIB              11
COMMON               1          3
EN
MEV
       94.2
ENDCOMMON            3
DATA                 4        261
E-EXC      ANG-CM     DATA       ERR-S
MEV        ADEG       NO-DIM     NO-DIM
      0.000      6.300      0.108
      0.000      7.034      0.134
      0.000      8.131      0.223
      0.000     10.092      0.245
      0.000     12.178      0.240
      0.000     14.389      0.213
      0.000     16.354      0.190
      0.000     18.196      0.172
      0.000     20.287      0.119
      0.000     23.349      0.176
      0.000     26.518      0.424
      0.000     29.461      0.451
      0.000     32.529      0.441
      0.000     35.600      0.396
      0.000     38.663      0.453      0.040
      1.077      6.136      0.123
      1.077      7.955      0.148
      1.077      9.773      0.197
      1.077     12.045      0.213
      1.077     13.864      0.205
      1.077     16.136      0.180
      1.077     18.182      0.139
      1.077     20.000      0.115
      1.077     23.182      0.172
      1.077     26.136      0.328
      1.077     29.318      0.459
      1.077     32.273      0.443
      1.077     35.455      0.393
      1.077     38.409      0.484
      1.847      5.739      0.103
      1.847      7.851      0.174
      1.847      9.787      0.213
      1.847     12.252      0.207
      1.847     14.188      0.181
      1.847     15.948      0.148
      1.847     17.709      0.148
      1.847     20.173      0.142
      1.847     23.165      0.168
      1.847     26.158      0.329
      1.847     29.326      0.445
      1.847     32.143      0.432
      1.847     35.311      0.355
      1.847     38.480      0.458
      2.097      6.091      0.013      0.091
      2.097      8.027      0.110      0.052
      2.097      9.963      0.130      0.058
      2.097     11.900      0.221      0.065
      2.097     13.836      0.013      0.065
      2.097     15.948      0.065      0.071
      2.097     18.237      0.078      0.091
      2.097     20.173      0.214      0.091
      2.097     22.989      0.234      0.091
      2.097     26.158      0.377      0.084
      2.097     29.326      0.429      0.084
      2.097     32.319      0.435      0.091
      2.097     35.487      0.305      0.084
      2.097     38.128      0.857      0.117
      2.223      6.267      0.104
      2.223      7.851      0.188
      2.223     10.139      0.234
      2.223     12.428      0.227
      2.223     14.188      0.214
      2.223     15.948      0.169
      2.223     18.061      0.123
      2.223     20.173      0.143
      2.223     23.341      0.195
      2.223     26.158      0.344
      2.223     29.326      0.422
      2.223     32.495      0.429
      2.223     35.311      0.383
      2.223     38.304      0.435
      2.476      7.327     -0.020
      2.476     10.417     -0.030
      2.476     12.777     -0.070
      2.476     14.435      0.110
      2.476     16.282      0.350
      2.476     18.472      0.410
      2.476     20.497      0.610
      2.476     23.575      0.500
      2.476     26.647      0.350
      2.476     29.741      0.370
      2.476     33.037      0.560
      2.476     35.946      0.560
      2.476     38.481      0.470
      2.856      6.443      0.097
      2.856      6.619      0.149
      2.856     10.139      0.208
      2.856     12.076      0.188
      2.856     14.188      0.201
      2.856     16.300      0.162
      2.856     18.061      0.156
      2.856     20.173      0.130
      2.856     23.165      0.182
      2.856     26.158      0.351
      2.856     29.326      0.435
      2.856     32.495      0.403
      2.856     35.487      0.344
      2.856     38.656      0.442
      2.956      6.267      0.084
      2.956      6.971      0.130
      2.956      9.787      0.227
      2.956     12.252      0.221
      2.956     14.540      0.201
      2.956     16.124      0.162
      2.956     18.589      0.162
      2.956     20.525      0.130
      2.956     23.517      0.188
      2.956     26.334      0.338
      2.956     29.326      0.435
      2.956     32.495      0.422
      2.956     35.663      0.390
      2.956     38.832      0.474
      3.186     14.253      0.385
      3.186     16.460      0.405
      3.186     20.488      0.372
      3.186     26.775      0.568
      3.186     30.082      0.588
      3.186     33.010      0.554
      3.186     35.918      0.446
      3.186     39.583      0.426
      3.320      6.447     -0.317
      3.320      7.062     -0.330
      3.320      8.159     -0.254
      3.320     10.104     -0.035
      3.320     12.173      0.170
      3.320     14.127      0.273
      3.320     16.095      0.214
      3.320     18.057      0.236
      3.320     20.130      0.379
      3.320     23.313      0.472
      3.320     26.247      0.601
      3.320     29.196      0.547
      3.320     32.279      0.358
      3.320     35.593      0.340      0.040
      3.320     38.530      0.438      0.040
      3.491     17.050     -0.065
      3.491     18.996      0.221
      3.491     21.855      0.416
      3.491     25.126      0.195
      3.491     28.215     -0.019
      3.491     30.901      0.117
      3.491     34.305      0.273
      3.491     37.012      0.234
      3.664     25.037      0.115
      3.664     28.114      0.006
      3.664     31.162      0.122
      3.664     34.399      0.173
      3.664     37.621      0.340
      3.697     25.202      0.134
      3.697     28.278      0.029
      3.697     31.326      0.147
      3.697     34.204      0.193
      3.697     37.426      0.363
      3.825      6.442      0.024
      3.825     10.441      0.015
      3.825     14.637      0.128
      3.825     17.027      0.343
      3.825     18.672      0.416
      3.825     20.686      0.524
      3.825     23.768      0.454
      3.825     26.849      0.372
      3.825     29.949      0.445
      3.825     33.050      0.524
      3.825     35.787      0.604
      3.825     39.048      0.508
      4.096      6.708      0.106
      4.096      8.265      0.093
      4.096     10.168      0.080
      4.096     16.229      0.079      0.045
      4.096     17.989      0.320      0.045
      4.096     20.268      0.556
      4.096     23.369      0.427      0.057
      4.096     26.314      0.433      0.045
      4.096     29.406      0.222      0.051
      4.096     32.377      0.457      0.038
      4.096     35.495      0.463      0.057
      4.096     38.634      0.653      0.057
      4.251     25.266      0.163
      4.251     28.340      0.078
      4.251     31.575      0.143
      4.251     34.442      0.267
      4.251     37.327      0.254
      4.285     25.526      0.178
      4.285     28.601      0.079
      4.285     31.654      0.158
      4.285     34.703      0.276
      4.285     37.768      0.257
      4.407      5.849     -0.092
      4.407      8.928     -0.217
      4.407     13.085     -0.322
      4.407     14.878     -0.250
      4.407     17.374     -0.039
      4.407     19.136      0.283
      4.407     22.184      0.408
      4.407     25.450      0.224
      4.407     28.358      0.013
      4.407     31.767      0.132
      4.407     34.619      0.382
      4.407     37.516      0.270
      4.478      6.139     -0.078
      4.478      9.194     -0.012      0.034
      4.478     10.820     -0.046
      4.478     12.999     -0.189
      4.478     15.151     -0.109
      4.478     17.117      0.025
      4.478     19.251      0.254      0.027
      4.478     21.945      0.326
      4.478     25.376      0.257
      4.478     28.625      0.215      0.047
      4.478     31.327      0.214
      4.478     34.387      0.239
      4.478     37.814      0.210
      4.845      6.602     -0.064
      4.845      7.679     -0.038
      4.845      9.318     -0.180
      4.845     11.480     -0.182
      4.845     15.974     -0.096
      4.845     17.929      0.126
      4.845     19.707      0.328
      4.845     22.775      0.279
      4.845     25.840      0.264
      4.845     28.911      0.195
      4.845     31.795      0.186
      4.845     34.837      0.354
      4.845     37.891      0.427
      4.890      6.443      0.041
      4.890      8.203      0.009
      4.890     10.315      0.164
      4.890     12.428      0.190
      4.890     14.540      0.170      0.052
      4.890     16.476      0.151      0.039
      4.890     18.237      0.002
      4.890     20.525      0.196
      4.890     23.341      0.306
      4.890     26.510      0.216
      4.890     29.502      0.306
      4.890     32.495      0.371
      4.890     35.487      0.435
      4.963      6.850      0.055
      4.963      9.946      0.116
      4.963     16.316      0.091
      4.963     20.393      0.128
      4.963     23.159      0.220
      4.963     26.570      0.372
      4.963     29.505      0.409
      4.963     32.290      0.323
      4.963     35.882      0.317
      4.963     38.647      0.415
      5.454      6.088     -0.073
      5.454     10.221      0.020
      5.454     12.200      0.040
      5.454     14.184      0.027
      5.454     16.343      0.047
      5.454     18.324      0.053
      5.454     20.296      0.140
      5.454     23.165      0.253
      5.454     26.402      0.300
      5.454     29.285      0.300
      5.454     32.350      0.287
      5.454     35.590      0.313
      5.454     38.472      0.320
ENDDATA            263
ENDSUBENT          283
ENDENTRY             9
