ENTRY            40335     850329
SUBENT        40335001     850329
BIB                 12         14
INSTITUTE  (4CCPFEI)
REFERENCE  (R,FEI-671,7602)
AUTHOR     (V.JA.BARYBA,B.V.ZURAVLJOV,N.V.KORNILOV,O.A.SAL'NIKOV)
TITLE       SECONDARY NEUTRON SPECTRUM WICH ARISE AT U-238
            BOMBARDMENT BY 14.3 MEV NEUTRONS
FACILITY    ACCELERATOR NG-0.25 IN PULSED OPERATING CONDITIONS
            PULSE DURATION 4. NSEC, CURRENT 5. MICROAMPERES
INC-SOURCE (D-T)
SAMPLE      METALLIC URANIUM, FOUR-TIMES DEPLETED ON U-235
METHOD     (TOF)
MONITOR    (1-H-1(N,EL)1-H-1,,SIG)
HISTORY    (790818C)
CORRECTION  CORRECTION ON MULTIPLE SCATTERING AND ABSORPTION MADE
ERR-ANALYS (DATA-ERR)  NOT SPECIFIED
ENDBIB              14
COMMON               2          3
EN         EN-RSL
MEV        MEV
 1.4300E+01 1.2000E-01
ENDCOMMON            3
ENDSUBENT           21
SUBENT        40335002     850329
BIB                  1          1
REACTION   (92-U-238(N,X)0-NN-1,,DE)
ENDBIB               1
NOCOMMON             0          0
DATA                 3         41
E          DATA       DATA-ERR
MEV        MB/MEV     MB/MEV
 6.1000E-01 3.0550E+03 4.0900E+02
 7.9000E-01 3.4290E+03 4.5900E+02
 1.0000E+00 2.9100E+03 3.9000E+02
 1.2000E+00 2.6540E+03 3.5500E+02
 1.4000E+00 2.3550E+03 3.1600E+02
 1.6100E+00 2.0370E+03 2.7300E+02
 1.8000E+00 1.8770E+03 2.5200E+02
 1.9800E+00 1.6620E+03 2.2300E+02
 2.2000E+00 1.4350E+03 1.9200E+02
 2.4000E+00 1.2870E+03 1.4100E+02
 2.6000E+00 1.1930E+03 1.3100E+02
 2.8200E+00 1.0690E+03 1.1800E+02
 3.0000E+00 9.7100E+02 1.0700E+02
 3.1900E+00 8.7300E+02 9.6000E+01
 3.4100E+00 7.6300E+02 8.4000E+01
 3.6000E+00 6.7500E+02 7.4000E+01
 3.8000E+00 5.8300E+02 6.4000E+01
 4.0200E+00 5.1100E+02 5.6000E+01
 4.2000E+00 4.5000E+02 5.0000E+01
 4.3900E+00 4.1600E+02 4.6000E+01
 4.6000E+00 3.6900E+02 4.1000E+01
 4.8200E+00 3.2600E+02 4.0000E+01
 5.0500E+00 3.0000E+02 3.7000E+01
 5.2200E+00 2.7800E+02 3.4000E+01
 5.4000E+00 2.5000E+02 3.1000E+01
 5.5800E+00 2.1900E+02 2.7000E+01
 5.7700E+00 2.0600E+02 2.5000E+01
 5.9800E+00 1.9400E+02 2.4000E+01
 6.2000E+00 1.8100E+02 2.2000E+01
 6.4200E+00 1.4700E+02 4.0000E+01
 6.6600E+00 1.4200E+02 5.4000E+01
 6.9200E+00 1.0800E+02 4.1000E+01
 7.1900E+00 1.3600E+02 5.2000E+01
 7.4700E+00 8.6000E+01 3.2000E+01
 7.7800E+00 1.0800E+02 4.1000E+01
 8.1000E+00 9.7000E+01 3.7000E+01
 8.4400E+00 1.4900E+02 5.7000E+01
 8.8000E+00 8.1000E+01 3.1000E+01
 9.1900E+00 8.2000E+01 3.1000E+01
 9.6100E+00 6.0000E+01 2.3000E+01
 1.0000E+01 8.1000E+01 3.1000E+01
ENDDATA             43
ENDSUBENT           49
ENDENTRY             2
