ENTRY            D0784   20151202   20160503   20160429       D103
SUBENT        D0784001   20151202   20160503   20160429       D103
BIB                 12         23
TITLE      A study of excited states in 33Cl by elastic proton
           scattering on 32S
AUTHOR     (L.K.Fifield,A.R.Poletti)
INSTITUTE  (3NZLNZA)
REFERENCE  (J,NP/A,220,183,1974)
FACILITY   (VDGT,3NZLNZA)
SAMPLE     Thin target of Sb2S (approximately 1 keV thick for 3
           MeV protons) evaporated onto a thin carbon backing
DETECTOR   (SI)Four silicon detectors placed in a chamber at
           88.3, 121.7 141.7 and 161.7 degree
MONITOR    (16-S-32(P,EL)16-S-32,,DA,,RTH)
CORRECTION The effect of the 34S in the target was estimated by
           ignoring any resonance structure in its cross section
           and assuming that its contribution to the observed
           yield was due to Rutherford and hard sphere
           scattering only.
           The contribution from hard sphere scatt. to Rutherford
           scatt. cross section at 1.400 MeV used for norm. is
           less that 1% forward of 125 deg. and 2.3% at 161.7 deg.
ERR-ANALYS (ERR-1) Uncertainty due to effects of the 34S
           contribution - 1%
STATUS     (CURVE) Data scanned from Fig. 1 and Fig 2.
HISTORY    (20151202C) VS
ENDBIB              23
COMMON               3          3
EN-NRM     EN-RES-MIN ERR-1
MEV        KEV        PER-CENT
      1.400         2.         1.
ENDCOMMON            3
ENDSUBENT           30
SUBENT        D0784002   20151202   20160503   20160429       D103
BIB                  2          2
REACTION   (16-S-32(P,EL)16-S-32,,DA)
ERR-ANALYS (DATA-ERR,,5.) No information on source of uncertainty.
ENDBIB               2
COMMON               1          3
ANG
ADEG
       88.3
ENDCOMMON            3
DATA                 2        379
EN         DATA
MEV        MB/SR
  3.845      116.111
  3.8472     116.131
  3.8505     114.365
  3.8538     114.384
  3.8582     116.2
  3.8626     114.444
  3.8692     114.483
  3.8736     114.513
  3.8802     112.767
  3.8846     112.797
  3.889      112.826
  3.8945     114.652
  3.9        112.896
  3.9044     114.711
  3.9088     114.741
  3.9143     114.78
  3.9198     114.81
  3.9253     114.849
  3.9286     114.869
  3.9341     113.123
  3.9407     113.163
  3.9451     107.835
  3.9517     109.661
  3.9561     109.69
  3.9605     107.934
  3.9649     111.535
  3.9693     113.351
  3.977      111.614
  3.98081    110.201
  3.98264    110.163
  3.98445    104.412
  3.98669    103.958
  3.98853    104.329
  3.99056    101.431
  3.99157    100.593
  3.99256    95.267
  3.99316    91.173
  3.99431    77.68
  3.99535    81.741
  3.9963     107.028
  3.99718    119.255
  3.9986     119.225
  4.00042    114.29
  4.00224    111.804
  4.00445    105.229
  4.00628    104.375
  4.00834    108.006
  4.0111     106.475
  4.0133     106.495
  4.0188     104.739
  4.02379    103.248
  4.02542    103.179
  4.02663    101.461
  4.02785    101.41
  4.02905    98.859
  4.03151    99.589
  4.03311    97.021
  4.03554    94.418
  4.03755    91.833
  4.03967    99.245
  4.04171    99.992
  4.04326    91.593
  4.04509    70.679
  4.04727    43.916
  4.04911    64.675
  4.05181    129.572
  4.05364    149.498
  4.0557     151.078
  4.05771    147.66
  4.06009    141.725
  4.06169    138.324
  4.06372    136.572
  4.06571    132.32
  4.06735    132.252
  4.06938    131.333
  4.07142    131.247
  4.07348    133.66
  4.07593    133.557
  4.07754    130.989
  4.07998    130.053
  4.0837     124.807
  4.087      128.398
  4.0903     128.418
  4.0947     128.447
  4.098      117.753
  4.1002     114.201
  4.1024     110.64
  4.1057     101.731
  4.1068     96.384
  4.1079     67.823
  4.1112     94.628
  4.1123     105.352
  4.1178     107.167
  4.1189     108.963
  4.12167    107.91
  4.12367    110.55
  4.12567    111.87
  4.128      114.51
  4.12967    114.51
  4.13167    115.82
  4.13367    129.01
  4.13467    136.92
  4.13567    148.79
  4.13667    171.21
  4.138      194.95
  4.139      213.41
  4.14       201.54
  4.141      168.57
  4.142      134.29
  4.143      121.1
  4.144      111.87
  4.145      106.59
  4.146      105.27
  4.14733    101.32
  4.1475     110.937
  4.1497     102.018
  4.1508     100.242
  4.1552     98.486
  4.1596     96.73
  4.1629     93.179
  4.1662     94.984
  4.1673     105.708
  4.1706     111.085
  4.1739     114.676
  4.1772     114.696
  4.1794     112.93
  4.1816     114.726
  4.1849     116.531
  4.186      118.327
  4.1893     116.561
  4.1937     118.376
  4.1981     121.977
  4.2014     121.997
  4.2058     123.812
  4.2102     125.628
  4.2146     125.658
  4.2168     131.024
  4.2168     129.239
  4.219      132.83
  4.2256     132.869
  4.23       136.471
  4.2344     136.5
  4.2366     138.296
  4.2377     140.091
  4.241      138.325
  4.2432     140.131
  4.2487     140.161
  4.2509     136.609
  4.2564     133.067
  4.2586     129.516
  4.263      127.76
  4.2663     125.994
  4.2707     122.452
  4.2762     117.125
  4.2784     117.145
  4.2839     113.603
  4.2883     108.275
  4.2916     104.724
  4.296      102.968
  4.2982     102.988
  4.3037     101.232
  4.3059     99.466
  4.3114     97.71
  4.3136     95.944
  4.3202     94.198
  4.3235     92.432
  4.3279     92.462
  4.3323     92.491
  4.3334     90.715
  4.3389     88.959
  4.3444     87.213
  4.3477     89.019
  4.3521     89.048
  4.3554     83.711
  4.3598     83.741
  4.3631     83.761
  4.3686     85.586
  4.373      83.83
  4.3785     82.074
  4.3829     82.104
  4.3884     82.143
  4.3928     82.173
  4.3994     82.212
  4.4038     82.242
  4.4082     80.486
  4.4126     80.516
  4.4181     80.545
  4.4236     80.585
  4.428      78.829
  4.4324     78.859
  4.4357     80.664
  4.439      82.47
  4.4401     80.694
  4.4423     77.132
  4.4467     77.162
  4.4522     77.202
  4.4555     73.65
  4.4599     77.251
  4.4654     73.709
  4.4676     71.943
  4.4709     70.178
  4.4753     70.207
  4.4797     70.237
  4.4819     66.675
  4.483      63.114
  4.4852     55.981
  4.4863     47.063
  4.4896     36.368
  4.4907     56.021
  4.4918     86.387
  4.4951     116.764
  4.4984     114.998
  4.4995     111.436
  4.5017     107.875
  4.5061     107.905
  4.5105     104.363
  4.5149     102.607
  4.5182     100.841
  4.5226     100.871
  4.5259     100.89
  4.5314     97.359
  4.5336     97.368
  4.538      97.398
  4.5413     93.847
  4.5424     92.071
  4.5457     88.519
  4.549      86.753
  4.5501     84.977
  4.5512     81.416
  4.5545     79.65
  4.5567     74.303
  4.5578     68.956
  4.5589     60.037
  4.5611     49.333
  4.5622     17.201
  4.5655     35.077
  4.5666     83.301
  4.5699     111.891
  4.571      115.473
  4.5743     110.135
  4.5765     106.574
  4.5787     99.451
  4.5809     94.104
  4.582      90.542
  4.5853     88.776
  4.5897     85.235
  4.5941     83.479
  4.5974     79.927
  4.6018     78.171
  4.6084     76.425
  4.6128     74.669
  4.6183     72.923
  4.6249     72.962
  4.6282     71.197
  4.6337     67.665
  4.6381     67.694
  4.6436     67.724
  4.648      62.397
  4.6524     62.426
  4.6579     62.466
  4.6634     58.924
  4.6678     55.383
  4.6733     53.636
  4.6766     51.871
  4.6832     48.339
  4.6876     44.797
  4.692      39.47
  4.6964     32.357
  4.703      27.039
  4.7041     23.478
  4.7063     19.916
  4.7085     18.15
  4.7107     14.589
  4.7118     12.813
  4.7151     11.047
  4.7184     11.067
  4.7195     21.791
  4.7228     28.953
  4.7261     41.473
  4.7272     55.768
  4.7283     66.492
  4.7316     82.583
  4.7327     91.522
  4.7349     102.246
  4.7371     109.408
  4.7393     116.561
  4.7415     118.366
  4.7437     120.162
  4.7448     123.743
  4.7481     121.977
  4.7514     123.783
  4.7536     122.017
  4.7569     122.037
  4.7602     120.271
  4.7635     118.505
  4.769      116.759
  4.7723     116.779
  4.7789     113.247
  4.7833     111.491
  4.7888     109.745
  4.7921     111.55
  4.7987     108.018
  4.8031     99.12
  4.8075     95.578
  4.8119     92.036
  4.8185     88.504
  4.8229     84.963
  4.8273     79.635
  4.8317     77.879
  4.835      77.899
  4.8383     76.133
  4.8394     74.357
  4.8416     72.582
  4.8427     70.806
  4.846      67.254
  4.8493     65.488
  4.8504     60.141
  4.8515     58.365
  4.8537     53.018
  4.857      47.681
  4.8581     40.548
  4.8592     35.201
  4.8614     38.782
  4.8647     45.945
  4.8658     58.454
  4.8691     72.76
  4.8713     87.065
  4.8735     88.86
  4.8746     92.442
  4.8757     94.237
  4.8812     96.053
  4.8823     94.277
  4.8856     92.511
  4.89       92.541
  4.8944     87.213
  4.8977     87.233
  4.9032     87.273
  4.9065     80.15
  4.9087     83.731
  4.9109     81.965
  4.9175     76.648
  4.9219     76.677
  4.9285     76.717
  4.9307     73.165
  4.9373     69.633
  4.9406     69.653
  4.9417     67.877
  4.945      66.112
  4.9483     64.346
  4.9494     60.784
  4.9505     59.008
  4.9538     57.242
  4.956      51.895
  4.9571     46.548
  4.9582     44.772
  4.9604     41.211
  4.9615     32.292
  4.9637     26.945
  4.9648     23.384
  4.9681     14.475
  4.9692     18.056
  4.9725     23.433
  4.9736     43.086
  4.9758     55.595
  4.978      75.258
  4.9802     91.339
  4.9824     94.93
  4.9857     100.307
  4.989      102.112
  4.9923     102.132
  4.9945     98.58
  4.9978     96.814
  5.0011     95.049
  5.0077     93.302
  5.0099     95.108
  5.0143     89.781
  5.0209     89.82
  5.0253     89.85
  5.0297     88.094
ENDDATA            381
ENDSUBENT          392
SUBENT        D0784003   20151203   20160503   20160429       D103
BIB                  2          2
REACTION   (16-S-32(P,EL)16-S-32,,DA)
ERR-ANALYS (DATA-ERR,,10.)No information on source of uncertainty.
ENDBIB               2
COMMON               1          3
ANG
ADEG
      121.7
ENDCOMMON            3
DATA                 2        364
EN         DATA
MEV        MB/SR
    3.842    70.37
    3.847    70.37
    3.85     70.37
    3.853    70.37
    3.858    70.37
    3.864    70.37
    3.868    68.519
    3.873    68.519
    3.879    66.667
    3.884    70.37
    3.888    70.37
    3.894    70.37
    3.899    70.37
    3.904    66.667
    3.908    66.667
    3.914    68.519
    3.919    68.519
    3.923    70.37
    3.928    66.667
    3.933    66.667
    3.939    70.37
    3.943    66.667
    3.948    68.519
    3.954    68.519
    3.959    66.667
    3.963    66.667
    3.969    66.667
    3.974    66.667
    3.979    66.667
    3.98225    66.809
    3.98429    70.213
    3.98633    65.957
    3.98837    65.957
    3.9902    67.66
    3.99122    69.787
    3.99204    70.213
    3.99408    84.255
    3.9951    100.
    3.99612    94.468
    3.99714    83.404
    3.99796    77.447
    3.99918    70.638
    4.0002    70.638
    4.00224    70.213
    4.00408    71.915
    4.00612    72.766
    4.00796    74.894
    4.008    74.074
    4.012    74.074
    4.02143    73.878
    4.02388    73.061
    4.02551    73.061
    4.02755    73.878
    4.02796    70.612
    4.03163    72.245
    4.03367    72.245
    4.03571    68.98
    4.03775    70.612
    4.03939    73.878
    4.04143    80.408
    4.04387    88.571
    4.04551    119.592
    4.04714    171.02
    4.04836    175.102
    4.04959    144.898
    4.05163    117.143
    4.05326    91.02
    4.05571    82.857
    4.05775    80.408
    4.05979    76.327
    4.06183    75.51
    4.06387    73.878
    4.06591    76.327
    4.06836    76.327
    4.06999    76.327
    4.07203    76.327
    4.07366    75.51
    4.0757    71.429
    4.07775    71.429
    4.08    68.519
    4.084    77.778
    4.089    75.926
    4.093    81.481
    4.095    85.185
    4.096    77.778
    4.1    55.556
    4.101    46.296
    4.104    40.741
    4.106    37.037
    4.107    64.815
    4.109    83.333
    4.112    70.37
    4.113    64.815
    4.116    62.963
    4.12167    64.
    4.12367    68.
    4.126    68.
    4.128    72.
    4.13    74.67
    4.132    76.
    4.134    84.
    4.135    89.33
    4.136    97.33
    4.137    106.67
    4.138    110.67
    4.139    85.33
    4.14033    62.67
    4.14133    36.
    4.14233    26.67
    4.143    26.67
    4.14433    28.
    4.14533    34.67
    4.14633    36.
    4.14733    40.
    4.14833    40.
    4.14933    41.33
    4.15    40.741
    4.155    46.296
    4.158    48.148
    4.161    42.593
    4.165    46.296
    4.168    48.148
    4.173    50.
    4.178    50.
    4.182    50.
    4.187    50.
    4.191    50.
    4.195    48.148
    4.199    48.148
    4.202    51.852
    4.205    50.
    4.21    48.148
    4.214    42.593
    4.218    42.593
    4.222    38.889
    4.227    40.741
    4.23    37.037
    4.234    35.185
    4.237    29.63
    4.242    27.778
    4.247    27.778
    4.25    25.926
    4.254    27.778
    4.257    25.926
    4.26    24.074
    4.267    25.926
    4.27    29.63
    4.274    29.63
    4.279    29.63
    4.282    29.63
    4.286    33.333
    4.289    37.037
    4.294    38.889
    4.299    38.889
    4.302    38.889
    4.306    38.889
    4.309    42.593
    4.314    40.741
    4.317    42.593
    4.322    42.593
    4.326    48.148
    4.328    48.148
    4.331    48.148
    4.335    48.148
    4.342    44.444
    4.345    42.593
    4.346    46.296
    4.351    46.296
    4.354    46.296
    4.357    50.
    4.361    48.148
    4.366    48.148
    4.372    48.148
    4.377    48.148
    4.381    48.148
    4.388    48.148
    4.392    46.296
    4.397    48.148
    4.401    48.148
    4.407    48.148
    4.412    48.148
    4.417    48.148
    4.423    48.148
    4.427    48.148
    4.43    50.
    4.435    51.852
    4.438    46.296
    4.443    53.704
    4.446    51.852
    4.45    51.852
    4.455    53.704
    4.458    53.704
    4.463    53.704
    4.467    53.704
    4.472    53.704
    4.473    51.852
    4.478    55.556
    4.482    55.556
    4.487    61.111
    4.487    79.63
    4.491    87.037
    4.492    62.963
    4.495    48.148
    4.496    37.037
    4.501    38.889
    4.502    40.741
    4.507    44.444
    4.512    44.444
    4.515    46.296
    4.518    46.296
    4.522    48.148
    4.527    48.148
    4.53     50.
    4.533    48.148
    4.538    48.148
    4.53935    49.33
    4.54194    48.
    4.54387    50.67
    4.54581    49.33
    4.54774    50.67
    4.54968    52.
    4.55161    53.33
    4.55355    57.33
    4.55548    62.67
    4.55742    72.
    4.55871    81.33
    4.56       94.67
    4.56065    102.67
    4.56129    113.33
    4.56258    105.33
    4.56387    93.33
    4.56452    80.
    4.56581    66.67
    4.5671     61.33
    4.56774    57.33
    4.56903    53.33
    4.56968    52.
    4.57097    50.67
    4.57226    49.33
    4.57355    49.33
    4.57613    48.
    4.57806    48.
    4.58       48.
    4.58194    45.33
    4.58387    46.67
    4.58581    46.67
    4.58774    45.33
    4.58968    46.67
    4.59     42.593
    4.594    42.593
    4.599    42.593
    4.602    44.444
    4.607    44.444
    4.613    42.593
    4.616    42.593
    4.622    42.593
    4.628    40.741
    4.633    40.741
    4.637    40.741
    4.642    38.889
    4.646    38.889
    4.651    42.593
    4.656    35.185
    4.662    35.185
    4.666    33.333
    4.671    35.185
    4.675    33.333
    4.682    33.333
    4.686    35.185
    4.691    35.185
    4.695    38.889
    4.702    42.593
    4.705    46.296
    4.706    51.852
    4.711    59.259
    4.714    66.667
    4.715    75.926
    4.717    81.481
    4.72     94.444
    4.721    100.
    4.725    105.556
    4.728    107.407
    4.731    105.556
    4.734    98.148
    4.735    92.593
    4.737    85.185
    4.738    81.481
    4.74     70.37
    4.743    66.667
    4.744    61.111
    4.746    57.407
    4.747    53.704
    4.751    48.148
    4.752    44.444
    4.754    42.593
    4.758    37.037
    4.763    35.185
    4.767    31.481
    4.774    29.63
    4.777    27.778
    4.781    27.778
    4.787    24.074
    4.792    22.222
    4.796    16.667
    4.801    16.667
    4.807    16.667
    4.81     16.667
    4.816    20.37
    4.821    24.074
    4.827    24.074
    4.832    25.926
    4.836    24.074
    4.841    24.074
    4.846    24.074
    4.85     22.222
    4.853    22.222
    4.856    24.074
    4.862    29.63
    4.865    33.333
    4.87     37.037
    4.872    31.481
    4.875    20.37
    4.876    18.519
    4.879    22.222
    4.881    25.926
    4.884    27.778
    4.89     27.778
    4.893    29.63
    4.901    27.778
    4.907    25.926
    4.91     31.481
    4.917    29.63
    4.922    27.778
    4.927    27.778
    4.933    27.778
    4.936    29.63
    4.94     27.778
    4.945    27.778
    4.95     27.778
    4.953    29.63
    4.959    31.481
    4.962    31.481
    4.965    35.185
    4.967    38.889
    4.968    44.444
    4.971    48.148
    4.973    51.852
    4.976    53.704
    4.978    51.852
    4.979    50.
    4.98     48.148
    4.982    46.296
    4.985    42.593
    4.986    40.741
    4.989    37.037
    4.994    33.333
    4.997    31.481
    5.0      29.63
    5.003    29.63
    5.009    27.778
    5.016    27.778
    5.019    27.778
    5.025    25.926
    5.029    25.926
ENDDATA            366
ENDSUBENT          377
SUBENT        D0784004   20151203   20160503   20160429       D103
BIB                  2          2
REACTION   (16-S-32(P,EL)16-S-32,,DA)
ERR-ANALYS (DATA-ERR,,10.)No information on source of uncertainty.
ENDBIB               2
COMMON               1          3
ANG
ADEG
      141.7
ENDCOMMON            3
DATA                 2        320
EN         DATA
MEV        MB/SR
   3.841   81.497
   3.846   81.522
   3.85    81.546
   3.854   81.563
   3.858   81.587
   3.863   79.76
   3.867   79.784
   3.874   79.817
   3.878   79.841
   3.883   79.865
   3.887   81.742
   3.894   79.922
   3.898   81.799
   3.9     83.659
   3.903   85.527
   3.906   83.691
   3.909   81.856
   3.914   80.028
   3.918   80.053
   3.924   76.382
   3.929   80.11
   3.934   78.282
   3.938   78.307
   3.944   76.487
   3.949   76.512
   3.954   76.536
   3.96    76.569
   3.964   76.593
   3.969   74.766
   3.974   76.642
   3.98    74.823
   3.983   76.691
   3.987   78.567
   3.989   84.131
   3.992   97.11
   3.993   124.895
   3.995   73.052
   3.997   65.653
   4.0     71.225
   4.004   73.101
   4.007   74.969
   4.015   75.01
   4.02    73.183
   4.024   73.207
   4.027   73.223
   4.032   75.099
   4.035   71.412
   4.037   62.161
   4.04    76.992
   4.041   93.667
   4.044   125.164
   4.047   173.328
   4.05    114.086
   4.052   67.798
   4.054   45.584
   4.057   38.193
   4.06    40.061
   4.063   41.929
   4.068   40.102
   4.071   40.118
   4.075   38.291
   4.08    36.463
   4.084   84.635
   4.085   30.932
   4.086   56.866
   4.088   29.097
   4.091   32.817
   4.092   53.195
   4.095   77.285
   4.097   93.96
   4.098   79.153
   4.101   77.318
   4.104   77.334
   4.107   119.942
   4.11    129.218
   4.112   101.44
   4.115   84.798
   4.12    79.267
   4.123   75.58
   4.126   73.744
   4.129   73.76
   4.134   70.081
   4.137   81.208
   4.14    112.706
   4.143   140.5
   4.146   99.776
   4.147   77.562
   4.151   73.874
   4.151   70.171
   4.155   64.64
   4.157   62.796
   4.16    60.96
   4.163   57.273
   4.164   49.874
   4.168   44.335
   4.172   44.359
   4.175   42.523
   4.18    38.844
   4.184   40.72
   4.189   37.041
   4.192   35.206
   4.195   31.518
   4.2     27.839
   4.205   31.567
   4.208   27.88
   4.212   26.052
   4.215   24.217
   4.22    18.686
   4.223   20.554
   4.226   22.422
   4.231   22.446
   4.235   22.471
   4.24    22.495
   4.245   26.223
   4.248   29.943
   4.252   35.523
   4.257   42.955
   4.26    48.527
   4.264   48.551
   4.267   55.975
   4.272   61.555
   4.277   67.135
   4.28    72.706
   4.284   72.731
   4.287   74.599
   4.292   76.475
   4.295   78.343
   4.301   82.079
   4.304   82.096
   4.309   83.972
   4.314   83.996
   4.318   84.021
   4.323   84.045
   4.327   85.922
   4.334   85.954
   4.338   89.682
   4.343   86.003
   4.346   84.167
   4.349   84.184
   4.354   84.208
   4.358   89.788
   4.363   87.961
   4.367   86.133
   4.37    86.149
   4.377   86.182
   4.381   86.206
   4.386   84.379
   4.392   84.412
   4.397   86.288
   4.403   84.469
   4.407   80.789
   4.412   82.666
   4.417   84.542
   4.423   82.723
   4.427   86.451
   4.432   84.623
   4.437   92.055
   4.44    84.664
   4.443   84.68
   4.447   84.705
   4.45    84.721
   4.46    84.77
   4.464   84.794
   4.467   81.107
   4.472   86.687
   4.477   97.822
   4.48    99.69
   4.483   108.966
   4.484   123.788
   4.487   144.175
   4.489   179.368
   4.492   192.347
   4.493   166.429
   4.495   138.66
   4.497   114.594
   4.498   107.195
   4.5     96.092
   4.501   94.249
   4.504   90.561
   4.509   88.734
   4.514   86.906
   4.517   88.775
   4.523   88.807
   4.532   90.708
   4.54    100.008
   4.552   109.332
   4.556   122.319
   4.558   129.735
   4.561   146.417
   4.562   172.351
   4.566   161.257
   4.566   101.998
   4.567   53.858
   4.569   37.2
   4.571   39.06
   4.574   44.632
   4.577   52.055
   4.58    55.775
   4.584   59.503
   4.589   59.528
   4.592   63.248
   4.598   66.984
   4.6     66.992
   4.607   70.736
   4.612   70.761
   4.617   70.785
   4.621   70.81
   4.627   68.99
   4.631   69.007
   4.637   69.039
   4.641   67.212
   4.647   70.948
   4.652   74.676
   4.657   70.997
   4.661   71.021
   4.667   74.758
   4.67    74.774
   4.677   76.658
   4.681   80.386
   4.686   82.263
   4.69    85.991
   4.695   89.719
   4.701   99.011
   4.706   108.294
   4.707   112.006
   4.709   119.421
   4.712   128.697
   4.713   139.816
   4.716   141.684
   4.718   145.396
   4.721   165.782
   4.722   165.79
   4.724   162.095
   4.727   154.704
   4.729   141.749
   4.73    128.795
   4.732   117.692
   4.733   97.33
   4.735   86.227
   4.737   75.124
   4.738   65.873
   4.74    58.474
   4.743   52.934
   4.744   47.387
   4.748   41.848
   4.749   36.3
   4.754   32.621
   4.76    28.95
   4.766   27.131
   4.769   27.147
   4.775   29.032
   4.78    29.056
   4.786   30.94
   4.791   34.668
   4.797   38.405
   4.8     45.828
   4.806   47.713
   4.811   45.885
   4.815   45.91
   4.82    49.638
   4.826   53.374
   4.831   51.547
   4.834   53.415
   4.838   53.439
   4.843   55.315
   4.844   55.324
   4.847   55.34
   4.851   55.356
   4.855   53.529
   4.857   47.981
   4.858   44.286
   4.86    38.738
   4.863   29.496
   4.865   25.8
   4.869   33.232
   4.871   38.795
   4.875   36.968
   4.88    36.992
   4.884   40.72
   4.889   42.597
   4.894   46.325
   4.898   46.349
   4.903   44.522
   4.906   46.39
   4.911   48.266
   4.917   46.447
   4.921   50.175
   4.928   48.356
   4.931   52.076
   4.937   53.96
   4.941   55.836
   4.946   57.713
   4.949   59.581
   4.952   61.449
   4.954   67.012
   4.958   74.444
   4.96    74.452
   4.963   81.876
   4.964   89.291
   4.966   94.855
   4.969   107.834
   4.972   105.999
   4.975   74.534
   4.977   57.875
   4.978   41.217
   4.98    30.114
   4.981   24.567
   4.985   17.176
   4.986   13.48
   4.989   13.496
   4.992   13.513
   4.995   15.381
   4.998   19.101
   5.003   20.977
   5.006   20.993
   5.011   21.018
   5.015   21.042
   5.02    21.067
   5.025   22.943
   5.029   24.819
ENDDATA            322
ENDSUBENT          333
SUBENT        D0784005   20151203   20160503   20160429       D103
BIB                  2          2
REACTION   (16-S-32(P,EL)16-S-32,,DA)
ERR-ANALYS (DATA-ERR,,10.)No information on source of uncertainty.
ENDBIB               2
COMMON               1          3
ANG
ADEG
      161.7
ENDCOMMON            3
DATA                 2        415
EN         DATA
MEV        MB/SR
    3.844    100.043
    3.847    100.071
    3.851    100.114
    3.856    98.305
    3.859    98.334
    3.865    98.391
    3.87     96.582
    3.874    96.625
    3.879    96.668
    3.885      94.873
    3.89       98.62
    3.896      98.677
    3.901      98.72
    3.902      106.141
    3.905      108.022
    3.91       100.657
    3.916      97.011
    3.921      97.054
    3.925      97.097
    3.93       97.139
    3.935      95.331
    3.939      93.522
    3.947      91.741
    3.95       93.622
    3.956      89.975
    3.961      91.87
    3.965      91.913
    3.972      91.97
    3.975      91.998
    3.98049     91.664
    3.98233     90.383
    3.98418     93.685
    3.98622     95.317
    3.98786     97.372
    3.98974    106.924
    3.99098    109.819
    3.99162    117.725
    3.99268    126.457
    3.99383    158.104
    3.99505    157.667
    3.99585    104.736
    3.99696    75.968
    3.99797     72.201
    3.99982     76.752
    4.00188     81.717
    4.00395     87.099
    4.00579     89.984
    4.00784     90.783
    4.009      88.609
    4.013      86.8
    4.016      88.681
    4.02186     87.077
    4.02348      87.05
    4.02469     87.855
    4.02631     87.828
    4.02834     90.273
    4.02996     91.897
    4.03197     89.385
    4.03398     86.045
    4.03597      79.4
    4.03835      67.79
    4.04006     90.075
    4.04176     112.36
    4.04397    157.778
    4.04626    225.507
    4.04791    232.918
    4.04981     103.96
    4.05203      53.51
    4.05396     30.335
    4.05718     26.975
    4.0592      27.768
    4.06204      30.2
    4.06407     32.645
    4.06608     31.785
    4.06811     32.575
    4.069      31.761
    4.074      33.655
    4.075      33.67
    4.077      37.388
    4.08       35.564
    4.082      30.023
    4.083      20.779
    4.088      18.97
    4.092      24.568
    4.094      46.804
    4.095      70.891
    4.097      72.757
    4.1        69.082
    4.101      91.318
    4.104      108.013
    4.106      115.434
    4.107      167.299
    4.11       176.587
    4.112      137.713
    4.115      128.483
    4.115      119.224
    4.118      113.697
    4.12       108.156
    4.12129     100.66
    4.12258      94.04
    4.12452      90.73
    4.12645      90.73
    4.12807      90.73
    4.13        94.04
    4.13193      94.04
    4.13419     117.22
    4.13484     133.77
    4.13613     190.07
    4.13709     292.72
    4.13806     468.21
    4.13871     673.51
    4.13967     693.38
    4.14096     570.86
    4.14193     411.92
    4.1429      319.21
    4.14386     239.74
    4.14515     163.58
    4.1458      147.02
    4.14709     130.46
    4.14806     123.84
    4.14902     113.91
    4.15       123.256
    4.152      112.16
    4.154      101.063
    4.155      95.522
    4.158      91.847
    4.16       90.009
    4.162      82.617
    4.163      65.965
    4.166      54.882
    4.168      51.193
    4.169      45.652
    4.171      45.666
    4.176      45.709
    4.179      45.738
    4.18       42.048
    4.185      38.388
    4.19       36.579
    4.193      31.052
    4.197      29.243
    4.2        29.272
    4.204      25.597
    4.208      25.64
    4.211      23.816
    4.213      16.423
    4.214      12.734
    4.219      10.925
    4.221      9.088
    4.222      10.954
    4.225      18.389
    4.23       18.432
    4.234      22.179
    4.238      25.911
    4.239      33.332
    4.239      29.629
    4.242      35.213
    4.244      37.079
    4.245      44.5
    4.247      50.07
    4.25       55.654
    4.251      63.076
    4.253      66.793
    4.254      72.363
    4.257      79.799
    4.259      83.517
    4.262      87.249
    4.262      85.397
    4.265      92.833
    4.268      100.269
    4.269      103.987
    4.271      105.853
    4.274      111.437
    4.277      122.576
    4.278      141.108
    4.279      129.997
    4.282      135.581
    4.285      120.796
    4.286      117.106
    4.288      117.121
    4.292      122.719
    4.297      128.317
    4.3        128.346
    4.306      133.958
    4.309      133.987
    4.312      134.015
    4.319      132.221
    4.322      134.101
    4.325      135.981
    4.331      137.89
    4.337      136.096
    4.342      134.287
    4.346      134.33
    4.349      132.506
    4.354      134.401
    4.356      136.267
    4.357      138.133
    4.36       136.31
    4.362      134.473
    4.366      130.812
    4.371      130.855
    4.377      130.912
    4.382      129.103
    4.387      129.146
    4.393      129.203
    4.396      125.528
    4.402      127.437
    4.407      123.776
    4.413      127.537
    4.416      125.714
    4.421      125.757
    4.427      125.814
    4.431      131.412
    4.434      144.403
    4.436      144.417
    4.437      137.025
    4.439      131.483
    4.442      129.66
    4.447      124.148
    4.45       129.732
    4.454      131.626
    4.458      131.655
    4.462      133.55
    4.467      133.592
    4.468      139.162
    4.47       141.028
    4.473      144.76
    4.474      152.182
    4.476      154.048
    4.477      163.321
    4.479      176.298
    4.482      194.845
    4.483      228.191
    4.486      259.7
    4.487      272.677
    4.491      231.966
    4.492      224.573
    4.494      215.329
    4.496      172.752
    4.497      165.359
    4.499      150.559
    4.502      139.476
    4.504      133.935
    4.507      135.816
    4.51       128.437
    4.515      126.628
    4.516      124.791
    4.522      128.551
    4.525      130.432
    4.528      134.164
    4.533      132.355
    4.536      134.235
    4.53905     133.57
    4.54103     138.83
    4.54301     142.76
    4.54498     144.06
    4.54696     147.99
    4.54961     157.19
    4.5516       166.4
    4.55359     176.93
    4.5556      191.41
    4.55764     217.76
    4.55898     226.98
    4.55968      242.8
    4.56098     240.14
    4.56153     203.21
    4.56288      88.49
    4.56378      64.73
    4.565        33.07
    4.56562      17.24
    4.56694      19.86
    4.56826      23.8
    4.5696       35.65
    4.57159      42.22
    4.57424      54.06
    4.57557      59.32
    4.57755      64.58
    4.58019      69.82
    4.58151      72.44
    4.58413      73.73
    4.5861       73.71
    4.58808      78.97
    4.59006      81.58
    4.591      84.737
    4.594      86.617
    4.597      88.498
    4.6        90.378
    4.601      92.244
    4.606      99.694
    4.612      99.751
    4.617      103.498
    4.621      99.837
    4.627      99.894
    4.632      101.789
    4.635      105.521
    4.641      103.726
    4.646      111.177
    4.651      114.923
    4.655      111.262
    4.661      115.023
    4.666      120.621
    4.671      124.368
    4.675      126.262
    4.681      131.875
    4.686      137.473
    4.69       143.071
    4.697      152.388
    4.701      167.245
    4.703      176.518
    4.704      180.236
    4.707      187.672
    4.709      195.093
    4.712      206.233
    4.713      222.913
    4.715      234.038
    4.718      241.474
    4.721      243.354
    4.724      243.383
    4.725      219.324
    4.727      204.524
    4.729      180.465
    4.73       160.109
    4.732      137.902
    4.734      117.546
    4.737      99.057
    4.74       91.678
    4.742      76.878
    4.745      69.5
    4.745      62.092
    4.748      54.714
    4.75       52.876
    4.751      51.039
    4.753      47.35
    4.756      49.23
    4.761      43.717
    4.765      47.464
    4.77       45.655
    4.774      53.105
    4.779      62.407
    4.785      69.871
    4.79       81.025
    4.794      97.734
    4.8        99.643
    4.805      95.982
    4.81       88.618
    4.814      79.402
    4.82        81.311
    4.824      85.043
    4.828      86.937
    4.831      86.966
    4.836      85.157
    4.837      88.875
    4.842      88.918
    4.845      88.946
    4.848      94.53
    4.853      94.573
    4.856      77.936
    4.858      63.136
    4.861      50.202
    4.862      29.846
    4.864      18.75
    4.866      20.616
    4.869      41.014
    4.87       63.25
    4.871      78.078
    4.875      70.7
    4.876      61.455
    4.879      57.78
    4.882      59.661
    4.885      61.541
    4.889      63.421
    4.893      69.02
    4.896      69.048
    4.901      74.646
    4.904      72.823
    4.91       71.029
    4.916      74.789
    4.921      82.239
    4.924      82.268
    4.93       84.177
    4.936      93.493
    4.938      97.211
    4.941      93.536
    4.944      97.268
    4.947      102.852
    4.95       106.584
    4.953      112.168
    4.955      117.738
    4.956      125.159
    4.958      132.581
    4.961      141.868
    4.962      156.697
    4.963      162.267
    4.966      175.258
    4.97       182.694
    4.971      179.004
    4.973      164.204
    4.975      123.479
    4.976      92.013
    4.978      60.546
    4.98       38.339
    4.981      25.391
    4.984      18.012
    4.986      14.323
    4.988      12.485
    4.989      16.203
    4.992      18.084
    4.995      18.112
    5.0        23.711
    5.001      25.577
    5.004      25.605
    5.009      29.352
    5.014      31.246
    5.018      29.437
    5.024      33.198
    5.029      33.241
ENDDATA            417
ENDSUBENT          428
ENDENTRY             5
