ENTRY            20177   20230215   20230523   20230504       2314
SUBENT        20177001   20230215   20230523   20230504       2314
BIB                 11         19
TITLE       Total cross-section of Na-23 for neutrons with
             energies between 900 keV and 2000 keV
AUTHOR     (G.Deconninck, M.De Vroey, J.P.Meulders)
REFERENCE  (P,EANDC(E)-49,42,1963) Graph given.
INSTITUTE  (2BLGLVN)
FACILITY   (VDG,2BLGLVN)
INC-SOURCE (P-LI7)
METHOD     (TRN)
DETECTOR   (SCIN)  NE-203 liquid scintillator.
ERR-ANALYS (DATA-ERR) Cross-sections accurate to within 5%.
            No details given.
STATUS     (NCHKD) Since originals are lost and not anymore
            available from the authors, the values
            from the CCDN-file have been checked with the
            graph given in rept. EANDC(E)-49,p.42.
            Energy values truncated.
HISTORY    (19721005C)
           (20230215A) SD:Updated to new date formats,lower case.
           Corrections in all Subents.
ENDBIB              19
NOCOMMON             0          0
ENDSUBENT           22
SUBENT        20177002   20230215   20230523   20230504       2314
BIB                  2          2
REACTION   (11-NA-23(N,TOT),,SIG)
HISTORY    (20230215U) SD: Data presentation updated.
ENDBIB               2
COMMON               2          3
EN-RSL     DATA-ERR
MEV        PER-CENT
    0.007        5.
ENDCOMMON            3
DATA                 2        188
EN         DATA
MEV        B
      0.895      5.490
      0.905      5.345
      0.905      5.395
      0.917      4.850
      0.917      5.490
      0.920      5.175
      0.925      4.870
      0.937      4.340
      0.937      5.000
      0.941      4.400
      0.945      4.210
      0.950      4.560
      0.959      4.140
      0.959      4.320
      0.965      4.230
      0.968      4.170
      0.970      4.280
      0.971      4.340
      0.972      4.520
      0.980      4.100
      0.982      4.390
      0.990      4.290
      0.995      4.410
      1.005      4.240
      1.010      4.090
      1.010      4.140
      1.020      4.340
      1.025      4.060
      1.030      4.100
      1.040      4.330
      1.044      4.370
      1.050      4.530
      1.055      4.580
      1.057      4.670
      1.065      4.500
      1.069      4.660
      1.070      4.550
      1.078      4.500
      1.080      4.630
      1.082      4.430
      1.090      4.480
      1.095      4.220
      1.100      4.450
      1.105      4.320
      1.110      4.360
      1.120      4.300
      1.123      4.240
      1.125      4.130
      1.130      4.060
      1.140      4.040
      1.150      4.020
      1.153      4.070
      1.158      3.760
      1.158      4.250
      1.162      3.820
      1.170      3.670
      1.172      3.800
      1.175      3.840
      1.192      4.010
      1.208      3.970
      1.227      3.710
      1.235      3.450
      1.238      3.840
      1.240      3.350
      1.250      3.240
      1.255      3.030
      1.255      3.420
      1.258      2.900
      1.260      3.080
      1.262      3.000
      1.268      2.800
      1.268      3.060
      1.275      2.870
      1.280      3.010
      1.290      2.900
      1.295      2.930
      1.298      3.040
      1.305      3.470
      1.310      3.380
      1.320      3.480
      1.320      3.600
      1.321      3.400
      1.330      2.880
      1.330      3.230
      1.335      2.840
      1.347      3.020
      1.350      2.700
      1.350      2.800
      1.365      2.660
      1.370      2.940
      1.375      2.680
      1.380      2.920
      1.390      3.060
      1.398      2.790
      1.398      3.040
      1.405      2.890
      1.410      2.750
      1.421      2.600
      1.425      2.880
      1.433      2.450
      1.440      2.520
      1.443      2.730
      1.450      2.530
      1.460      2.730
      1.460      2.790
      1.470      2.530
      1.478      2.720
      1.480      2.550
      1.500      2.850
      1.509      2.580
      1.510      2.730
      1.518      2.660
      1.523      2.270
      1.538      2.250
      1.543      2.470
      1.550      2.050
      1.555      2.380
      1.570      2.340
      1.580      2.310
      1.580      2.490
      1.590      2.710
      1.596      3.230
      1.605      3.440
      1.618      3.480
      1.620      3.550
      1.623      3.330
      1.628      3.290
      1.639      3.050
      1.643      2.930
      1.650      2.540
      1.663      2.580
      1.670      2.530
      1.680      2.410
      1.685      2.450
      1.687      2.500
      1.695      2.680
      1.700      2.870
      1.710      2.840
      1.711      3.250
      1.720      3.230
      1.727      3.420
      1.735      3.290
      1.735      3.550
      1.745      3.460
      1.753      3.550
      1.760      3.510
      1.765      3.270
      1.768      3.180
      1.770      3.120
      1.783      3.010
      1.790      3.090
      1.800      3.200
      1.810      3.340
      1.813      3.140
      1.820      3.190
      1.825      2.990
      1.830      2.950
      1.830      3.020
      1.840      2.830
      1.840      2.960
      1.845      2.790
      1.855      2.830
      1.864      2.590
      1.877      2.190
      1.878      2.070
      1.880      2.140
      1.887      2.320
      1.890      2.080
      1.895      2.050
      1.900      2.100
      1.900      2.290
      1.912      2.280
      1.920      2.480
      1.927      2.530
      1.935      2.480
      1.935      2.600
      1.942      2.670
      1.945      2.540
      1.955      2.900
      1.958      2.830
      1.967      2.870
      1.972      2.800
      1.980      2.700
      1.985      2.730
      1.985      2.810
      2.005      3.010
      2.012      2.890
      2.020      2.980
ENDDATA            190
ENDSUBENT          201
ENDENTRY             2
