ENTRY            A1183   19990319   19990505
SUBENT        A1183001   19990319   19990505
BIB                  8         11
INSTITUTE  (2SWTETH)
REFERENCE  (J,NP/A,324,(1),99,197907)
AUTHOR     (B.JENNY,W.GRUEBLER,V.KONIG,P.A.SCHMELZBACH,R.RISLER,
           H.R.BURGI,D.O.BOERMA)
TITLE      Analyzing power and cross-section measurements for
           3He(d,d)3He scattering
FACILITY   (VDGT)
SAMPLE     3He gas target (purity 99.9%)
DETECTOR   (SOLST) SILICON SURFACE-BARRIER
HISTORY    (19830818C) Compilation produced by Arzamas RFNC-VNIIEF
           (19990220U)CNPD: corrected 4-dig. year and lower cases.
ENDBIB              11
NOCOMMON
ENDSUBENT           14
SUBENT        A1183002   19990319   19990505
BIB                  4          8
REACTION   (2-HE-3(D,EL)2-HE-3,,DA,,,EXP)
ERR-ANALYS (ANG-ERR) Digitizing error
           (DATA-ERR) Digitizing error
           (DATA-ERR1) Absolute error above 5 MeV
           (DATA-ERR2) Absolute error later 5 MeV
FLAG       (1.) REACTION (2-HE-3(D,EL)2-HE-3,,DA,D,EXP)
           (2.) REACTION (2-HE-3(D,EL)2-HE-3,,DA,HE3,EXP)
STATUS     (CURVE) fig 1
ENDBIB               8
COMMON               3          3
ANG-ERR    DATA-ERR1  DATA-ERR2
ADEG       PER-CENT   PER-CENT
  1.         3.         7.
ENDCOMMON            3
DATA                 5        376
EN         ANG-CM     DATA-CM    DATA-ERR   FLAG
MEV        ADEG       MB/SR      MB/SR      NO-DIM
     2.        36.28     226.2        9.875      1.
     2.        39.62     174.3        7.607      2.
     2.        44.1      127.4        5.559      2.
     2.        48.61     103.2        4.505      2.
     2.        52.        88.17       3.848      2.
     2.        56.53      75.24       3.284      2.
     2.        59.93      67.68       2.954      2.
     2.        64.5       64.05       2.796      2.
     2.        67.91      57.61       2.515      2.
     2.        71.33      54.57       2.382      2.
     2.        74.75      51.69       2.256      2.
     2.        79.34      51.51       2.248      2.
     2.        90.81      51.07       2.229      1.
     2.       125.6      132.9        5.801      1.
     3.        34.32     164.8        6.895      2.
     3.        39.92     113.8        4.764      2.
     3.        44.41      87.38       3.656      2.
     3.        47.8       74.5        3.117      2.
     3.        51.21      66.92       2.8        2.
     3.        55.73      54.11       2.264      2.
     3.        60.29      48.55       2.031      2.
     3.        63.68      41.39       1.732      2.
     3.        68.24      37.14       1.554      2.
     3.        70.48      31.7        1.326      2.
     3.        75.02      27.         1.13       2.
     3.        78.45      25.55       1.069      2.
     3.        83.02      22.92       0.9591     2.
     3.        86.43      20.59       0.8615     2.
     3.        89.86      19.48       0.8152     2.
     3.        93.3       18.43       0.7713     2.
     3.        97.93      19.34       0.8091     2.
     3.       101.4       20.3        0.8495     2.
     3.       102.6       20.28       4.669      2.
     3.       107.2       22.41       5.189      2.
     3.       110.7       24.79       5.74       2.
     3.       114.2       22.27       8.165      2.
     3.       115.6       46.1        1.929      2.
     3.       122.5       43.48      12.99       1.
     3.       123.9       77.02       3.223      2.
     3.       127.4       76.77      17.88       1.
     3.       132.1       99.17      23.09       1.
     3.       136.9      142.2        5.948      1.
     3.       142.8      183.4        7.675      1.
     4.        29.07     163.4        4.942      2.
     4.        34.74     132.6        4.01       2.
     4.        38.12     107.7        3.258      2.
     4.        41.51      92.13       2.786      2.
     4.        46.04      78.74       2.381      2.
     4.        50.56      63.92       1.933      2.
     4.        53.99      60.59       1.832      2.
     4.        58.53      51.78       1.566      2.
     4.        61.9       42.07       1.272      2.
     4.        65.31      37.88       1.145      2.
     4.        68.72      34.1        1.031      2.
     4.        73.27      30.68       0.9279     2.
     4.        77.85      29.06       0.8788     2.
     4.        81.24      24.85       0.7516     2.
     4.        85.81      23.54       0.7119     2.
     4.        89.22      21.19       0.6409     2.
     4.        91.48      19.1        0.5775     2.
     4.        94.89      17.19       0.52       2.
     4.        99.47      17.14       0.5184     2.
     4.       101.8       17.12       0.5176     2.
     4.       106.4       17.96       0.5433     2.
     4.       109.8       19.86       0.6007     1.
     4.       112.2       23.14       0.6997     2.
     4.       116.9       29.82       0.9018     1.
     4.       118.1       34.76       1.051      2.
     4.       121.6       42.59       1.288      1.
     4.       125.2       78.7        2.38       2.
     4.       126.3       67.41       2.039      1.
     4.       131.       101.3        3.065      1.
     4.       135.8      152.4        4.609      1.
     4.       141.6      196.3        5.936      1.
     4.       145.1      253.1        7.656      1.
     4.       150.9      326.         9.86       1.
     4.       156.7      398.9       12.06       1.
     5.        30.58     214.9        9.133      2.
     5.        35.11     182.5        7.758      2.
     5.        38.46     147.3        6.259      2.
     5.        44.13     124.9        5.311      2.
     5.        47.51     106.3        4.517      2.
     5.        51.98      81.23       3.453      2.
     5.        55.33      65.54       2.786      2.
     5.        59.83      52.81       2.245      2.
     5.        63.23      47.35       2.012      2.
     5.        66.64      42.45       1.804      2.
     5.        71.21      40.08       1.703      2.
     5.        74.67      39.93       1.697      2.
     5.        78.15      41.94       1.783      2.
     5.        82.78      44.01       1.87       2.
     5.        86.24      43.85       1.864      2.
     5.        90.84      43.64       1.855      2.
     5.        94.29      43.48       1.848      2.
     5.        97.72      41.1        1.747      2.
     5.       100.        38.89       1.653      2.
     5.       103.4       33.08       1.406      2.
     5.       106.8       32.96       1.401      2.
     5.       110.3       31.15       1.324      2.
     5.       112.6       31.07       1.321      2.
     5.       117.1       26.4        1.122      1.
     5.       119.5       30.85       1.311      2.
     5.       120.7       36.1        1.534      1.
     5.       126.5       42.04       1.787      2.
     5.       126.7       54.73       2.326      1.
     5.       128.9       51.79       2.201      2.
     5.       131.5       83.07       3.531      1.
     5.       136.3      126.1        5.359      1.
     5.       142.2      181.4        7.708      1.
     5.       147.       261.1       11.1        1.
     5.       152.9      337.9       14.36       1.
     5.       156.5      438.4       18.63       1.
     5.       163.5      509.9       21.67       1.
     6.        13.12    3403.        92.1        2.
     6.        18.39     954.6       25.83       2.
     6.        21.59     505.4       13.68       2.
     6.        26.08     386.7       10.47       2.
     6.        29.43     296.2        8.017      2.
     6.        33.97     251.9        6.818      2.
     6.        37.33     203.4        5.505      2.
     6.        41.83     155.7        4.213      2.
     6.        46.34     125.6        3.399      2.
     6.        49.67      91.25       2.469      2.
     6.        53.01      69.89       1.891      2.
     6.        57.47      48.13       1.302      2.
     6.        62.02      43.15       1.168      2.
     6.        66.54      34.81       0.942      2.
     6.        70.02      38.58       1.044      2.
     6.        72.38      45.11       1.221      2.
     6.        78.18      52.61       1.424      2.
     6.        80.5       55.36       1.498      2.
     6.        85.15      64.61       1.749      2.
     6.        89.77      67.87       1.837      2.
     6.        93.21      67.68       1.832      2.
     6.        95.51      67.56       1.828      2.
     6.       100.1       67.31       1.821      2.
     6.       102.4       63.73       1.725      2.
     6.       105.8       57.19       1.548      2.
     6.       109.2       51.32       1.389      2.
     6.       112.6       46.05       1.246      2.
     6.       114.8       39.24       1.062      2.
     6.       118.3       37.12       1.005      2.
     6.       120.5       35.14       0.9511     1.
     6.       125.2       41.02       1.11       2.
     6.       126.4       43.21       1.169      1.
     6.       127.6       47.97       1.298      2.
     6.       129.9       53.21       1.44       2.
     6.       131.1       62.28       1.686      1.
     6.       132.3       69.15       1.872      2.
     6.       135.8       76.64       2.074      2.
     6.       135.9       99.79       2.701      1.
     6.       142.9      159.6        4.318      1.
     6.       146.5      230.3        6.231      1.
     6.       151.2      314.9        8.521      1.
     6.       155.9      387.4       10.48       1.
     6.       161.7      476.3      112.5        1.
     6.       166.4      556.       168.6        1.
     7.        13.65    2598.       126.3        2.
     7.        17.82     887.3       43.14       2.
     7.        21.14     608.2       29.57       2.
     7.        25.65     463.5       22.54       2.
     7.        30.21     393.1       19.11       2.
     7.        34.72     299.6       14.57       2.
     7.        38.08     228.5       11.11       2.
     7.        42.61     183.7        8.933      2.
     7.        47.1      132.7        6.453      2.
     7.        49.28      96.07       4.671      2.
     7.        53.77      69.4        3.374      2.
     7.        57.08      47.57       2.313      2.
     7.        61.55      32.57       1.584      2.
     7.        66.13      29.14       1.417      2.
     7.        69.67      34.11       1.659      2.
     7.        74.36      39.89       1.939      2.
     7.        77.94      51.96       2.526      2.
     7.        81.47      60.82       2.957      2.
     7.        86.19      75.03       3.648      2.
     7.        89.7       83.24       4.047      2.
     7.        93.19      87.55       4.257      2.
     7.        96.66      87.27       4.243      2.
     7.       100.1       82.47       4.01       2.
     7.       103.6       86.73       4.217      2.
     7.       105.8       73.71       3.584      2.
     7.       109.3       66.03       3.21       2.
     7.       112.7       59.14       2.876      2.
     7.       116.1       47.6        2.314      1.
     7.       118.3       42.68       2.075      2.
     7.       120.6       38.27       1.861      1.
     7.       125.2       36.12       1.756      2.
     7.       127.5       36.05       1.753      1.
     7.       129.9       40.04       1.947      1.
     7.       129.9       40.04       1.947      2.
     7.       133.4       46.86       2.279      2.
     7.       134.6       54.97       2.673      2.
     7.       137.        64.4        3.132      1.
     7.       141.8      103.8        5.048      1.
     7.       145.5      158.8        7.721      1.
     7.       151.4      217.8       10.59       1.
     7.       156.2      299.        14.54       1.
     7.       160.9      389.1       18.92       1.
     7.       166.8      454.6      108.5        1.
     8.        14.16    2465.        88.99       2.
     8.        17.24    1009.        36.42       2.
     8.        22.84     733.3       26.47       2.
     8.        26.18     562.7       20.32       2.
     8.        29.55     479.5       17.31       2.
     8.        34.07     408.2       14.74       2.
     8.        37.38     297.3       10.73       2.
     8.        41.83     216.3        7.807      2.
     8.        46.29     157.3        5.68       2.
     8.        50.72     108.6        3.921      2.
     8.        53.97      67.6        2.44       2.
     8.        58.36      42.03       1.517      2.
     8.        61.65      29.04       1.048      2.
     8.        66.15      23.46       0.847      2.
     8.        70.82      28.82       1.04       2.
     8.        74.36      37.34       1.348      2.
     8.        77.9       48.38       1.747      2.
     8.        81.4       56.45       2.038      2.
     8.        84.92      69.41       2.506      2.
     8.        88.4       76.85       2.774      2.
     8.        95.31      84.85       3.063      2.
     8.        99.92      89.07       3.215      2.
     8.       103.3       84.28       3.043      2.
     8.       106.8       84.04       3.034      2.
     8.       110.2       75.46       2.724      2.
     8.       112.4       61.08       2.205      2.
     8.       115.8       60.9        2.199      1.
     8.       119.1       42.09       1.519      1.
     8.       119.2       49.25       1.778      2.
     8.       124.8       35.79       1.292      2.
     8.       127.        30.53       1.102      1.
     8.       130.5       35.62       1.286      1.
     8.       132.8       35.55       1.283      2.
     8.       135.1       39.4        1.423      2.
     8.       135.2       46.11       1.665      1.
     8.       141.1       73.53       2.654      1.
     8.       145.9      123.7        4.464      1.
     8.       151.8      177.6        6.411      1.
     8.       156.5      242.2        8.745      1.
     8.       161.2      348.2       12.57       1.
     8.       167.       450.2       16.25       1.
     9.        11.25    1608.        92.84       2.
     9.        16.74     771.7       44.56       2.
     9.        22.45     623.5       36.         2.
     9.        25.82     479.1       27.67       2.
     9.        30.4      408.2       23.57       2.
     9.        32.63     330.8       19.1        2.
     9.        37.16     253.9       14.66       2.
     9.        41.67     185.1       10.69       2.
     9.        46.16     128.         7.392      2.
     9.        50.64      88.56       5.114      2.
     9.        53.94      58.22       3.362      2.
     9.        57.22      36.33       2.098      2.
     9.        61.69      23.86       1.378      2.
     9.        65.1       20.34       1.175      2.
     9.        68.65      23.71       1.369      2.
     9.        73.43      32.27       1.863      2.
     9.        78.17      39.58       2.286      2.
     9.        80.58      48.64       2.809      2.
     9.        84.18      62.91       3.633      2.
     9.        87.73      73.32       4.234      2.
     9.        92.4       76.93       4.442      2.
     9.        95.91      80.79       4.665      2.
     9.       100.6       80.46       4.646      2.
     9.       102.9       80.3        4.637      2.
     9.       106.3       72.14       4.166      2.
     9.       108.6       71.99       4.157      2.
     9.       112.1       61.39       3.545      2.
     9.       116.5       42.47       2.453      2.
     9.       116.7       58.04       3.352      1.
     9.       121.2       42.3        2.443      1.
     9.       122.3       36.15       2.087      2.
     9.       124.6       32.51       1.877      2.
     9.       125.7       30.82       1.78       1.
     9.       128.        27.72       1.601      2.
     9.       129.1       23.69       1.368      2.
     9.       131.4       26.23       1.515      1.
     9.       133.8       27.58       1.593      2.
     9.       136.1       30.54       1.764      1.
     9.       142.1       48.55       2.803      1.
     9.       145.8       77.33       4.465      1.
     9.       150.7      116.8        6.744      1.
     9.       156.6      167.3        9.66       1.
     9.       161.4      227.7       13.15       1.
     9.       167.3      279.        82.94       1.
    10.        14.24    1516.        64.16       2.
    10.        18.6      888.1       37.58       2.
    10.        23.08     715.4       30.27       2.
    10.        27.57     576.2       24.38       2.
    10.        30.92     464.6       19.66       2.
    10.        34.24     355.2       15.03       2.
    10.        37.59     286.4       12.12       2.
    10.        43.18     207.3        8.77       2.
    10.        46.46     142.5        6.03       2.
    10.        52.01      92.73       3.924      2.
    10.        55.22      54.37       2.301      2.
    10.        58.48      35.45       1.5        2.
    10.        60.6       23.14       0.9791     2.
    10.        66.21      17.66       0.7471     2.
    10.        69.7       20.64       0.8735     2.
    10.        73.26      28.3        1.197      2.
    10.        77.97      38.76       1.64       2.
    10.        81.51      50.39       2.132      2.
    10.        83.84      55.92       2.366      2.
    10.        87.31      62.         2.624      2.
    10.        91.95      72.41       3.064      2.
    10.        96.55      76.06       3.218      2.
    10.       100.        79.96       3.384      2.
    10.       102.3       79.81       3.377      2.
    10.       106.8       75.38       3.19       2.
    10.       110.2       64.09       2.712      2.
    10.       112.4       57.52       2.434      2.
    10.       114.7       54.44       2.303      1.
    10.       116.9       46.33       1.961      2.
    10.       119.2       39.43       1.668      2.
    10.       121.4       39.35       1.665      1.
    10.       124.8       28.53       1.207      1.
    10.       124.8       28.53       1.207      2.
    10.       126.9       21.84       0.9241     2.
    10.       130.3       20.65       0.8737     1.
    10.       130.4       22.96       0.9715     2.
    10.       133.8       21.71       0.9186     2.
    10.       134.9       20.56       0.8702     2.
    10.       136.1       24.09       1.019      1.
    10.       140.9       34.79       1.472      1.
    10.       145.6       58.92       2.493      1.
    10.       151.6       94.54       4.001      1.
    10.       156.3      151.8        6.425      1.
    10.       161.       197.2        8.345      1.
    10.       166.8      255.9       60.53       1.
    11.5       11.1     1222.        55.97       2.
    11.5       16.71     751.        34.41       2.
    11.5       21.26     603.9       27.67       2.
    11.5       25.81     485.6       22.25       2.
    11.5       29.2      390.9       17.91       2.
    11.5       33.76     314.3       14.4        2.
    11.5       37.13     239.8       10.99       2.
    11.5       41.64     173.3        7.938      2.
    11.5       44.96     118.8        5.442      2.
    11.5       49.43      77.11       3.533      2.
    11.5       52.74      50.1        2.296      2.
    11.5       57.16      29.23       1.339      2.
    11.5       60.42      17.06       0.7819     2.
    11.5       64.97      13.72       0.6287     2.
    11.5       69.68      16.05       0.7353     2.
    11.5       74.44      22.03       1.01       2.
    11.5       78.07      31.95       1.464      2.
    11.5       80.48      39.5        1.81       2.
    11.5       85.18      46.19       2.116      2.
    11.5       88.73      54.07       2.478      2.
    11.5       92.25      60.         2.749      2.
    11.5       95.75      63.11       2.892      2.
    11.5      100.4       69.96       3.206      2.
    11.5      103.8       59.41       2.722      2.
    11.5      107.3       56.15       2.573      2.
    11.5      110.8       55.98       2.565      2.
    11.5      111.9       50.25       2.302      2.
    11.5      115.3       45.01       2.063      1.
    11.5      117.6       40.37       1.849      2.
    11.5      118.7       38.22       1.751      2.
    11.5      121.        34.28       1.571      1.
    11.5      123.3       30.74       1.408      2.
    11.5      124.4       27.59       1.264      2.
    11.5      125.5       24.76       1.135      1.
    11.5      127.8       22.21       1.018      2.
    11.5      128.8       16.09       0.7374     2.
    11.5      131.2       16.94       0.7764     1.
    11.5      132.3       16.05       0.7352     2.
    11.5      134.7       18.8        4.487      2.
    11.5      135.8       14.37       0.6586     1.
    11.5      140.5       20.82       0.954      1.
    11.5      146.6       35.38       8.487      1.
    11.5      151.4       57.04       2.614      1.
    11.5      155.1       97.11       4.45       1.
    11.5      162.2      140.4        6.433      1.
    11.5      165.8      182.9       43.65       1.
ENDDATA            378
ENDSUBENT          395
ENDENTRY             2
