ENTRY            O0967   20030515
SUBENT        O0967001   20030515
BIB                 15         55
TITLE      New Ne-22(A,N)Mg-25 resonances at very low energies
           relevant for the astrophysical S-process.
AUTHOR     (H.W.Drotleff, A.Denker, J.W.Hammer, H.Knee, S.Kuchler,
           D.Streit, C.Rolfs, H.P.Trautvetter)
INSTITUTE  (2GERTHS)
           (2GERBOC)
REFERENCE  (J,ZP/A,338,367,1991)
REL-REF    (R,,K.WOLKE+,J,ZP/A,334,491,1989) Details of
           experiments.
           (R,A0613002,H.W.DROTLEFF+,J,AJ,414,735,1993)
           More detailed experiment.
HISTORY    (20020603C)
           (20030515U) Last checking has been done.
SAMPLE     A windowless, recirculating gas target system with four
           pumping stages was used. The system was filled with
            99.8% enriched Ne-22 gas.
ADD-RES    (COMP).Collective and microscopic model calculations.
DETECTOR   (D4PI)
           (SCIN) In the energy range E(A) approx. 1400 to 2100-
           KeV additional measurements with scintillation
           detectors have been performed.
FACILITY   (DYNAM,2GERTHS) The 4-MV Dynamitron accelerator.
METHOD     (SITA)
COMMENT    -By authors:
            1.A new beamline was installed including two
           quadrupole tripletts,which provided an improved
           matching of the beam optics with the aperture of the
           gas target system about 100% transmission.In order to
           maintain this transmission at low energies,it was
           necessary to shorten one half of the dynamitron
           cascade.
            2.In order to minimize the yield contributions from
           background reactions in particular from C-13(A,N)O-16,
           all beam-line components of the gas target system have
           been sand-blaster (glass) and the target chamber was
           lined with Ta.
            3.The cylindrical extended target chamber was
           surrounded by 8 He-3 proportional counters,each of
            2.5-cm diameter and about 1-m length, which were
           embedded in a cylindrical polyethylene moderator of
            35-cm diameter. This 4-pi neutron detector was
           surrounded in addition with layers of polyethylene,
           paraffine, boron and cadmium to reduce the beam-
           independent background rate.
            4.At each beam energy,differential measurements of the
           neutron yields with gas-in and gas-out have been made.
            5.The beam energy has been determined directly by
           gamma spectroscopy in the whole energy range using the
           direct capture reaction He-3(A,G)Be-7.
ERR-ANALYS (EN-ERR-DIG).Data-point reader uncertainty.
           (ERR-T).The uncertainty is reported by authors.
           (ERR-DIG)  Data-point reader uncertainty.
CORRECTION -By authors. The data have been corrected for energy
           loss in the target gas.
STATUS     (CURVE).By CAJAD.
ENDBIB              55
NOCOMMON
ENDSUBENT           58
SUBENT        O0967002   20030515
BIB                  2          2
REACTION   (10-NE-22(A,N)12-MG-25,,SIG)
PART-DET   (N)
ENDBIB               2
COMMON               2          3
EN-ERR-DIG ERR-DIG
KEV        PER-CENT
         5.        1.7
ENDCOMMON            3
DATA                 4        217
EN         DATA-MAX   DATA       ERR-T
KEV        MICRO-B    MICRO-B    PER-CENT
      566.9   9.38E-05
      577.1  1.322E-04
      586.4   8.56E-05
      596.1   7.89E-05
       604.   8.38E-05
      607.4   5.34E-05
      617.1                8.E-05        60.
      617.6               1.3E-04        50.
      618.6               1.6E-04        25.
      619.2              1.84E-04        14.
      619.8              1.99E-04         8.
      620.4              2.17E-04         8.
       623.              2.71E-04         9.
      624.4              2.47E-04        11.
      626.6               2.1E-04        14.
      628.3               1.7E-04        29.
      628.7               1.6E-04        30.
      631.9                6.E-05        50.
      638.7                8.E-05        50.
      640.4               5.5E-05        50.
      645.5               4.3E-05        60.
       647.               5.5E-05        50.
      649.4               5.1E-05        50.
      650.9   8.46E-05
      661.9  1.016E-04
      671.8  1.089E-04
      687.7                6.E-05        70.
       698.   9.08E-05
      704.8    8.6E-05
      726.8                6.E-05        70.
      745.8   8.31E-05
      759.3   6.83E-05
      775.9                7.E-05        60.
      799.9  1.027E-04
      806.6               4.1E-05        60.
      819.1                8.E-05        40.
      820.6               1.2E-04        50.
      822.4  1.059E-04
      829.4               2.6E-04        30.
      830.8               3.9E-04        23.
      832.1              2.64E-03         5.
      832.5              3.79E-03         7.
      835.4              3.47E-03         2.
      836.1              6.21E-03        2.4
      836.2               7.2E-03         4.
      837.6              4.48E-03        2.9
      838.5              4.14E-03         5.
      839.3              8.02E-03         4.
       842.               6.8E-03         4.
      843.5               6.9E-03         4.
       846.              4.51E-03         4.
      846.7               2.5E-03         4.
      847.3              3.99E-03         4.
      849.5               2.2E-03         8.
      849.8              2.77E-03         6.
      853.8               2.7E-04        30.
      854.3               9.1E-04        23.
      858.6               2.4E-04        40.
       867.               1.8E-04        70.
       868.               1.7E-04        50.
      880.4               1.4E-04        60.
      900.1                7.E-05        70.
      901.8               1.2E-04        70.
       924.                9.E-05        70.
      936.1               1.3E-04        70.
      945.3               1.8E-04        60.
       955.               1.8E-04        50.
       958.               3.1E-04        23.
       975.               3.3E-04        30.
       985.               8.1E-04        17.
       995.              1.52E-03
      1005.              1.95E-03
      1011.              1.25E-03
      1028.              1.71E-03
      1031.               2.2E-03
      1048.               4.4E-03
      1061.               9.4E-03
      1068.               7.7E-03
      1071.              1.28E-02
      1078.               3.3E-02
      1084.               3.5E-02
      1098.              1.75E-02
      1107.               5.2E-03
      1117.               3.8E-03
      1124.               3.3E-03
      1134.                4.E-03
      1143.               4.9E-03
      1160.               5.9E-03
      1170.               9.7E-03
      1183.              1.94E-02
      1187.              2.34E-02
      1190.               5.3E-02
      1197.               8.3E-02
      1200.                 0.114
      1207.                 0.146
      1213.                 0.113
      1223.               8.2E-02
      1226.               5.3E-02
      1236.               4.1E-02
      1246.               3.6E-02
      1259.               3.2E-02
      1272.               3.8E-02
      1279.               4.6E-02
      1299.               7.6E-02
      1315.                  0.11
      1319.                 0.142
      1329.                 0.207
      1335.                 0.235
      1348.                 0.265
      1358.                   0.3
      1368.                   0.3
      1378.                  0.53
      1388.                  0.53
      1408.                  0.43
      1421.                  0.59
      1424.                   2.1
      1425.                  0.81
      1427.                   5.4
      1428.                    7.
      1429.                  1.63
      1431.                  1.19
      1433.                  15.9
      1434.                  24.8
      1435.                  16.9
      1441.                  13.2
      1443.                   6.5
      1444.                   3.9
      1448.                  2.09
      1451.                  0.52
      1452.                  0.92
      1454.                  1.62
      1456.                  0.76
      1467.                  0.38
      1470.                  0.59
      1484.                  0.66
      1494.                   4.4
      1495.                  2.06
      1497.                   8.9
      1504.                    6.
      1510.                  12.1
      1513.                   3.4
      1517.                   7.8
      1520.                  11.3
      1527.                  25.8
      1537.                  16.5
      1540.                   6.8
      1546.                   3.6
      1550.                  2.46
      1556.                  1.68
      1566.                  11.2
      1569.                   4.9
      1570.                   6.7
      1573.                  15.3
      1574.                  17.4
      1575.                   37.
      1576.                  2.77
      1577.                   54.
      1589.                  2.94
      1590.                  14.3
      1591.                   42.
      1596.                  11.1
      1602.                   5.2
      1605.                  0.83
      1609.                  1.37
      1622.                  0.72
      1642.                  0.72
      1652.                  0.99
      1681.                   2.7
      1685.                   3.9
      1688.                  10.8
      1689.                   28.
      1690.                   72.
      1692.                   99.
      1702.                   93.
      1705.                   64.
      1706.                   36.
      1708.                  20.3
      1715.                  12.2
      1718.                   5.4
      1720.                   6.9
      1724.                   3.9
      1728.                   3.4
      1741.                   3.6
      1751.                    5.
      1761.                   7.3
      1767.                   10.
      1774.                   12.
      1784.                  10.6
      1787.                   12.
      1794.                  16.4
      1797.                  27.2
      1807.                  30.8
      1810.                  25.5
      1817.                  16.3
      1820.                  12.7
      1830.                   9.8
      1843.                   9.8
      1860.                  15.1
      1863.                  25.1
      1889.                   39.
      1899.                   50.
      1906.                   68.
      1916.                   73.
      1929.                  106.
      1942.                  120.
      1956.                  144.
      1965.                  119.
      1979.                   98.
      1988.                   81.
      1998.                   81.
      2008.                  111.
      2015.                  161.
      2025.                  303.
      2041.                  360.
      2048.                  500.
      2061.                  470.
      2078.                  320.
ENDDATA            219
ENDSUBENT          230
ENDENTRY             2
