ENTRY            13155     890711
SUBENT        13155001     890711
BIB                 13         20
INSTITUTE  (1USALAS,1USATEX,1USATAM)
REFERENCE  (J,PR/C,39,965,8903)
AUTHOR     (C.R.NEWSOM,C.L.HOLLAS,R.D.RANSOME,P.J.RILEY,
           B.E.BONNER,J.G.J.BOISSEVAIN,J.J.JARMER,M.W.MCNAUGHTON,
           J.E.SIMMONS,T.S.BHATIA,G.GLASS,J.C.HIEBERT,
           L.C.NORTHCLIFFE,W.B.TIPPENS)
TITLE      NEUTRON-PROTON ANALYSING POWER MEASUREMENTS FROM 375
            TO 775 MEV.
FACILITY   (MESON,1USALAS) LAMPF
INC-SOURCE (P-BE). UNPOLARIZED BEAM.
INC-SPECT  UNPOLARIZED NEUTRON BEAM.
SAMPLE     POLARIZED PROPANEDIOL TARGET: C(3)H(8)O(2)
DETECTOR   (SCIN) NEUTRONS DETECTED BY ARRAY OF SCINTILLATORS
           (PROPC) PROTONS DETECTED BY MULTIWIRE PROPORTIONAL
                   COUNTER
METHOD     ASYMMETRY MEASURED USING REVERSAL OF TARGET
            POLARIZATION
CORRECTION CORRECTED FOR DEAD-TIME EFFECTS
STATUS     NO REPLY TO AUTHOR PROOF.
HISTORY    (890410C)
ENDBIB              20
COMMON               4          3
POL-TR     POL-TR-ERR ANG-RSL    EN-RSL-FW
NO-DIM     NO-DIM     ADEG       MEV
 0.70       0.02       1.5        30.
ENDCOMMON            3
ENDSUBENT           27
SUBENT        13155002     890711
BIB                  2          4
REACTION   (1-H-1(N,EL)1-H-1,,POL/DA,,ANA)
ERR-ANALYS (ERR-S) DATA ERRORS GIVEN ARE STATISTICAL
           ESTIMATED SYSTEMATIC UNCERTAINTY ABOUT 7%,
            ARISING FROM UNCERTAINTY IN TARGET POLARIZATION.
ENDBIB               4
NOCOMMON             0          0
DATA                 4        184
EN         ANG-CM     DATA-CM    ERR-S
MEV        ADEG       NO-DIM     NO-DIM
 375.       57.6       0.206      0.031
 375.       63.6       0.144      0.025
 375.       70.2       0.071      0.031
 375.       76.5       0.012      0.060
 375.       77.1      -0.089      0.015
 375.       83.1      -0.175      0.010
 375.       88.3      -0.264      0.019
 375.       89.5      -0.248      0.014
 375.       94.1      -0.290      0.008
 375.      100.1      -0.308      0.014
 375.      104.5      -0.290      0.016
 375.      109.7      -0.295      0.008
 375.      115.1      -0.244      0.012
 375.      115.7      -0.234      0.012
 375.      123.7      -0.210      0.010
 375.      129.8      -0.196      0.009
 375.      130.9      -0.152      0.025
 375.      138.7      -0.185      0.021
 375.      139.1      -0.140      0.008
 375.      147.5      -0.154      0.022
 375.      150.5      -0.136      0.026
 425.       57.6       0.229      0.023
 425.       63.7       0.132      0.018
 425.       70.4       0.018      0.019
 425.       76.1      -0.040      0.035
 425.       76.7      -0.092      0.012
 425.       83.0      -0.187      0.009
 425.       88.4      -0.258      0.013
 425.       89.4      -0.256      0.012
 425.       94.0      -0.309      0.007
 425.      100.2      -0.330      0.012
 425.      103.9      -0.326      0.011
 425.      109.7      -0.297      0.008
 425.      115.4      -0.260      0.010
 425.      116.3      -0.270      0.013
 425.      124.3      -0.210      0.008
 425.      130.4      -0.166      0.010
 425.      131.9      -0.186      0.011
 425.      139.4      -0.184      0.021
 425.      139.8      -0.142      0.007
 425.      148.5      -0.144      0.017
 425.      149.3      -0.123      0.011
 425.      156.9      -0.114      0.044
 475.       57.2       0.189      0.018
 475.       63.6       0.096      0.015
 475.       70.6      -0.006      0.014
 475.       75.8      -0.063      0.024
 475.       76.2      -0.096      0.010
 475.       82.9      -0.185      0.008
 475.       87.9      -0.267      0.010
 475.       89.2      -0.251      0.013
 475.       94.0      -0.315      0.007
 475.      100.4      -0.350      0.011
 475.      103.4      -0.330      0.010
 475.      109.7      -0.315      0.008
 475.      115.7      -0.301      0.009
 475.      116.8      -0.290      0.014
 475.      125.4      -0.235      0.008
 475.      130.8      -0.195      0.010
 475.      132.3      -0.180      0.009
 475.      139.8      -0.137      0.023
 475.      140.1      -0.131      0.007
 475.      148.8      -0.120      0.016
 475.      149.4      -0.108      0.009
 475.      157.7      -0.102      0.028
 525.       57.1       0.192      0.016
 525.       63.5       0.094      0.014
 525.       70.6      -0.008      0.015
 525.       75.6      -0.089      0.010
 525.       76.0      -0.073      0.022
 525.       82.9      -0.195      0.010
 525.       87.4      -0.253      0.010
 525.       88.9      -0.278      0.017
 525.       94.0      -0.334      0.008
 525.      100.5      -0.364      0.011
 525.      103.1      -0.360      0.010
 525.      109.6      -0.359      0.009
 525.      115.9      -0.317      0.010
 525.      117.3      -0.336      0.017
 525.      124.6      -0.264      0.010
 525.      131.3      -0.205      0.013
 525.      132.2      -0.205      0.010
 525.      140.3      -0.135      0.007
 525.      140.4      -0.135      0.029
 525.      149.0      -0.107      0.018
 525.      149.3      -0.105      0.010
 525.      158.2      -0.105      0.027
 575.       57.1       0.162      0.021
 575.       63.6       0.097      0.018
 575.       70.6       0.012      0.018
 575.       75.3      -0.054      0.011
 575.       76.2      -0.029      0.025
 575.       82.9      -0.173      0.012
 575.       86.9      -0.279      0.011
 575.       88.7      -0.281      0.028
 575.       94.0      -0.336      0.010
 575.      100.5      -0.389      0.014
 575.      102.9      -0.398      0.013
 575.      109.6      -0.382      0.012
 575.      116.0      -0.280      0.012
 575.      117.8      -0.353      0.024
 575.      124.7      -0.337      0.013
 575.      132.1      -0.244      0.020
 575.      132.5      -0.230      0.014
 575.      140.4      -0.177      0.009
 575.      141.3      -0.244      0.046
 575.      149.2      -0.128      0.023
 575.      149.5      -0.111      0.012
 575.      158.6      -0.003      0.031
 625.       57.2       0.194      0.026
 625.       63.6       0.111      0.022
 625.       70.6       0.082      0.023
 625.       75.1      -0.005      0.015
 625.       76.4      -0.069      0.031
 625.       82.8      -0.141      0.017
 625.       86.7      -0.226      0.014
 625.       88.3      -0.205      0.054
 625.       94.1      -0.372      0.014
 625.      100.4      -0.414      0.019
 625.      102.7      -0.436      0.017
 625.      109.6      -0.428      0.017
 625.      116.0      -0.387      0.017
 625.      118.0      -0.419      0.041
 625.      124.7      -0.339      0.018
 625.      132.6      -0.248      0.018
 625.      132.9      -0.209      0.038
 625.      140.5      -0.149      0.013
 625.      149.3      -0.158      0.032
 625.      149.5      -0.127      0.015
 625.      158.8      -0.030      0.040
 675.       57.3       0.160      0.027
 675.       63.6       0.147      0.022
 675.       70.6       0.066      0.024
 675.       75.1      -0.018      0.017
 675.       76.6      -0.002      0.030
 675.       82.5      -0.127      0.020
 675.       86.5      -0.215      0.016
 675.       94.1      -0.337      0.016
 675.      100.1      -0.390      0.024
 675.      102.7      -0.397      0.019
 675.      109.7      -0.386      0.019
 675.      115.9      -0.385      0.018
 675.      124.8      -0.335      0.021
 675.      132.9      -0.222      0.020
 675.      140.7      -0.153      0.015
 675.      149.5      -0.084      0.041
 675.      149.6      -0.111      0.017
 675.      159.1      -0.135      0.047
 725.       57.4       0.238      0.021
 725.       63.6       0.172      0.017
 725.       70.5       0.098      0.019
 725.       75.3      -0.009      0.014
 725.       77.0       0.000      0.023
 725.       82.1      -0.146      0.017
 725.       86.4      -0.207      0.014
 725.       94.1      -0.295      0.014
 725.       99.8      -0.306      0.024
 725.      102.7      -0.326      0.015
 725.      109.6      -0.341      0.016
 725.      115.7      -0.348      0.016
 725.      125.1      -0.325      0.020
 725.      132.8      -0.266      0.018
 725.      141.0      -0.159      0.014
 725.      149.7      -0.109      0.014
 725.      150.1      -0.102      0.040
 725.      159.2      -0.116      0.042
 775.       57.9       0.173      0.021
 775.       63.6       0.141      0.015
 775.       70.5       0.090      0.016
 775.       75.3       0.002      0.011
 775.       77.0      -0.033      0.019
 775.       81.7      -0.081      0.016
 775.       86.4      -0.199      0.010
 775.       93.9      -0.284      0.010
 775.       99.6      -0.341      0.022
 775.      102.7      -0.318      0.011
 775.      109.6      -0.336      0.010
 775.      115.7      -0.306      0.014
 775.      125.5      -0.283      0.012
 775.      133.0      -0.231      0.010
 775.      141.8      -0.163      0.008
 775.      149.8      -0.114      0.008
 775.      150.8      -0.160      0.027
 775.      159.3      -0.088      0.027
ENDDATA            186
ENDSUBENT          195
ENDENTRY             2
