ENTRY            F1313   20200614   20200819   20200818       F078
SUBENT        F1313001   20200614   20200819   20200818       F078
BIB                 12         24
TITLE      Study of proton rich nucleus B-8 in resonance
           interaction of radioactive Be-7 with hydrogen.
AUTHOR     (V.Z.Goldberg,G.V.Rogachev,M.S.Golovkov,V.I.Dukhanov,
           I.N.Serikov,V.A.Timofeev)
INSTITUTE  (4RUSKUR)
REFERENCE  (J,ZEP,67,959,1998)
           (J,JEL,67,1013,1998) English translation
           #doi:10.1134/1.567784
           (C,98MOSCOW,,205,1998)
FACILITY   (CYCLO,4RUSKUR) For Be-7 production.
INC-SOURCE Secondary beam of Be-7 nucleus from p(7Li,7Be)n
           reaction was used. The intensity of the Be-7 beam was
           10**4 part/sec.
SAMPLE     Scattering chamber filled with Methane CH4.
METHOD     (EDE,TOF)
DETECTOR   (TELES,SI) Single detector placed at 0 degree to beam
           direction and  telescope of delta E-E detectors.
ERR-ANALYS (DATA-ERR)   Cross section error depended on
           impurities in Be-7 beam and CH4 gas target, accuracy
           of gas target pressure measurements and the errors in
           calculations of Be-7 loses.
STATUS     (CURVE) Fig. 2 from Zhur.Eksper.Teor.Fiz.,67(1998)959
HISTORY    (20170630C)
           (20200614U) SD: Author's name corrected. BIB updated.
ENDBIB              24
COMMON               3          3
ANG-CM     EN-ERR-DIG ERR-DIG
ADEG       MEV        MB/SR
       180.     0.0063      0.614
ENDCOMMON            3
ENDSUBENT           31
SUBENT        F1313002   20170710   20171016   20171003       F065
BIB                  1          1
REACTION   (4-BE-7(P,EL)4-BE-7,,DA)
ENDBIB               1
NOCOMMON             0          0
DATA                 3        105
EN-CM      DATA-CM    DATA-ERR
MEV        MB/SR      MB/SR
     1.0145     16.770     11.880
     1.0539     24.119     14.674
     1.0745      7.354     8.0363
     1.0974     31.819     16.074
     1.1378     15.060     11.181
     1.1573     23.102     13.281
     1.1815     14.724     11.530
     1.2769     14.403     10.831
     1.2970      7.421     6.6410
     1.3007     14.410     10.482
     1.3249      7.429     6.6363
     1.3408      7.434     6.6387
     1.3725      7.793     5.5880
     1.3919     21.775     12.229
     1.4194     28.772     14.675
     1.4634     21.447     12.577
     1.4838      8.176     6.2892
     1.5156      7.137     6.9869
     1.5350     21.469     12.578
     1.5631     14.140     10.135
     1.5861     36.159     16.422
     1.6071      7.165     5.9398
     1.6585     13.819     10.833
     1.6854     36.189     16.071
     1.7022     14.182     10.481
     1.7263      6.502     8.0339
     1.7538     13.848     10.130
     1.7819      6.868     7.6857
     1.8052     21.900     13.277
     1.8373     14.572     10.834
     1.8568     22.614     12.228
     1.8810     14.934     10.831
     1.8886     22.973     14.317
     1.9239     36.960     16.069
     1.9631     50.249     21.659
     1.9755     37.674     17.467
     2.0012     91.840     26.552
     2.0014     85.551     20.268
     2.0287     99.885
     2.0299     68.788     23.059
     2.0324    106.870
     2.0441    113.520     47.865
     2.0674    127.150
     2.0676    121.910
     2.0830    134.490     27.600
     2.0947    140.090
     2.0982    151.270     20.612
     2.1024    146.380
     2.1228    133.110     32.145
     2.1542    142.200     33.892
     2.1763    187.980     37.735
     2.2065    126.490     32.144
     2.2290    162.140     40.183
     2.2609    159.350     34.938
     2.2772    148.180     30.049
     2.3014    138.750     28.308
     2.3372    138.760     32.493
     2.3642     57.009     22.362
     2.3827    196.430     39.483
     2.4060    106.990     30.051
     2.4304     92.668     26.558
     2.4702     91.282     27.602
     2.4990     66.833     24.459
     2.5168    118.550     31.446
     2.5420     84.665     26.555
     2.5751     50.433     20.965
     2.5983     68.610     24.109
     2.6204    112.990     31.445
     2.6468    148.990     34.939
     2.6774     78.766     26.556
     2.6958    115.460     31.447
     2.7276    116.170     31.446
     2.7488     81.234     27.600
     2.7838    100.110     29.696
     2.7965    182.580     40.183
     2.8264    129.130     33.892
     2.8615     45.279     20.965
     2.8766     65.898     23.761
     2.9003     69.050     20.612
     2.9040     75.340     25.506
     2.9275     85.131     28.650
     2.9542    115.190     31.796
     2.9859    115.550     32.144
     3.0109     86.903     29.350
     3.0395     68.044     26.553
     3.0621     98.099     31.445
     3.0891    119.070     33.891
     3.1229     69.117     26.555
     3.1412    110.350     33.192
     3.1693    101.280     32.844
     3.1983     70.887     26.555
     3.2238     30.363     18.168
     3.2376     82.429     30.051
     3.2654     82.787     29.702
     3.2976     74.061     26.556
     3.3254     74.768     26.555
     3.3624     41.935     21.316
     3.3774     64.651     25.857
     3.4127     76.542     27.602
     3.4414     54.887     25.509
     3.4564     77.953     28.303
     3.4926     66.084     27.951
     3.5173     44.078     22.712
     3.5469    101.390     34.238
     3.5729     44.794     23.062
ENDDATA            107
ENDSUBENT          113
ENDENTRY             2
