ENTRY            D0232   20041019
SUBENT        D0232001   20041019
BIB                 11         20
TITLE      Elastic and inelastic deuteron scattering on 12C in
           the energy range from 60 to 90 MeV
AUTHOR     (O.Aspelund,G.Hrehuss,A.Kiss,K.T.Knopfle,
           C.Mayer-Boricke,M.Rogge,U.Schwinn,Z.Seres,P.Turek)
INSTITUTE  (2GERJUL)
REFERENCE  (J,NP/A,253,263,1975)
FACILITY   (ISOCY)
METHOD     (EXTB,EDE)
SAMPLE     The target was a 3.21 mg/cm2 self-supporting foil
           of natural carbon.
DETECTOR   (TELES,SIBAR,GELI) The detector telescopes were
           operating in the usual dE-E mode using Si surface-
           barrier counters as dE detectors, and Ge(Li) diodes of
           the side-entry type, E-detectors. A typical dE
           thickness was 400 mu-m; the Ge(Li) diodes had standard
           lengths of 25 mm.
ERR-ANALYS (ANG-ERR-D)  Digitizing error
           (ERR-DIG)    Digitizing error
STATUS     (CURVE)Curves from figs.2-4
HISTORY    (20041019C) SD
ENDBIB              20
COMMON               3          3
EN-RSL     ANG-ERR-D  ERR-DIG
MEV        ADEG       PER-CENT
 0.25        0.5        0.3
ENDCOMMON            3
ENDSUBENT           27
SUBENT        D0232002   20041019
BIB                  1          1
REACTION   (6-C-12(D,EL)6-C-12,,DA)
ENDBIB               1
NOCOMMON             0          0
DATA                 3        177
EN         ANG-CM     DATA-CM
MEV        ADEG       MB/SR
 60.600     14.222     960.22
 60.600     15.397     638.21
 60.600     16.569     429.66
 60.600     17.644     264.34
 60.600     19.070     144.99
 60.600     19.675     105.31
 60.600     20.070     70.782
 60.600     20.546     57.693
 60.600     21.147     42.992
 60.600     21.636     32.030
 60.600     22.327     27.495
 60.600     23.313     30.142
 60.600     23.960     34.318
 60.600     24.611     38.082
 60.600     25.143     44.474
 60.600     25.787     51.290
 60.600     26.220     55.447
 60.600     27.093     61.556
 60.600     28.089     63.286
 60.600     29.295     70.307
 60.600     30.629     70.500
 60.600     31.742     69.760
 60.600     32.863     65.573
 60.600     34.093     62.447
 60.600     35.111     55.748
 60.600     36.245     47.898
 60.600     37.485     42.779
 60.600     38.402     35.808
 60.600     39.652     29.993
 60.600     40.787     25.770
 60.600     41.812     21.854
 60.600     43.163     19.523
 60.600     44.205     14.940
 60.600     45.322     14.409
 60.600     46.449     13.032
 60.600     47.466     11.634
 60.600     48.811     10.801
 60.600     49.825     9.8932
 60.600     50.948     9.1807
 60.600     52.067     8.7412
 60.600     53.077     8.2146
 60.600     54.307     7.8230
 60.600     55.329     6.8068
 60.600     56.674     6.3195
 60.600     57.795     5.9402
 60.600     58.709     5.0363
 60.600     59.944     4.6747
 60.600     60.862     3.8630
 60.600     61.991     3.4494
 60.600     63.020     2.8511
 60.600     64.151     2.5133
 60.600     65.171     2.2151
 60.600     66.201     1.8309
 60.600     67.669     1.5741
 60.600     68.564     1.5174
 60.600     69.712     1.1917
 60.600     70.523    0.95962
 60.600     71.638    0.93743
 60.600     72.644    0.90387
 60.600     73.771    0.81752
 60.600     74.682    0.71115
 60.600     75.807    0.65152
 60.600     76.934    0.58928
 60.600     77.834    0.54659
 60.600     78.951    0.52714
 77.300     14.324     614.11
 77.300     15.035     513.77
 77.300     15.510     398.95
 77.300     16.215     325.49
 77.300     16.775     231.40
 77.300     17.729     141.29
 77.300     19.242     92.838
 77.300     19.734     76.759
 77.300     20.229     64.266
 77.300     20.845     56.556
 77.300     21.722     59.288
 77.300     23.596     67.629
 77.300     24.703     74.490
 77.300     27.127     88.063
 77.300     28.090     84.519
 77.300     29.374     80.015
 77.300     31.802     63.278
 77.300     32.962     56.283
 77.300     33.994     46.447
 77.300     35.009     35.998
 77.300     36.493     31.982
 77.300     37.499     23.871
 77.300     38.541     20.455
 77.300     39.540     14.889
 77.300     40.700     13.243
 77.300     41.955     11.198
 77.300     43.043     7.5567
 77.300     46.027     6.3511
 77.300     47.288     5.5069
 77.300     48.566     5.0841
 77.300     49.621     4.5810
 77.300     50.774     3.9735
 77.300     51.727     3.6727
 77.300     52.979     3.0668
 77.300     53.922     2.7299
 77.300     55.062     2.2519
 77.300     56.104     1.9297
 77.300     57.152     1.6956
 77.300     58.293     1.3987
 77.300     59.429     1.1395
 77.300     60.265     1.0147
 77.300     60.560    0.90523
 77.300     61.500    0.79572
 77.300     62.535    0.66495
 77.300     63.695    0.59144
 77.300     64.648    0.54666
 77.300     64.832    0.48181
 77.300     65.903    0.46225
 77.300     66.824    0.37685
 77.300     67.882    0.34384
 77.300     68.874    0.36947
 77.300     69.163    0.32146
 77.300     70.001    0.28986
 77.300     71.171    0.26771
 77.300     72.206    0.22372
 77.300     73.372    0.20404
 77.300     74.313    0.17936
 77.300     75.367    0.16161
 77.300     76.416    0.14200
 77.300     77.428    0.10869
 77.300     78.490    0.10042
 77.300     79.531    0.86049E-01
 77.300     80.583    0.76566E-01
 90.000     14.917     277.77
 90.000     16.150     189.95
 90.000     17.092     114.09
 90.000     18.589     68.694
 90.000     19.741     60.711
 90.000     20.967     60.250
 90.000     22.176     62.941
 90.000     23.386     65.752
 90.000     24.509     63.570
 90.000     25.636     60.677
 90.000     26.829     66.724
 90.000     28.174     64.571
 90.000     28.997     56.260
 90.000     30.173     46.040
 90.000     31.374     34.885
 90.000     32.353     26.408
 90.000     33.624     22.759
 90.000     34.591     17.905
 90.000     35.899     13.748
 90.000     36.689     13.273
 90.000     37.170     11.849
 90.000     38.145     9.0853
 90.000     39.305     7.8262
 90.000     40.469     6.6557
 90.000     41.740     5.7360
 90.000     42.793     4.8758
 90.000     43.829     4.3628
 90.000     45.006     3.5702
 90.000     46.277     3.0769
 90.000     47.313     2.7532
 90.000     48.473     2.3716
 90.000     49.658     1.8916
 90.000     50.686     1.7366
 90.000     51.756     1.4023
 90.000     52.677     1.2704
 90.000     53.771    0.94987
 90.000     54.915    0.86131
 90.000     56.211    0.68731
 90.000     57.169    0.55476
 90.000     58.374    0.41499
 90.000     59.550    0.33960
 90.000     62.685    0.22527
 90.000     63.853    0.18914
 90.000     65.803    0.15730
 90.000     67.864    0.13088
 90.000     70.151    0.10761
 90.000     72.249    0.79774E-01
 90.000     73.203    0.65220E-01
 90.000     74.351    0.58386E-01
ENDDATA            179
ENDSUBENT          185
SUBENT        D0232003   20041019
BIB                  2          2
REACTION   (6-C-12(D,INL)6-C-12,PAR,DA)
EN-SEC     (E-LVL,6-C-12)
ENDBIB               2
NOCOMMON             0          0
DATA                 5        536
EN         E-LVL      ANG-CM     DATA-CM    DATA-ERR
MEV        MEV        ADEG       MB/SR      MB/SR
 60.600     4.4000     15.645     21.469
 60.600     4.4000     16.877     20.185
 60.600     4.4000     17.994     19.467
 60.600     4.4000     19.220     19.022
 60.600     4.4000     19.899     17.635     1.7229
 60.600     4.4000     20.917     15.742     1.5413
 60.600     4.4000     22.031     15.578
 60.600     4.4000     23.162     13.731
 60.600     4.4000     24.370     15.063     1.1210
 60.600     4.4000     24.871     10.521
 60.600     4.4000     25.526     11.380
 60.600     4.4000     26.091     10.684
 60.600     4.4000     27.093     10.570    0.78896
 60.600     4.4000     28.326     9.9378    0.85706
 60.600     4.4000     29.263     7.3141    0.79575
 60.600     4.4000     30.609     6.7904    0.63915
 60.600     4.4000     31.699     7.7397    0.83803
 60.600     4.4000     32.863     5.5543    0.76019
 60.600     4.4000     34.102     5.0246    0.61608
 60.600     4.4000     35.055     6.7668    0.63694
 60.600     4.4000     36.303     5.7405    0.54033
 60.600     4.4000     37.536     5.3972    0.58439
 60.600     4.4000     38.649     5.3408    0.50271
 60.600     4.4000     39.744     5.9329    0.81359
 60.600     4.4000     41.180     6.2649    0.58970
 60.600     4.4000     42.067     6.3579    0.59844
 60.600     4.4000     43.202     5.4621    0.43643
 60.600     4.4000     44.535     5.4775    0.67016
 60.600     4.4000     45.661     5.0180    0.61526
 60.600     4.4000     46.667     4.8384    0.52389
 60.600     4.4000     47.677     4.5469    0.36561
 60.600     4.4000     48.806     4.0598    0.43958
 60.600     4.4000     50.045     3.6726    0.39671
 60.600     4.4000     51.063     3.2784    0.35412
 60.600     4.4000     52.077     3.0027    0.28417
 60.600     4.4000     53.200     2.7864    0.26156
 60.600     4.4000     54.321     2.6191    0.24720
 60.600     4.4000     55.469     2.0831    0.19608
 60.600     4.4000     56.582     2.0614    0.13731
 60.600     4.4000     57.707     1.8884    0.15137
 60.600     4.4000     58.944     1.7304    0.13914
 60.600     4.4000     60.057     1.7123    0.11278
 60.600     4.4000     61.079     1.4898
 60.600     4.4000     62.085     1.4364
 60.600     4.4000     63.315     1.3680
 60.600     4.4000     64.216     1.2689    0.10171
 60.600     4.4000     65.675     1.1632
 60.600     4.4000     66.905     1.1078
 60.600     4.4000     67.802     1.0543
 60.600     4.4000     68.810     1.0036
 60.600     4.4000     69.719    0.88420
 60.600     4.4000     70.734    0.80984
 60.600     4.4000     71.643    0.71352    0.57193E-01
 60.600     4.4000     72.746    0.75292
 60.600     4.4000     73.875    0.67226
 60.600     4.4000     74.895    0.59244
 60.600     4.4000     75.909    0.54261    0.46680E-01
 60.600     4.4000     76.926    0.49064    0.36409E-01
 60.600     4.4000     78.053    0.44374    0.38269E-01
 60.600     4.4000     79.188    0.38122    0.32796E-01
 60.600     7.6000     15.364    0.45361    0.33483
 60.600     7.6000     19.264    0.10428    0.20285
 60.600     7.6000     20.101    0.29216    0.22888
 60.600     7.6000     21.655    0.14641    0.17438
 60.600     7.6000     22.271    0.20216    0.19751
 60.600     7.6000     23.770    0.14333    0.26761
 60.600     7.6000     24.330    0.13986    0.23137
 60.600     7.6000     24.673    0.13125    0.22628
 60.600     7.6000     25.239    0.12322    0.18761
 60.600     7.6000     40.846    0.18488    0.11255
 60.600     7.6000     43.139    0.24024    0.10404
 60.600     7.6000     47.666    0.29038    0.27406E-01
 60.600     7.6000     48.921    0.23702    0.22310E-01
 60.600     7.6000     49.937    0.21432    0.20118E-01
 60.600     7.6000     50.969    0.17485    0.21393E-01
 60.600     7.6000     52.208    0.15818    0.21649E-01
 60.600     7.6000     53.286    0.19474    0.26705E-01
 60.600     7.6000     54.450    0.13976    0.17136E-01
 60.600     7.6000     55.549    0.15131    0.27471E-01
 60.600     7.6000     56.654    0.15763    0.17068E-01
 60.600     7.6000     57.648    0.16417    0.29805E-01
 60.600     7.6000     58.866    0.16888    0.18242E-01
 60.600     7.6000     59.913    0.12593    0.13635E-01
 60.600     7.6000     61.001    0.14539    0.15743E-01
 60.600     7.6000     62.207    0.16155    0.15206E-01
 60.600     7.6000     63.232    0.13876    0.13061E-01
 60.600     7.6000     64.217    0.15214    0.12195E-01
 60.600     7.6000     65.254    0.12097    0.14833E-01
 60.600     7.6000     66.488    0.11229    0.12158E-01
 60.600     7.6000     67.498    0.10552    0.14470E-01
 60.600     7.6000     68.428    0.81758E-010.12414E-01
 60.600     7.6000     69.551    0.75869E-010.81951E-02
 60.600     7.6000     70.563    0.70387E-010.86117E-02
 60.600     7.6000     71.512    0.97260E-010.77713E-02
 60.600     7.6000     72.662    0.76368E-010.71882E-02
 60.600     7.6000     73.684    0.66441E-010.44093E-02
 60.600     7.6000     74.892    0.72883E-010.68602E-02
 60.600     7.6000     75.797    0.65886E-010.71510E-02
 60.600     7.6000     76.929    0.58076E-010.46551E-02
 60.600     7.6000     78.050    0.54590E-010.43757E-02
 60.600     7.6000     79.109    0.37686E-010.40707E-02
 60.600     9.6000     14.585     2.6827    0.40216
 60.600     9.6000     15.795     2.8671    0.42981
 60.600     9.6000     16.925     2.5972    0.54582
 60.600     9.6000     17.987     1.8715    0.36473
 60.600     9.6000     19.289     2.2146    0.39679
 60.600     9.6000     19.761     3.4587    0.41876
 60.600     9.6000     22.672     3.1071    0.42070
 60.600     9.6000     23.199     1.9944    0.34589
 60.600     9.6000     23.842     2.2681    0.40637
 60.600     9.6000     25.048     2.4864    0.43067
 60.600     9.6000     25.645     3.5992    0.48622
 60.600     9.6000     26.371     2.6245    0.35536
 60.600     9.6000     26.832     2.4039    0.29178
 60.600     9.6000     27.397     2.2879    0.37661
 60.600     9.6000     28.459     1.6486    0.32076
 60.600     9.6000     29.757     2.0011    0.27033
 60.600     9.6000     30.828     1.3705    0.30876
 60.600     9.6000     33.110     1.0032    0.16513
 60.600     9.6000     34.371     1.4731    0.22130
 60.600     9.6000     35.433     1.0615    0.23879
 60.600     9.6000     36.646     1.1202    0.18438
 60.600     9.6000     37.729    0.71998    0.26901
 60.600     9.6000     38.984     1.0983    0.24744
 60.600     9.6000     40.057     1.3494    0.30401
 60.600     9.6000     41.215     1.0496    0.17278
 60.600     9.6000     42.435     1.0662    0.20745
 60.600     9.6000     43.534     1.1392    0.20448
 60.600     9.6000     44.596    0.82090    0.13512
 60.600     9.6000     45.785    0.98355    0.11908
 60.600     9.6000     46.872     1.1198    0.18432
 60.600     9.6000     48.002     1.0144    0.13703
 60.600     9.6000     49.135    0.90728    0.10985
 60.600     9.6000     50.484    0.83283    0.90147E-01
 60.600     9.6000     51.477    0.86729    0.92999E-01
 60.600     9.6000     52.598    0.82659    0.65683E-01
 60.600     9.6000     53.846    0.72098    0.61502E-01
 60.600     9.6000     54.856    0.68696    0.42261E-01
 60.600     9.6000     55.799    0.51408    0.40700E-01
 60.600     9.6000     57.243    0.51591    0.40844E-01
 60.600     9.6000     58.066    0.40608    0.37871E-01
 60.600     9.6000     59.281    0.42312    0.33498E-01
 60.600     9.6000     60.416    0.37368    0.29584E-01
 60.600     9.6000     61.438    0.33414    0.26453E-01
 60.600     9.6000     62.592    0.26659    0.21105E-01
 60.600     9.6000     63.610    0.24143    0.19114E-01
 60.600     9.6000     64.772    0.18542    0.19771E-01
 60.600     9.6000     65.798    0.16164    0.14978E-01
 60.600     9.6000     67.022    0.16008    0.14834E-01
 60.600     9.6000     67.866    0.20421    0.14981E-01
 60.600     9.6000     69.034    0.15097    0.18233E-01
 60.600     9.6000     70.162    0.13851    0.12876E-01
 60.600     9.6000     71.089    0.11329    0.89356E-02
 60.600     9.6000     72.178    0.12735    0.83480E-02
 60.600     9.6000     73.261    0.14872    0.73653E-02
 60.600     9.6000     74.388    0.13644    0.11639E-01
 60.600     9.6000     75.504    0.13338    0.97849E-02
 60.600     9.6000     76.429    0.11049    0.94249E-02
 60.600     9.6000     77.544    0.10801    0.91867E-02
 60.600     9.6000     78.663    0.10426    0.88674E-02
 60.600     9.6000     79.558    0.10058    0.73532E-02
 77.300     4.4000     14.554     23.863
 77.300     4.4000     15.531     24.078
 77.300     4.4000     16.598     22.806
 77.300     4.4000     17.104     20.073
 77.300     4.4000     17.763     20.794
 77.300     4.4000     18.252     17.187
 77.300     4.4000     18.799     17.590
 77.300     4.4000     19.326     16.694
 77.300     4.4000     19.947     15.061
 77.300     4.4000     20.470     14.116
 77.300     4.4000     21.291     11.950
 77.300     4.4000     22.246     11.182
 77.300     4.4000     23.300     10.072
 77.300     4.4000     23.691     8.6485
 77.300     4.4000     24.650     8.1950
 77.300     4.4000     26.143     7.5575
 77.300     4.4000     27.186     6.5555
 77.300     4.4000     28.365     6.2854
 77.300     4.4000     29.665     6.3345
 77.300     4.4000     31.730     6.5282
 77.300     4.4000     32.936     6.9211
 77.300     4.4000     35.307     6.6904
 77.300     4.4000     36.496     6.6611
 77.300     4.4000     37.773     6.1478
 77.300     4.4000     38.850     6.0469
 77.300     4.4000     39.785     5.2473
 77.300     4.4000     40.863     5.1612
 77.300     4.4000     42.024     4.6471
 77.300     4.4000     43.226     3.2530
 77.300     4.4000     46.295     2.5326
 77.300     4.4000     47.548     2.1406
 77.300     4.4000     48.591     1.8568
 77.300     4.4000     49.739     1.5899
 77.300     4.4000     50.890     1.3785
 77.300     4.4000     51.954     1.2894
 77.300     4.4000     53.122     1.1905
 77.300     4.4000     54.186     1.1136
 77.300     4.4000     55.358     1.0412
 77.300     4.4000     56.422    0.97389
 77.300     4.4000     57.496    0.94593
 77.300     4.4000     58.779    0.89526
 77.300     4.4000     59.715    0.77688
 77.300     4.4000     60.893    0.74486
 77.300     4.4000     61.940    0.65428
 77.300     4.4000     62.879    0.57495
 77.300     4.4000     64.057    0.55125
 77.300     4.4000     64.996    0.48441
 77.300     4.4000     66.130    0.39444
 77.300     4.4000     67.278    0.33774
 77.300     4.4000     68.223    0.30434
 77.300     4.4000     69.141    0.24801
 77.300     4.4000     70.387    0.20442
 77.300     4.4000     71.681    0.20091
 77.300     4.4000     72.609    0.17001
 77.300     4.4000     73.541    0.14569
 77.300     4.4000     74.570    0.12018
 77.300     4.4000     75.721    0.10420
 77.300     4.4000     76.782    0.96252E-01
 77.300     4.4000     77.738    0.90066E-01
 77.300     4.4000     78.771    0.75235E-01
 77.300     4.4000     79.814    0.65260E-01
 77.300     4.4000     81.020    0.69189E-01
 77.300     7.6000     18.019    0.31221    0.11822
 77.300     7.6000     19.131    0.34803    0.96750E-01
 77.300     7.6000     20.458    0.57158    0.12672
 77.300     7.6000     22.014    0.44795    0.81272E-01
 77.300     7.6000     22.669    0.45821    0.83282E-01
 77.300     7.6000     23.142    0.24148    0.67130E-01
 77.300     7.6000     24.057    0.42819    0.86349E-01
 77.300     7.6000     27.190    0.28350    0.73624E-01
 77.300     7.6000     29.658    0.38907    0.70589E-01
 77.300     7.6000     30.752    0.40741    0.78063E-01
 77.300     7.6000     32.996    0.24791    0.75511E-01
 77.300     7.6000     34.896    0.30843    0.29379E-01
 77.300     7.6000     35.177    0.39090    0.54498E-01
 77.300     7.6000     36.387    0.41953    0.67553E-01
 77.300     7.6000     36.693    0.58036    0.55280E-01
 77.300     7.6000     37.820    0.46130    0.69250E-01
 77.300     7.6000     38.796    0.46543    0.59685E-01
 77.300     7.6000     39.954    0.41404    0.53095E-01
 77.300     7.6000     40.642    0.32148    0.55118E-01
 77.300     7.6000     41.150    0.42267    0.40108E-01
 77.300     7.6000     42.207    0.38569    0.36737E-01
 77.300     7.6000     43.121    0.31067    0.36648E-01
 77.300     7.6000     46.254    0.20569    0.31087E-01
 77.300     7.6000     47.453    0.21262    0.22720E-01
 77.300     7.6000     48.611    0.18915    0.20144E-01
 77.300     7.6000     49.658    0.16624    0.15894E-01
 77.300     7.6000     50.931    0.15157    0.16088E-01
 77.300     7.6000     51.995    0.14181    0.16629E-01
 77.300     7.6000     53.117    0.16413    0.13764E-01
 77.300     7.6000     54.417    0.16540    0.13931E-01
 77.300     7.6000     55.450    0.13827    0.13170E-01
 77.300     7.6000     56.287    0.12470    0.10503E-01
 77.300     7.6000     57.560    0.11370    0.12109E-01
 77.300     7.6000     58.634    0.11045    0.10480E-01
 77.300     7.6000     59.559    0.92367E-010.98701E-02
 77.300     7.6000     60.724    0.84251E-010.80554E-02
 77.300     7.6000     61.645    0.69583E-010.73859E-02
 77.300     7.6000     62.133    0.84870E-010.80840E-02
 77.300     7.6000     62.776    0.56004E-010.78273E-02
 77.300     7.6000     63.934    0.49821E-010.52451E-02
 77.300     7.6000     64.973    0.42704E-010.56919E-02
 77.300     7.6000     66.288    0.45244E-010.53929E-02
 77.300     7.6000     67.164    0.31758E-010.70389E-02
 77.300     7.6000     68.106    0.28274E-010.41720E-02
 77.300     7.6000     69.399    0.27789E-010.49085E-02
 77.300     7.6000     70.355    0.26010E-010.46065E-02
 77.300     7.6000     72.555    0.29611E-010.26976E-02
 77.300     7.6000     73.198    0.19540E-010.20571E-02
 77.300     7.6000     73.800    0.24426E-010.25716E-02
 77.300     7.6000     74.739    0.21476E-010.22516E-02
 77.300     7.6000     75.823    0.21660E-010.22899E-02
 77.300     7.6000     76.766    0.13079E-010.25040E-02
 77.300     7.6000     77.962    0.13352E-010.15855E-02
 77.300     7.6000     78.932    0.13138E-010.12084E-02
 77.300     7.6000     80.019    0.13418E-010.14185E-02
 77.300     7.6000     81.114    0.14050E-010.12922E-02
 77.300     9.6000     14.421     2.3983
 77.300     9.6000     15.397     2.4200
 77.300     9.6000     15.772     2.9171
 77.300     9.6000     16.465     3.4252
 77.300     9.6000     17.293     2.9748
 77.300     9.6000     17.810     4.0630
 77.300     9.6000     18.309     3.4888
 77.300     9.6000     19.512     3.6524
 77.300     9.6000     20.509     3.9732
 77.300     9.6000     21.302     4.5481
 77.300     9.6000     22.363     4.2021
 77.300     9.6000     23.437     4.0820
 77.300     9.6000     23.927     3.3758
 77.300     9.6000     25.363     3.7597
 77.300     9.6000     26.288     3.1435
 77.300     9.6000     27.481     3.1694
 77.300     9.6000     28.508     2.5834
 77.300     9.6000     29.798     2.5076
 77.300     9.6000     31.926     2.1949
 77.300     9.6000     33.196     1.9762
 77.300     9.6000     35.277     1.4514
 77.300     9.6000     36.692     1.4994
 77.300     9.6000     37.739     1.3176
 77.300     9.6000     39.060     1.4316
 77.300     9.6000     39.871     1.1678
 77.300     9.6000     40.928     1.0655
 77.300     9.6000     42.347     1.1146
 77.300     9.6000     43.269    0.92034
 77.300     9.6000     46.407    0.61674
 77.300     9.6000     47.549    0.51526
 77.300     9.6000     48.843    0.50645
 77.300     9.6000     49.765    0.41818
 77.300     9.6000     50.927    0.37665
 77.300     9.6000     52.068    0.31468
 77.300     9.6000     53.315    0.25952
 77.300     9.6000     54.473    0.23084
 77.300     9.6000     55.426    0.21336
 77.300     9.6000     56.574    0.18278
 77.300     9.6000     57.652    0.17980
 77.300     9.6000     58.794    0.15021
 77.300     9.6000     59.831    0.12713
 77.300     9.6000     61.023    0.12818
 77.300     9.6000     61.945    0.10584
 77.300     9.6000     63.026    0.10542
 77.300     9.6000     64.060    0.88110E-01
 77.300     9.6000     65.175    0.66589E-01
 77.300     9.6000     65.445    0.81311E-01
 77.300     9.6000     66.590    0.68789E-01
 77.300     9.6000     67.695    0.74802E-01
 77.300     9.6000     68.387    0.58790E-01
 77.300     9.6000     69.782    0.56333E-01
 77.300     9.6000     70.745    0.54063E-01
 77.300     9.6000     72.751    0.45026E-01
 77.300     9.6000     74.008    0.38557E-01
 77.300     9.6000     75.068    0.35623E-01
 77.300     9.6000     75.980    0.28329E-01
 77.300     9.6000     77.041    0.26174E-01
 77.300     9.6000     78.102    0.24183E-01
 77.300     9.6000     79.156    0.21790E-01
 77.300     9.6000     80.227    0.20904E-01
 77.300     9.6000     85.540    0.14613E-01
 77.300      14.080    19.073    0.43129    0.88728E-01
 77.300      14.080    21.829    0.34967    0.72102E-01
 77.300      14.080    22.975    0.44143    0.51914E-01
 77.300      14.080    23.323    0.48113    0.40398E-01
 77.300      14.080    23.665    0.51149    0.54489E-01
 77.300      14.080    24.762    0.36367    0.58712E-01
 77.300      14.080    25.786    0.43693    0.65544E-01
 77.300      14.080    27.438    0.48596    0.83074E-01
 77.300      14.080    28.347    0.56970    0.78996E-01
 77.300      14.080    34.041    0.33030    0.59752E-01
 77.300      14.080    35.218    0.21246    0.36320E-01
 77.300      14.080    37.466    0.28792    0.40021E-01
 77.300      14.080    38.564    0.30524    0.35897E-01
 77.300      14.080    39.778    0.15104    0.31914E-01
 77.300      14.080    41.066    0.21592    0.30086E-01
 77.300      14.080    42.113    0.18985    0.26518E-01
 77.300      14.080    49.826    0.96440E-010.11308E-01
 77.300      14.080    51.281    0.77586E-010.82379E-02
 77.300      14.080    51.973    0.61048E-010.78262E-02
 77.300      14.080    52.970    0.66381E-010.78067E-02
 77.300      14.080    54.097    0.52804E-010.79211E-02
 77.300      14.080    55.114    0.41499E-010.53201E-02
 77.300      14.080    56.249    0.50465E-010.42372E-02
 77.300      14.080    57.819    0.41608E-010.53198E-02
 77.300      14.080    58.870    0.37044E-010.51618E-02
 77.300      14.080    59.985    0.41800E-010.49013E-02
 77.300      14.080    60.958    0.41652E-010.53539E-02
 77.300      14.080    62.062    0.45273E-010.48070E-02
 77.300      14.080    63.207    0.38330E-010.49007E-02
 77.300      14.080    64.240    0.32062E-010.33641E-02
 77.300      14.080    65.572    0.36150E-010.37930E-02
 77.300      14.080    66.679    0.26683E-010.31814E-02
 77.300      14.080    67.662    0.27602E-010.32667E-02
 77.300      14.080    68.533    0.28210E-010.33511E-02
 77.300      14.080    69.902    0.36484E-010.46646E-02
 77.300      14.080    70.702    0.28696E-010.27147E-02
 77.300      14.080    71.695    0.30816E-010.29373E-02
 77.300      14.080    72.897    0.21630E-010.25363E-02
 77.300      14.080    73.876    0.14820E-010.20600E-02
 77.300      14.080    74.943    0.14043E-010.25405E-02
 77.300      14.080    75.946    0.15656E-010.23433E-02
 77.300      14.080    77.064    0.11996E-010.15379E-02
 77.300      14.080    77.965    0.91995E-020.15666E-02
 77.300      14.080    78.957    0.66256E-020.11326E-02
 77.300      14.080    81.213    0.62512E-020.10015E-02
 90.000     4.4000     15.212     1.8791
 90.000     4.4000     16.244     1.7032
 90.000     4.4000     17.359     1.6895
 90.000     4.4000     17.631     1.4499
 90.000     4.4000     18.495     1.1113
 90.000     4.4000     19.955     1.0623
 90.000     4.4000     20.836    0.77348
 90.000     4.4000     22.107    0.66664
 90.000     4.4000     23.275    0.55974
 90.000     4.4000     24.436    0.48219
 90.000     4.4000     25.612    0.55815
 90.000     4.4000     26.698    0.42821
 90.000     4.4000     27.961    0.37865
 90.000     4.4000     29.023    0.44374
 90.000     4.4000     30.269    0.41304
 90.000     4.4000     31.458    0.46006
 90.000     4.4000     32.479    0.43334
 90.000     4.4000     33.573    0.45832
 90.000     4.4000     34.815    0.43211
 90.000     4.4000     35.947    0.40720
 90.000     4.4000     37.070    0.39370
 90.000     4.4000     38.119    0.33900
 90.000     4.4000     39.456    0.33659
 90.000     4.4000     40.624    0.28262
 90.000     4.4000     41.669    0.24649
 90.000     4.4000     42.714    0.21498
 90.000     4.4000     43.994    0.18059
 90.000     4.4000     45.055    0.14963
 90.000     4.4000     46.232    0.12245
 90.000     4.4000     47.269    0.10957
 90.000     4.4000     48.425    0.95611E-01
 90.000     4.4000     49.709    0.79294E-01
 90.000     4.4000     50.507    0.74617E-01
 90.000     4.4000     51.646    0.68536E-01
 90.000     4.4000     52.876    0.67151E-01
 90.000     4.4000     53.925    0.57820E-01
 90.000     4.4000     55.263    0.57410E-01
 90.000     4.4000     56.394    0.54101E-01
 90.000     4.4000     57.196    0.50262E-01
 90.000     4.4000     58.385    0.39581E-01
 90.000     4.4000     59.517    0.37300E-01
 90.000     4.4000     61.356    0.31008E-01
 90.000     4.4000     62.557    0.23497E-01
 90.000     4.4000     63.491    0.20483E-01
 90.000     4.4000     64.083    0.18294E-01
 90.000     4.4000     65.729    0.13889E-01
 90.000     4.4000     67.844    0.97825E-02
 90.000     4.4000     69.958    0.68901E-02
 90.000     4.4000     72.147    0.54492E-02
 90.000     4.4000     73.110    0.43425E-02
 90.000     4.4000     74.464    0.40961E-02
 90.000     4.4000     80.733    0.25499E-02
 90.000     4.4000     82.725    0.18655E-02
 90.000     7.6000     16.575    0.22699    0.17711
 90.000     7.6000     18.845    0.27913    0.15658
 90.000     7.6000     21.194    0.26764    0.14490
 90.000     7.6000     23.438    0.17767    0.13863
 90.000     7.6000     24.702    0.15670    0.16146
 90.000     7.6000     25.808    0.15955    0.13588
 90.000     7.6000     29.486    0.15592    0.11791
 90.000     7.6000     30.555    0.17862    0.11519
 90.000     7.6000     31.884    0.18204    0.70522E-01
 90.000     7.6000     32.729    0.29686    0.69386E-01
 90.000     7.6000     33.951    0.29848    0.74250E-01
 90.000     7.6000     35.103    0.26313    0.57278E-01
 90.000     7.6000     36.321    0.26805    0.41689E-01
 90.000     7.6000     36.929    0.32294    0.55146E-01
 90.000     7.6000     37.494    0.22132    0.34297E-01
 90.000     7.6000     38.530    0.28155    0.39398E-01
 90.000     7.6000     39.595    0.32678    0.36097E-01
 90.000     7.6000     40.751    0.14189    0.30801E-01
 90.000     7.6000     41.975    0.20063    0.31090E-01
 90.000     7.6000     43.123    0.17920    0.30601E-01
 90.000     7.6000     44.215    0.13494    0.31457E-01
 90.000     7.6000     45.267    0.16289    0.22794E-01
 90.000     7.6000     46.330    0.13443    0.16818E-01
 90.000     7.6000     47.572    0.12660    0.12155E-01
 90.000     7.6000     48.666    0.13407    0.14882E-01
 90.000     7.6000     49.804    0.87406E-010.12231E-01
 90.000     7.6000     50.799    0.88952E-010.11128E-01
 90.000     7.6000     51.979    0.10195    0.15856E-01
 90.000     7.6000     53.138    0.62255E-010.87114E-02
 90.000     7.6000     54.221    0.48121E-010.67338E-02
 90.000     7.6000     55.202    0.72578E-010.90795E-02
 90.000     7.6000     56.478    0.61548E-010.77338E-02
 90.000     7.6000     57.528    0.52830E-010.89910E-02
 90.000     7.6000     58.666    0.34444E-010.48391E-02
 90.000     7.6000     59.900    0.33296E-010.72479E-02
 90.000     7.6000     61.424    0.26128E-010.40637E-02
 90.000     7.6000     62.786    0.23981E-010.52201E-02
 90.000     7.6000     63.955    0.20062E-010.37237E-02
 90.000     7.6000     64.353    0.11585E-010.17952E-02
 90.000     7.6000     66.159    0.10654E-010.23128E-02
 90.000     7.6000     68.244    0.11633E-010.43045E-02
 90.000     7.6000     70.388    0.10575E-010.13288E-02
 90.000     7.6000     72.496    0.75898E-020.11804E-02
 90.000     7.6000     73.588    0.57151E-020.13358E-02
 90.000     7.6000     74.749    0.49080E-020.76334E-03
 90.000     7.6000     81.179    0.18395E-020.68064E-03
 90.000     7.6000     85.379    0.99858E-030.35169E-03
 90.000     9.6000     15.466     2.5055    0.38327
 90.000     9.6000     17.590     2.4338    0.26426
 90.000     9.6000     18.684     3.5894    0.43034
 90.000     9.6000     20.247     3.5230    0.38406
 90.000     9.6000     21.319     3.9715    0.43122
 90.000     9.6000     22.528     2.9752    0.28896
 90.000     9.6000     23.724     3.2295    0.31508
 90.000     9.6000     24.831     2.3572    0.30893
 90.000     9.6000     26.074     2.2233    0.31684
 90.000     9.6000     27.159     1.7297    0.24650
 90.000     9.6000     28.248     1.8529    0.22214
 90.000     9.6000     29.376     1.7692    0.23263
 90.000     9.6000     30.572     1.3772    0.22547
 90.000     9.6000     31.682    0.99241    0.10819
 90.000     9.6000     32.823    0.91200    0.12424
 90.000     9.6000     34.147    0.94111    0.10124
 90.000     9.6000     35.275    0.89863    0.13605
 90.000     9.6000     36.291    0.85765    0.92258E-01
 90.000     9.6000     37.603    0.91959    0.98421E-01
 90.000     9.6000     38.543    0.79203    0.74491E-01
 90.000     9.6000     39.884    0.77661    0.72625E-01
 90.000     9.6000     40.952    0.63588    0.68056E-01
 90.000     9.6000     42.092    0.58435    0.46537E-01
 90.000     9.6000     43.284    0.46070    0.49558E-01
 90.000     9.6000     44.356    0.37243    0.40265E-01
 90.000     9.6000     45.501    0.33791    0.26911E-01
 90.000     9.6000     46.676    0.28037    0.30160E-01
 90.000     9.6000     47.726    0.24160    0.22593E-01
 90.000     9.6000     48.914    0.19292    0.18041E-01
 90.000     9.6000     50.080    0.16421    0.12991E-01
 90.000     9.6000     51.152    0.13275    0.10572E-01
 90.000     9.6000     52.263    0.13340    0.18247E-01
 90.000     9.6000     53.313    0.82433E-010.88226E-02
 90.000     9.6000     54.347    0.10425    0.11270E-01
 90.000     9.6000     55.710    0.95894E-010.89675E-02
 90.000     9.6000     56.714    0.68193E-010.63771E-02
 90.000     9.6000     57.525    0.61782E-010.87784E-02
 90.000     9.6000     57.888    0.78903E-010.73786E-02
 90.000     9.6000     58.982    0.59839E-010.64369E-02
 90.000     9.6000     59.836    0.47713E-010.58118E-02
 90.000     9.6000     60.220    0.40994E-010.44512E-02
 90.000     9.6000     62.092    0.43503E-010.42444E-02
 90.000     9.6000     63.271    0.49697E-010.53459E-02
 90.000     9.6000     64.291    0.33581E-010.44154E-02
 90.000     9.6000     66.328    0.15530E-010.28137E-02
 90.000     9.6000     68.495    0.18515E-010.36356E-02
 90.000     9.6000     73.847    0.91446E-020.22229E-02
 90.000     9.6000     79.349    0.56172E-020.93032E-03
 90.000     9.6000     84.551    0.31108E-020.61083E-03
 90.000     9.6000     85.568    0.41401E-020.68805E-03
 90.000     9.6000     87.610    0.18904E-020.45952E-03
ENDDATA            538
ENDSUBENT          545
ENDENTRY             3
