ENTRY            D0287   20050315   20050810                  D040
SUBENT        D0287001   20050315   20050810                  D040
BIB                 10         25
TITLE      Angular Distributions for the 160Gd(d,t)159Gd Reaction
AUTHOR     (M.Jaskola, K.Nybo, P.O.Tjom, B.Elbek)
INSTITUTE  (2DENNBI)
REFERENCE  (J,NP/A,96,52,1967)
FACILITY   (VDGT)
METHOD     (EDE)
SAMPLE     Samples of 160Gd, isotopically enriched to 94 %, were
           provided as oxides from the and were reduced by
           lanthanum to gadolinium metal. The metal was then
           evaporated in vacuo onto thin carbon foils to produce
           targets with a thickness of approx. 200 mu-g/cm2.
DETECTOR   (TELES,SOLST,SOLST) The first measurements of the
           triton angular distributions were performed by means
           of a solid-state counter telescope consisting of a
           200mu-m thick dE counter and a 2000mu-m thick E counter
           (PLATE) The measurements were continued in a single-gap
           magnetic spectrograph with photographic plate recording
           The total charge for each exposure was measured by a
           Faraday cup and, simultaneously, a solid-state detector
           was used to monitor the intensity of scattered
           deuterons at 45. degr.
COMMENT    The data are given in arb. units, but authors gave
           table for normalization these data to micro-b/sr.
           These data are given at SUBENT 002.
HISTORY    (20050315C) SD
ENDBIB              25
COMMON               1          3
EN
MEV
  12.1
ENDCOMMON            3
ENDSUBENT           32
SUBENT        D0287002   20050315   20050810                  D040
BIB                  3          3
REACTION   (64-GD-160(D,T)64-GD-159,PAR,DA)
EN-SEC     (E-LVL,64-GD-159)
STATUS     (TABLE)Table 1 from the article
ENDBIB               3
COMMON               1          3
ANG
ADEG
  90.
ENDCOMMON            3
DATA                 2         18
E-LVL      DATA
MEV        MU-B/SR
  0.0        191.
  0.120      219.
  0.146       27.
  0.184       86.
  0.226      118.
  0.327       25.
  0.371       71.
  0.455       18.
  0.506       80.
  0.681      102.
  0.704       26.
  0.743      613.
  0.780      195.
  0.973      584.
  0.999      114.
  1.109       54.
  1.143      219.
  1.960      104.
ENDDATA             20
ENDSUBENT           32
SUBENT        D0287003   20050315   20050810                  D040
BIB                  5          8
REACTION   (64-GD-160(D,T)64-GD-159,PAR,DA,,REL)
EN-SEC     (E-LVL,64-GD-159)
ERR-ANALYS (ANG-ERR-D)  Digitizing error
           (ERR-DIG)    Digitizing error
           (ERR-S)  Statistical error
FLAG       (1.) The measurements were performed by means
           of a solid-state counter telescope.
STATUS     (CURVE) Curves from figs. 2-8
ENDBIB               8
COMMON               2          3
ANG-ERR-D  ERR-DIG
ADEG       PER-CENT
  0.7        0.3
ENDCOMMON            3
DATA                 5        274
E-LVL      ANG-CM     DATA-CM    ERR-S      FLAG
KEV        ADEG       ARB-UNITS  ARB-UNITS  NO-DIM
 0.0000     5.2520     147.98     11.856
 0.0000     10.723     218.00     17.466
 0.0000     16.190     338.69     24.760
 0.0000     41.029     599.18     48.005     1.0000
 0.0000     60.967     824.95     48.611
 0.0000     70.806     776.68     34.574     1.0000
 0.0000     70.814     682.64     35.330
 0.0000     76.024     647.46     42.768     1.0000
 0.0000     80.946     604.84     48.457     1.0000
 0.0000     85.869     552.29     40.376     1.0000
 0.0000     90.797     474.60     27.972     1.0000
 0.0000     100.65     355.82     23.500     1.0000
 0.0000     105.87     294.38     27.665
 0.0000     110.50     277.09     16.324     1.0000
 0.0000     120.35     231.04     20.117     1.0000
 0.0000     125.28     198.54     18.658
 0.0000     130.20     173.22     13.878     1.0000
 0.0000     149.90     114.19     16.086
 0.0000     150.17     152.38     17.429     1.0000
 0.0000     160.29     151.30     19.323     1.0000
 120.00     10.698     38.724     9.1190
 120.00     15.754     47.720     12.134
 120.00     36.025     388.28     24.225
 120.00     40.200     467.97     27.419
 120.00     49.920     615.81     40.604
 120.00     59.868     745.69     48.969
 120.00     59.972     860.66     56.519     1.0000
 120.00     69.865     647.72     50.777
 120.00     74.762     641.29     29.611     1.0000
 120.00     79.954     639.64     39.810     1.0000
 120.00     84.764     561.25     25.999     1.0000
 120.00     89.711     594.74     34.846
 120.00     99.549     415.05     22.517     1.0000
 120.00     104.42     395.71     25.986
 120.00     109.00     374.49     16.631     1.0000
 120.00     118.98     320.42     14.843     1.0000
 120.00     123.78     276.94     18.186
 120.00     128.92     258.09     16.948     1.0000
 120.00     148.22     166.23     22.228
 120.00     148.30     183.37     14.375     1.0000
 120.00     158.12     186.66     16.187     1.0000
 146.00     30.731     229.23     49.322
 146.00     35.986     250.42     52.194
 146.00     41.019     301.90     52.045
 146.00     50.805     445.53     76.669
 146.00     61.002     512.06     70.299
 146.00     71.005     438.12     75.565
 146.00     90.816     370.38     66.151
 146.00     105.34     177.90     40.357
 146.00     125.09     136.30     41.356
 146.00     149.70     62.749     26.825
 184.00     20.557     2.7068     1.4320
 184.00     26.033     9.1250     2.7735
 184.00     30.822     21.209     4.2332
 184.00     36.006     39.568     6.1317
 184.00     41.025     57.037     7.3572
 184.00     50.937     84.249     8.0256
 184.00     60.876     118.01     10.265
 184.00     71.007     110.59     11.148
 184.00     90.960     101.65     10.246
 184.00     105.59     67.304     8.1456
 184.00     125.38     47.076     6.3203
 184.00     149.90     26.268     4.3707
 226.00     9.8791     1.7010    0.77978
 226.00     14.962     2.1768    0.95033
 226.00     20.216     5.2518     1.0906
 226.00     25.029     10.259     1.6715
 226.00     30.069     18.440     2.7027
 226.00     35.186     24.691     3.4593
 226.00     40.041     34.337     2.9731
 226.00     49.407     41.278     3.8683
 226.00     59.426     55.136     4.3925
 226.00     69.183     51.266     4.4456
 226.00     89.095     51.535     4.1056
 226.00     103.51     34.036     3.8716
 226.00     123.35     20.788     2.9125
 226.00     148.02     17.132     2.1763
 327.00     30.422     1.3208    0.99444
 327.00     40.473     2.2559     1.3542
 327.00     50.767     6.4539     2.0253
 327.00     60.553     10.612     2.8949
 327.00     70.384     10.419     2.8995
 327.00     90.403     22.104     3.6190
 327.00     105.24     18.832     3.2472
 327.00     125.04     14.460     2.8856
 327.00     150.13     15.420     3.2155
 371.00     19.639     1.5884     1.4566
 371.00     24.861     1.6985     1.5085
 371.00     29.924     2.7537     1.8878
 371.00     34.608     8.4945     3.5364
 371.00     40.117     22.863     5.6098
 371.00     49.946     58.750     8.0687
 371.00     59.661     104.99     10.845
 371.00     69.499     109.64     11.333
 371.00     89.221     139.09     14.923
 371.00     104.24     134.51     15.337
 371.00     124.08     99.714     12.041
 371.00     148.55     75.541     11.098
 455.00     20.651     17.861     10.939
 455.00     30.643     21.360     11.801
 455.00     40.508     31.109     16.867
 455.00     50.749     61.843     24.357
 455.00     60.599     92.143     30.498
 455.00     70.723     89.795     21.236
 455.00     90.487     180.63     24.821
 455.00     105.18     190.28     29.482
 455.00     125.26     235.62     30.387
 455.00     149.93     195.60     28.628
 506.00     5.7129     10.702     1.5670
 506.00     10.314     16.251     2.2892
 506.00     15.214     21.041     2.9640
 506.00     20.414     23.229     2.5004
 506.00     25.044     22.884     2.3071
 506.00     30.235     28.963     3.0046
 506.00     35.128     42.023     4.3589
 506.00     40.029     53.999     4.7030
 506.00     50.144     61.934     4.8849
 506.00     59.980     61.028     4.3163
 506.00     69.530     56.590     4.9262
 506.00     89.806     37.308     3.7618
 506.00     104.01     21.943     2.9471
 506.00     123.73     10.358     1.8552
 506.00     148.63     7.7121     1.7091
 681.00     11.144     160.39     30.555
 681.00     15.920     126.10     27.476
 681.00     20.936     106.96     23.306
 681.00     25.918     95.675     22.627
 681.00     30.606     86.218     23.687
 681.00     35.861     123.43     28.037
 681.00     40.931     150.67     35.115
 681.00     50.839     320.63     53.375
 681.00     60.733     446.21     56.971
 681.00     70.725     533.62     64.588
 681.00     90.612     888.09     107.49
 681.00     105.26     645.17     78.089
 681.00     125.58     855.42     109.31
 681.00     150.10     569.88     76.451
 704.00     20.216     3.7779     1.2976
 704.00     25.120     5.8032     2.3869
 704.00     30.295     13.414     3.1680
 704.00     35.322     16.049     3.4924
 704.00     40.299     17.803     3.7106
 704.00     50.055     25.107     4.3244
 704.00     59.969     29.079     4.5009
 704.00     69.883     33.680     4.9198
 704.00     89.356     26.401     4.3875
 704.00     104.54     22.029     4.4741
 704.00     124.05     18.346     4.3767
 704.00     148.80     10.439     2.8432
 743.00     5.2061     9.9974     1.2002
 743.00     10.723     18.751     2.3851
 743.00     15.742     28.889     2.7057
 743.00     20.475     44.171     3.8300
 743.00     25.523     63.100     5.0295
 743.00     30.571     90.140     5.2889
 743.00     35.387     111.53     6.5442
 743.00     40.228     129.91     5.7500
 743.00     40.489     139.06     9.7773     1.0000
 743.00     50.387     226.20     11.640     1.0000
 743.00     60.415     263.83     10.161
 743.00     70.201     274.72     10.189     1.0000
 743.00     75.166     232.95     13.668     1.0000
 743.00     80.352     235.04     13.791     1.0000
 743.00     85.252     235.36     13.809     1.0000
 743.00     90.431     241.09     12.442     1.0000
 743.00     99.727     201.60     8.9384     1.0000
 743.00     105.01     158.51     7.3540
 743.00     109.95     144.96     5.3651     1.0000
 743.00     120.04     143.18     6.3587     1.0000
 743.00     124.98     129.95     8.5459
 743.00     129.60     128.16     6.5951     1.0000
 743.00     139.46     108.82     6.3768     1.0000
 743.00     149.65     85.673     4.4150
 743.00     149.89     97.428     5.0208     1.0000
 743.00     159.66     104.56     4.6361     1.0000
 780.00     5.6978     9.8305    0.57442
 780.00     10.695     6.3961    0.50803
 780.00     15.594     3.1989    0.38374
 780.00     20.724     2.9633    0.37520
 780.00     25.621     3.1667    0.35886
 780.00     30.719     5.8143    0.40651
 780.00     35.476     9.1860    0.79185
 780.00     40.729     11.845    0.83003
 780.00     50.845     14.915    0.65670
 780.00     60.585     14.766    0.68123
 780.00     70.052     15.180    0.55995
 780.00     89.168     12.147    0.79457
 780.00     104.79     8.4332    0.66869
 780.00     124.39     5.3045    0.34699
 780.00     148.99     4.7089    0.50242
 973.00     5.6531     190.04
 973.00     10.033     109.65
 973.00     14.915     52.423     4.8804
 973.00     19.893     32.360     3.6670
 973.00     24.941     51.896     4.4763
 973.00     29.804     109.10     5.0331
 973.00     34.858     177.61     7.8326
 973.00     39.855     248.79     9.5285
 973.00     49.662     295.00     13.009     1.0000
 973.00     59.408     296.48                1.0000
 973.00     59.677     283.39
 973.00     64.282     298.35     13.787     1.0000
 973.00     69.237     373.35     16.465     1.0000
 973.00     69.445     302.46     13.317
 973.00     74.339     320.81                1.0000
 973.00     79.187     301.71     11.129     1.0000
 973.00     83.446     271.27     10.006     1.0000
 973.00     88.868     255.08                1.0000
 973.00     88.885     266.85
 973.00     98.282     227.33     8.3854     1.0000
 973.00     103.64     181.18     9.2995
 973.00     108.52     183.69     8.0878     1.0000
 973.00     118.21     161.25     5.9481     1.0000
 973.00     123.04     144.96     6.3928
 973.00     127.91     142.62     5.4623     1.0000
 973.00     138.17     121.47     5.6133     1.0000
 973.00     147.61     117.59     5.4247     1.0000
 973.00     147.85     102.70     6.7179
 973.00     158.21     116.39     5.3784     1.0000
 999.00     5.4384     1.2890    0.24594
 999.00     10.222     1.7332    0.45780
 999.00     15.488     1.4260    0.34788
 999.00     20.509     2.1805    0.48121
 999.00     25.269     3.1146    0.51671
 999.00     30.347     4.1255    0.60549
 999.00     35.506     4.4556    0.65395
 999.00     40.587     5.8572    0.60474
 999.00     50.499     9.1739    0.94639
 999.00     60.189     12.166     1.3858
 999.00     70.010     11.570     1.1609
 999.00     90.421     13.330     1.2485
 999.00     104.67     9.7417     1.0435
 999.00     125.15     9.5043    0.82410
 999.00     150.16     5.4281    0.58219
 1109.0     5.2866     1.0405    0.24645
 1109.0     9.8662     2.1900    0.35909
 1109.0     14.785     2.1575    0.39224
 1109.0     19.990     2.1910    0.37869
 1109.0     24.901     2.4373    0.39963
 1109.0     29.792     3.6454    0.46560
 1109.0     34.696     4.4418    0.47807
 1109.0     39.882     6.1113    0.61613
 1109.0     50.004     6.3506    0.71223
 1109.0     59.829     7.3952    0.69499
 1109.0     69.665     7.1772    0.82092
 1109.0     89.646     5.1437    0.69091
 1109.0     104.41     4.3886    0.61822
 1109.0     124.39     3.2422    0.47474
 1109.0     149.02     1.7024    0.38729
 1143.0     5.3586     28.930     2.2818
 1143.0     10.534     47.039     4.4859
 1143.0     15.143     62.782     4.9518
 1143.0     20.350     62.322     4.9155
 1143.0     25.263     66.239     6.2250
 1143.0     30.446     95.384     8.3054
 1143.0     35.343     130.24     8.6015
 1143.0     40.536     162.35     9.5668
 1143.0     50.359     193.41     8.6123
 1143.0     60.186     216.84     11.222
 1143.0     70.024     207.27     12.211
 1143.0     89.997     167.73     9.8838
 1143.0     104.48     130.65     7.6984
 1143.0     124.47     74.561     7.0071
 1143.0     149.35     67.118     6.3076
 1960.0     26.292     107.33     24.384
 1960.0     31.139     121.37     23.124
 1960.0     36.179     167.17     28.837
 1960.0     41.264     210.23     32.556
 1960.0     51.045     408.00     52.054
 1960.0     60.936     630.70     46.112
 1960.0     71.035     632.81     44.628
 1960.0     90.871     741.32     59.390
 1960.0     125.49     749.89     60.076
 1960.0     150.43     584.26     62.864
ENDDATA            276
ENDSUBENT          293
ENDENTRY             3
