ENTRY            D4366   20220316   20220530   20220530       D136
SUBENT        D4366001   20220316   20220530   20220530       D136
BIB                  8         18
TITLE      Alpha scattering and alpha-induced reaction cross
           sections of 64Zn at low energies
AUTHOR     (A.Ornelas, P.Mohr, Gy.Gyurky, Z.Elekes, Zs.Fulop,
            Z.Halasz, G.G.Kiss, E.Somorjai, T.Szucs, M.P.Takacs,
            D.Galaviz, R.T.Guray, Z.Korkulu, N.Ozkan, C.Yalcin)
INSTITUTE  (3HUNDEB,2PRTLIS,2TUKKOC)
           (2GERGER) Diakonie-Klinikum, Schwaebisch Hall
REFERENCE  (J,PR/C,94,055807,2016)
           (J,PR/C,86,041601,2012) Decay data given
           (C,2014DEBREC,,131,2014) Preliminary data in fig
FACILITY   (CYCLO,3HUNDEB)
COMMENT    The centre-of-mass energy gives the effective energies
            calculated by taking into account the energy loss of
            the beam in the target.
STATUS     (APRVD) Approved by Peter Mohr (2017-06-09)
HISTORY    (20170509C) MPT
           (20170609A) On. Finalized with data from Peter Mohr.
           (20220316A) VT. Revision in 006
ENDBIB              18
NOCOMMON             0          0
ENDSUBENT           21
SUBENT        D4366002   20170609   20170703   20170627       D109
BIB                  7         11
REACTION   (30-ZN-64(A,P)31-GA-67,,SIG)
SAMPLE     Natural zinc evaporated onto Al foil backing
DETECTOR   (HPGE) A shielded HPGe detector with 100% relative
            efficiency
METHOD     (ACTIV)
DECAY-DATA (31-GA-67,3.26D,DG,184.6,0.2141,
                           DG,209.0,0.0246,
                           DG,300.2,0.1664,
                           DG,393.5,0.0456)
ERR-ANALYS (DATA-ERR) No information on the source of uncertainty
STATUS     (TABLE) Table 1 of Phys.Rev.C94(2016)055807
ENDBIB              11
NOCOMMON             0          0
DATA                 4          1
EN-CM      EN-ERR     DATA       DATA-ERR
MEV        MEV        MB         MB
 15.17      0.08       428.       50.
ENDDATA              3
ENDSUBENT           19
SUBENT        D4366003   20170609   20170703   20170627       D109
BIB                  7         10
REACTION   (30-ZN-64(A,N)32-GE-67,,SIG)
SAMPLE     Natural zinc evaporated onto Al foil backing
DETECTOR   (HPGE) A shielded HPGe detector with 100% relative
            efficiency
METHOD     (ACTIV)
DECAY-DATA (32-GE-67,18.9MIN,DG,167.0,0.8428,
                             DG,828.3,0.0299,
                             DG,1472.8,0.049)
ERR-ANALYS (DATA-ERR) No information on the source of uncertainty
STATUS     (TABLE) Table 1 of Phys.Rev.C94(2016)055807
ENDBIB              10
NOCOMMON             0          0
DATA                 4          1
EN-CM      EN-ERR     DATA       DATA-ERR
MEV        MEV        MB         MB
 15.17      0.08       240.       26.
ENDDATA              3
ENDSUBENT           18
SUBENT        D4366004   20170609   20170703   20170627       D109
BIB                  8         10
REACTION   (30-ZN-64(A,G)32-GE-68,,SIG)
DECAY-DATA (32-GE-68,270.93D)
           (31-GA-68,67.71MIN,DG,1077.3,0.0322)
RAD-DET    (31-GA-68,DG)
SAMPLE     Natural zinc evaporated onto Al foil backing
DETECTOR   (HPGE) A shielded HPGe detector with 100% relative
            efficiency
METHOD     (ACTIV)
ERR-ANALYS (DATA-ERR) No information on the source of uncertainty
STATUS     (TABLE) Table 1 of Phys.Rev.C94(2016)055807
ENDBIB              10
NOCOMMON             0          0
DATA                 4          1
EN-CM      EN-ERR     DATA       DATA-ERR
MEV        MEV        MB         MB
 15.17      0.08       0.71       0.14
ENDDATA              3
ENDSUBENT           18
SUBENT        D4366005   20170609   20170703   20170627       D109
BIB                  6         14
REACTION   (30-ZN-64(A,EL)30-ZN-64,,DA,,RTH)
SAMPLE     (30-ZN-64,ENR=0.9971)
           Enriched metallic 64Zn (~150 ug/cm2) onto C foil
            (40 ug/cm2 thick)
DETECTOR   (SI)
ERR-ANALYS (ERR-T) Total uncertainty propagated from
           (ERR-S,,4.) statistical uncertainty, dominant at
            backward angles with smaller cross sections  (<4%)
           (ERR-1) Absolute normalization              (~1.5%)
           (ERR-2,,2.) Angular calibration, dominant at forward
            angles because of the steep 1/sin**4(theta/2)
            Rutherford                                   (<2%)
STATUS     (TABLE) Fig.2 of Phys.Rev.C94(2016)055807
HISTORY    (20170608R) Data received from Peter Mohr
ENDBIB              14
COMMON               1          3
ERR-1
PER-CENT
 1.5
ENDCOMMON            3
DATA                 4        219
EN-CM      ANG-CM     DATA       ERR-T
MEV        ADEG       NO-DIM     NO-DIM
 11.29       21.23      9.848E-01  2.850E-02
 11.29       22.29      9.812E-01  2.737E-02
 11.29       23.35      9.895E-01  2.653E-02
 11.29       24.41      9.812E-01  2.576E-02
 11.29       25.46      9.763E-01  2.542E-02
 11.29       26.52      9.860E-01  2.502E-02
 11.29       27.58      9.772E-01  2.421E-02
 11.29       28.63      9.831E-01  2.420E-02
 11.29       29.69      9.922E-01  2.378E-02
 11.29       30.74      1.003E+00  2.362E-02
 11.29       31.80      1.013E+00  2.204E-02
 11.29       32.85      1.008E+00  2.363E-02
 11.29       33.90      1.028E+00  2.334E-02
 11.29       34.96      1.032E+00  2.347E-02
 11.29       36.01      1.042E+00  2.423E-02
 11.29       37.06      1.046E+00  2.401E-02
 11.29       38.11      1.033E+00  2.344E-02
 11.29       39.16      1.040E+00  2.404E-02
 11.29       40.21      1.059E+00  2.393E-02
 11.29       41.26      1.053E+00  2.366E-02
 11.29       42.32      1.076E+00  1.531E-02
 11.29       43.36      1.067E+00  2.080E-02
 11.29       44.41      1.071E+00  2.069E-02
 11.29       45.45      1.057E+00  2.019E-02
 11.29       46.50      1.064E+00  2.012E-02
 11.29       47.61      1.068E+00  1.944E-02
 11.29       48.59      1.067E+00  1.977E-02
 11.29       49.63      1.063E+00  1.959E-02
 11.29       50.67      1.059E+00  1.938E-02
 11.29       51.71      1.031E+00  1.865E-02
 11.29       52.80      1.024E+00  1.757E-02
 11.29       53.79      1.007E+00  1.998E-02
 11.29       54.83      1.003E+00  1.977E-02
 11.29       55.87      9.656E-01  1.895E-02
 11.29       56.90      9.648E-01  1.878E-02
 11.29       58.00      9.640E-01  1.796E-02
 11.29       58.98      9.481E-01  1.815E-02
 11.29       60.01      9.418E-01  1.804E-02
 11.29       61.04      9.197E-01  1.764E-02
 11.29       62.08      8.837E-01  1.668E-02
 11.29       63.14      8.775E-01  1.436E-02
 11.29       64.14      8.524E-01  1.456E-02
 11.29       65.17      8.226E-01  1.438E-02
 11.29       66.20      8.226E-01  1.430E-02
 11.29       67.23      8.011E-01  1.394E-02
 11.29       68.32      8.007E-01  1.954E-02
 11.29       69.28      7.667E-01  1.322E-02
 11.29       70.31      7.568E-01  1.321E-02
 11.29       71.33      7.412E-01  1.241E-02
 11.29       72.36      7.163E-01  1.208E-02
 11.29       73.40      7.130E-01  1.085E-02
 11.29       74.39      6.833E-01  1.254E-02
 11.29       75.41      6.785E-01  1.300E-02
 11.29       76.43      6.563E-01  1.256E-02
 11.29       77.45      6.428E-01  1.236E-02
 11.29       78.47      6.275E-01  1.210E-02
 11.29       79.48      6.162E-01  1.172E-02
 11.29       80.50      6.213E-01  1.206E-02
 11.29       81.51      5.981E-01  1.083E-02
 11.29       82.52      5.879E-01  1.077E-02
 11.29       83.54      5.795E-01  9.154E-03
 11.29       84.55      5.587E-01  1.034E-02
 11.29       85.56      5.594E-01  1.013E-02
 11.29       86.57      5.497E-01  1.011E-02
 11.29       87.57      5.543E-01  1.018E-02
 11.29       88.58      5.300E-01  9.799E-03
 11.29       89.59      5.129E-01  9.358E-03
 11.29       90.59      5.091E-01  9.346E-03
 11.29       91.59      4.986E-01  9.043E-03
 11.29       92.59      4.925E-01  9.036E-03
 11.29       93.59      4.771E-01  8.075E-03
 11.29       94.59      4.705E-01  1.007E-02
 11.29       95.59      4.430E-01  9.319E-03
 11.29       96.59      4.434E-01  9.493E-03
 11.29       97.58      4.445E-01  9.507E-03
 11.29       98.58      4.406E-01  9.422E-03
 11.29       99.57      4.206E-01  8.846E-03
 11.29      100.56      4.112E-01  8.763E-03
 11.29      101.56      4.049E-01  8.455E-03
 11.29      102.55      3.974E-01  8.452E-03
 11.29      103.54      3.902E-01  8.241E-03
 11.29      106.08      3.777E-01  9.310E-03
 11.29      108.55      3.572E-01  8.759E-03
 11.29      110.99      3.443E-01  8.324E-03
 11.29      112.83      3.275E-01  5.829E-03
 11.29      115.86      3.216E-01  9.786E-03
 11.29      118.29      3.085E-01  9.286E-03
 11.29      120.68      2.828E-01  7.933E-03
 11.29      123.11      2.768E-01  7.744E-03
 11.29      125.60      2.736E-01  7.386E-03
 11.29      128.01      2.748E-01  6.983E-03
 11.29      130.42      2.632E-01  8.043E-03
 11.29      132.85      2.599E-01  7.257E-03
 11.29      135.27      2.607E-01  7.740E-03
 11.29      137.62      2.629E-01  7.774E-03
 11.29      139.96      2.508E-01  9.116E-03
 11.29      142.35      2.536E-01  9.278E-03
 11.29      147.13      2.323E-01  9.422E-03
 11.29      149.50      2.428E-01  7.414E-03
 11.29      151.87      2.356E-01  7.915E-03
 11.29      154.25      2.265E-01  6.710E-03
 11.29      156.59      2.253E-01  8.824E-03
 11.29      158.95      2.334E-01  7.125E-03
 11.29      161.35      2.329E-01  8.743E-03
 11.29      163.62      2.500E-01  8.891E-03
 11.29      165.97      2.630E-01  1.109E-02
 11.29      168.35      2.819E-01  1.103E-02
 11.29      173.04      3.226E-01  9.556E-03
 11.29      175.38      3.354E-01  1.175E-02
 15.17       21.26      1.037E+00  3.036E-02
 15.17       22.29      1.078E+00  3.102E-02
 15.17       23.35      1.103E+00  3.145E-02
 15.17       24.41      1.117E+00  3.141E-02
 15.17       25.46      1.132E+00  3.050E-02
 15.17       26.58      1.084E+00  2.727E-02
 15.17       27.58      1.080E+00  2.763E-02
 15.17       28.63      1.062E+00  2.676E-02
 15.17       29.69      1.044E+00  2.571E-02
 15.17       30.74      1.024E+00  2.461E-02
 15.17       31.84      9.914E-01  2.204E-02
 15.17       32.85      9.834E-01  2.409E-02
 15.17       33.90      9.881E-01  2.484E-02
 15.17       34.95      9.592E-01  2.444E-02
 15.17       36.01      9.452E-01  2.304E-02
 15.17       37.12      9.040E-01  1.868E-02
 15.17       38.11      8.854E-01  2.100E-02
 15.17       39.16      8.625E-01  2.050E-02
 15.17       40.21      8.181E-01  1.923E-02
 15.17       41.26      7.950E-01  1.832E-02
 15.17       42.36      7.409E-01  1.477E-02
 15.17       43.36      7.153E-01  1.451E-02
 15.17       44.41      6.765E-01  1.361E-02
 15.17       45.45      6.523E-01  1.302E-02
 15.17       46.50      6.297E-01  1.246E-02
 15.17       47.60      5.886E-01  1.237E-02
 15.17       48.59      5.745E-01  1.120E-02
 15.17       49.63      5.574E-01  1.078E-02
 15.17       50.67      5.381E-01  1.033E-02
 15.17       51.71      5.160E-01  9.874E-03
 15.17       52.79      5.002E-01  1.049E-02
 15.17       53.79      4.795E-01  1.014E-02
 15.17       54.83      4.669E-01  9.817E-03
 15.17       55.86      4.529E-01  9.467E-03
 15.17       56.90      4.317E-01  8.968E-03
 15.17       58.01      4.015E-01  9.720E-03
 15.17       58.97      3.964E-01  8.148E-03
 15.17       60.01      3.717E-01  7.619E-03
 15.17       61.04      3.598E-01  7.307E-03
 15.17       62.08      3.500E-01  7.112E-03
 15.17       63.15      3.276E-01  6.729E-03
 15.17       64.14      3.264E-01  7.382E-03
 15.17       65.17      3.065E-01  6.858E-03
 15.17       66.20      2.949E-01  6.585E-03
 15.17       67.23      2.868E-01  6.404E-03
 15.17       68.32      2.766E-01  5.706E-03
 15.17       69.28      2.619E-01  5.836E-03
 15.17       70.31      2.545E-01  5.362E-03
 15.17       71.33      2.459E-01  4.957E-03
 15.17       72.36      2.394E-01  4.818E-03
 15.17       73.40      2.266E-01  4.481E-03
 15.17       74.39      2.264E-01  6.764E-03
 15.17       75.41      2.032E-01  6.060E-03
 15.17       76.43      1.945E-01  5.791E-03
 15.17       77.45      1.901E-01  5.650E-03
 15.17       78.55      1.819E-01  4.045E-03
 15.17       79.48      1.700E-01  5.069E-03
 15.17       81.51      1.532E-01  3.876E-03
 15.17       82.52      1.454E-01  3.697E-03
 15.17       83.57      1.496E-01  3.526E-03
 15.17       84.55      1.402E-01  3.785E-03
 15.17       85.56      1.405E-01  3.773E-03
 15.17       86.57      1.449E-01  3.878E-03
 15.17       87.57      1.375E-01  3.529E-03
 15.17       88.63      1.397E-01  3.513E-03
 15.17       89.59      1.329E-01  3.437E-03
 15.17       90.59      1.307E-01  3.877E-03
 15.17       91.59      1.273E-01  3.232E-03
 15.17       92.59      1.308E-01  4.038E-03
 15.17       93.59      1.210E-01  3.040E-03
 15.17       94.59      1.125E-01  3.977E-03
 15.17       95.59      1.104E-01  3.899E-03
 15.17       96.58      1.122E-01  3.962E-03
 15.17       97.58      9.260E-02  3.268E-03
 15.17       98.57      9.667E-02  3.728E-03
 15.17       99.57      9.112E-02  3.213E-03
 15.17      100.56      8.458E-02  3.631E-03
 15.17      101.55      8.114E-02  2.864E-03
 15.17      102.54      7.020E-02  3.421E-03
 15.17      103.53      7.057E-02  2.442E-03
 15.17      106.08      6.288E-02  2.098E-03
 15.17      108.55      6.280E-02  2.036E-03
 15.17      111.05      5.859E-02  1.974E-03
 15.17      113.50      6.458E-02  2.049E-03
 15.17      115.86      6.504E-02  2.562E-03
 15.17      118.29      6.314E-02  2.431E-03
 15.17      120.79      6.465E-02  2.137E-03
 15.17      123.21      5.671E-02  1.873E-03
 15.17      125.60      5.319E-02  2.095E-03
 15.17      128.01      4.728E-02  1.850E-03
 15.17      130.42      3.497E-02  2.722E-03
 15.17      132.83      3.109E-02  1.921E-03
 15.17      135.27      2.898E-02  2.133E-03
 15.17      137.66      2.793E-02  1.829E-03
 15.17      139.96      2.229E-02  2.402E-03
 15.17      142.35      2.953E-02  2.109E-03
 15.17      144.79      3.093E-02  2.341E-03
 15.17      147.16      3.296E-02  2.098E-03
 15.17      149.50      3.391E-02  2.949E-03
 15.17      151.87      3.532E-02  2.498E-03
 15.17      154.23      3.819E-02  1.639E-03
 15.17      156.59      4.218E-02  2.167E-03
 15.17      158.99      3.496E-02  1.543E-03
 15.17      161.35      3.725E-02  1.982E-03
 15.17      163.61      2.661E-02  1.379E-03
 15.17      165.95      2.839E-02  1.264E-03
 15.17      168.38      2.593E-02  1.311E-03
 15.17      170.72      3.227E-02  1.837E-03
 15.17      173.02      2.828E-02  1.389E-03
 15.17      175.35      2.962E-02  1.319E-03
ENDDATA            221
ENDSUBENT          244
SUBENT        D4366006   20220316   20220530   20220530       D136
BIB                  8         18
REACTION   (30-ZN-64(A,INL)30-ZN-64,PAR,DA)
LEVEL-PROP (30-ZN-64,E-LVL=0.992,SPIN=2.,PARITY=+1.)
           (30-ZN-64,E-LVL=1.799,SPIN=2.,PARITY=+1.)
           (30-ZN-64,E-LVL=1.910,SPIN=0.,PARITY=+1.)
           (30-ZN-64,E-LVL=2.307,SPIN=4.,PARITY=+1.)
SAMPLE     (30-ZN-64,ENR=0.9971)
           Enriched metallic 64Zn (~150 ug/cm2) onto C foil
            (40 ug/cm2 thick)
DETECTOR   (SI)
ERR-ANALYS (ERR-T) Total uncertainty propagated from
                -  Statistical uncertainty
           (ERR-1) Absolute normalization              (~1.5%)
           (ERR-2,,1.) Angular calibration              (<1%)
ADD-RES    Semi-experimental angle-integrated cross sections
            in Table III of Phys.Rev.C94(2016)055807
STATUS     (TABLE) Figs.10-11 of Phys.Rev.C94(2016)055807
HISTORY    (20170608R) Data received from Peter Mohr
           (20220316A) VT, unit of  E-LVL: MEV->KEV replaced
ENDBIB              18
COMMON               1          3
ERR-1
PER-CENT
 1.5
ENDCOMMON            3
DATA                 6        470
EN-CM      E-LVL      E-LVL      ANG-CM     DATA-CM    ERR-T
MEV        KEV        KEV        ADEG       MB/SR      MB/SR
      11.29       992.                38.113    6.50043    1.24886
      11.29       992.                42.380   12.12712    0.48798
      11.29       992.                44.420    2.60687    0.43234
      11.29       992.                45.466    3.22195    0.44229
      11.29       992.                46.511    1.91942    0.32689
      11.29       992.                47.610    0.83566    0.14304
      11.29       992.                48.600    3.07353    0.37439
      11.29       992.                49.643    1.55189    0.26052
      11.29       992.                50.685    2.05835    0.29399
      11.29       992.                51.727    1.89737    0.26058
      11.29       992.                52.802    1.84029    0.22902
      11.29       992.                53.793    2.14514    0.42803
      11.29       992.                54.832    2.30706    0.44647
      11.29       992.                55.870    2.80789    0.45224
      11.29       992.                56.907    2.62338    0.42035
      11.29       992.                57.997    1.67487    0.20640
      11.29       992.                58.979    2.31083    0.35485
      11.29       992.                60.014    2.18092    0.33985
      11.29       992.                61.047    2.67303    0.36810
      11.29       992.                62.080    2.52139    0.32999
      11.29       992.                63.141    2.24992    0.21329
      11.29       992.                64.157    2.21348    0.19382
      11.29       992.                65.187    1.99140    0.20219
      11.29       992.                66.216    2.17508    0.20396
      11.29       992.                67.244    2.20671    0.20219
      11.29       992.                68.295    2.26636    0.19226
      11.29       992.                69.297    2.29979    0.19122
      11.29       992.                70.322    2.44689    0.20469
      11.29       992.                71.346    2.59789    0.17216
      11.29       992.                72.369    2.33652    0.16421
      11.29       992.                73.402    2.18957    0.16907
      11.29       992.                74.397    1.96282    0.19851
      11.29       992.                75.417    2.12859    0.22861
      11.29       992.                76.436    2.06560    0.21678
      11.29       992.                77.454    2.13189    0.21666
      11.29       992.                78.471    2.28481    0.21969
      11.29       992.                79.486    2.21309    0.20392
      11.29       992.                80.501    1.90618    0.19612
      11.29       992.                81.515    2.06765    0.16491
      11.29       992.                82.527    2.09472    0.16775
      11.29       992.                83.546    2.25350    0.17283
      11.29       992.                84.563    1.80580    0.14979
      11.29       992.                85.572    2.14904    0.15294
      11.29       992.                86.580    1.96754    0.14869
      11.29       992.                87.587    2.23859    0.15703
      11.29       992.                88.593    2.15839    0.15130
      11.29       992.                89.598    2.23322    0.14486
      11.29       992.                90.602    1.98383    0.13592
      11.29       992.                91.605    2.39463    0.14266
      11.29       992.                92.607    2.48966    0.14725
      11.29       992.                93.600    2.29000    0.16319
      11.29       992.                94.593    2.22735    0.18145
      11.29       992.                95.591    2.25717    0.16969
      11.29       992.                96.588    2.54767    0.18412
      11.29       992.                97.584    2.25511    0.17044
      11.29       992.                98.579    2.47561    0.17553
      11.29       992.                99.573    2.24167    0.15632
      11.29       992.               100.566    2.34635    0.16004
      11.29       992.               101.558    2.28117    0.14907
      11.29       992.               102.549    2.32213    0.15212
      11.29       992.               103.538    2.48000    0.15251
      11.29       992.               106.073    2.49836    0.09998
      11.29       992.               108.535    2.32210    0.08761
      11.29       992.               110.991    2.28686    0.12165
      11.29       992.               113.440    2.17202    0.11199
      11.29       992.               115.856    2.26775    0.10713
      11.29       992.               118.293    2.09613    0.09427
      11.29       992.               120.687    1.78018    0.13888
      11.29       992.               123.112    2.13422    0.14697
      11.29       992.               125.588    2.11009    0.09285
      11.29       992.               128.004    2.05949    0.11939
      11.29       992.               130.414    2.27040    0.12271
      11.29       992.               132.840    2.03942    0.13593
      11.29       992.               135.261    2.24327    0.12264
      11.29       992.               137.614    2.37964    0.15564
      11.29       992.               139.964    2.61946    0.14695
      11.29       992.               142.346    2.34959    0.13812
      11.29       992.               147.119    2.35941    0.16974
      11.29       992.               149.491    2.39720    0.14670
      11.29       992.               151.855    2.93496    0.14415
      11.29       992.               154.246    2.88140    0.15303
      11.29       992.               156.582    3.08054    0.19957
      11.29       992.               158.949    3.09140    0.16828
      11.29       992.               161.340    3.12840    0.20026
      11.29       992.               163.618    3.15329    0.14671
      11.29       992.               165.968    3.34261    0.22545
      11.29       992.               168.337    3.20850    0.19551
      11.29       992.               173.029    3.79608    0.14823
      11.29       992.               175.373    3.22550    0.20254
      11.29      1799.      1910.     63.151    0.51006    0.08381
      11.29      1799.      1910.     64.157    0.37930    0.07864
      11.29      1799.      1910.     65.187    0.21687    0.06567
      11.29      1799.      1910.     66.216    0.40439    0.08646
      11.29      1799.      1910.     67.244    0.33956    0.07786
      11.29      1799.      1910.     68.295    0.43066    0.08180
      11.29      1799.      1910.     69.297    0.38380    0.07642
      11.29      1799.      1910.     70.322    0.28930    0.06879
      11.29      1799.      1910.     71.346    0.57090    0.07814
      11.29      1799.      1910.     72.369    0.41810    0.06741
      11.29      1799.      1910.     73.402    0.55011    0.08354
      11.29      1799.      1910.     74.397    0.33307    0.08125
      11.29      1799.      1910.     75.417    0.42257    0.10130
      11.29      1799.      1910.     76.436    0.33978    0.08740
      11.29      1799.      1910.     77.454    0.22664    0.07017
      11.29      1799.      1910.     78.471    0.71037    0.12179
      11.29      1799.      1910.     79.486    0.39114    0.08509
      11.29      1799.      1910.     80.501    0.52900    0.10278
      11.29      1799.      1910.     81.515    0.53361    0.08304
      11.29      1799.      1910.     82.527    0.52680    0.08339
      11.29      1799.      1910.     83.546    0.49254    0.07913
      11.29      1799.      1910.     84.563    0.29398    0.05916
      11.29      1799.      1910.     85.572    0.35327    0.06024
      11.29      1799.      1910.     86.580    0.65303    0.08394
      11.29      1799.      1910.     87.587    0.42967    0.06685
      11.29      1799.      1910.     88.593    0.45518    0.06756
      11.29      1799.      1910.     89.598    0.32533    0.05336
      11.29      1799.      1910.     90.602    0.34094    0.05464
      11.29      1799.      1910.     91.605    0.51154    0.06343
      11.29      1799.      1910.     92.607    0.49903    0.06334
      11.29      1799.      1910.     93.600    0.45636    0.07025
      11.29      1799.      1910.     94.593    0.35073    0.07135
      11.29      1799.      1910.     95.591    0.50553    0.07952
      11.29      1799.      1910.     96.588    0.53983    0.08384
      11.29      1799.      1910.     97.584    0.63508    0.08964
      11.29      1799.      1910.     98.579    0.56795    0.08316
      11.29      1799.      1910.     99.573    0.43193    0.06781
      11.29      1799.      1910.    100.566    0.30706    0.05713
      11.29      1799.      1910.    101.558    0.49949    0.06886
      11.29      1799.      1910.    102.549    0.54726    0.07293
      11.29      1799.      1910.    103.538    0.49971    0.06745
      11.29      1799.      1910.    106.073    0.43775    0.03847
      11.29      1799.      1910.    108.535    0.35926    0.03124
      11.29      1799.      1910.    110.991    0.53368    0.05630
      11.29      1799.      1910.    113.440    0.51664    0.04915
      11.29      1799.      1910.    115.856    0.60253    0.04896
      11.29      1799.      1910.    118.293    0.61600    0.04494
      11.29      1799.      1910.    120.687    0.74174    0.08907
      11.29      1799.      1910.    123.112    0.59994    0.07713
      11.29      1799.      1910.    125.588    0.62307    0.04650
      11.29      1799.      1910.    128.004    0.67084    0.06763
      11.29      1799.      1910.    130.414    0.70913    0.06614
      11.29      1799.      1910.    132.840    0.73918    0.07964
      11.29      1799.      1910.    135.261    0.75935    0.06808
      11.29      1799.      1910.    137.614    0.72720    0.08194
      11.29      1799.      1910.    139.964    0.81203    0.07579
      11.29      1799.      1910.    142.346    0.80520    0.07572
      11.29      1799.      1910.    147.119    0.85388    0.09948
      11.29      1799.      1910.    149.488    0.98507    0.07837
      11.29      1799.      1910.    151.855    0.83353    0.07197
      11.29      1799.      1910.    154.246    1.01782    0.08780
      11.29      1799.      1910.    156.582    1.32241    0.12828
      11.29      1799.      1910.    158.949    1.34770    0.10661
      11.29      1799.      1910.    161.340    1.15236    0.11698
      11.29      1799.      1910.    163.618    1.43288    0.09050
      11.29      1799.      1910.    165.968    1.51647    0.14549
      11.29      1799.      1910.    168.337    1.86368    0.14549
      11.29      1799.      1910.    173.029    2.11050    0.10370
      11.29      1799.      1910.    175.373    1.42572    0.12651
      11.29      2307.                57.997    0.82222    0.14966
      11.29      2307.                58.979    0.09234    0.07066
      11.29      2307.                60.014    1.51613    0.28303
      11.29      2307.                61.047    0.70528    0.18840
      11.29      2307.                62.080    0.32479    0.11789
      11.29      2307.                67.244    2.21647    0.20265
      11.29      2307.                68.271    2.35171    0.20472
      11.29      2307.                69.297    0.94404    0.12064
      11.29      2307.                70.322    0.41608    0.08261
      11.29      2307.                71.346    0.27915    0.05438
      11.29      2307.                72.369    0.37093    0.06344
      11.29      2307.                73.402    0.43155    0.07158
      11.29      2307.                74.397    0.26191    0.07203
      11.29      2307.                75.417    0.33539    0.09022
      11.29      2307.                76.436    0.13008    0.05404
      11.29      2307.                77.454    0.29929    0.08065
      11.29      2307.                78.471    0.52031    0.10416
      11.29      2307.                79.486    0.47970    0.09426
      11.29      2307.                80.501    0.53397    0.10326
      11.29      2307.                81.515    0.30180    0.06237
      11.29      2307.                82.527    0.37000    0.06982
      11.29      2307.                83.546    0.28233    0.06003
      11.29      2307.                84.563    0.28631    0.05838
      11.29      2307.                85.572    0.27865    0.05343
      11.29      2307.                86.580    0.39678    0.06516
      11.29      2307.                87.587    0.40711    0.06505
      11.29      2307.                88.593    0.38853    0.06235
      11.29      2307.                89.598    0.42081    0.06079
      11.29      2307.                90.602    0.47144    0.06442
      11.29      2307.                91.605    0.51962    0.06394
      11.29      2307.                92.607    0.36759    0.05421
      11.29      2307.                93.600    0.38047    0.06413
      11.29      2307.                94.593    0.41076    0.07723
      11.29      2307.                95.591    0.41972    0.07242
      11.29      2307.                96.588    0.33464    0.06594
      11.29      2307.                97.584    0.47552    0.07750
      11.29      2307.                98.579    0.39012    0.06885
      11.29      2307.                99.573    0.31336    0.05772
      11.29      2307.               100.566    0.45794    0.06984
      11.29      2307.               101.558    0.28085    0.05155
      11.29      2307.               102.549    0.37899    0.06062
      11.29      2307.               103.538    0.38811    0.05940
      11.29      2307.               106.073    0.28003    0.03055
      11.29      2307.               108.535    0.26863    0.02688
      11.29      2307.               110.991    0.36225    0.04519
      11.29      2307.               113.440    0.31434    0.03846
      11.29      2307.               115.856    0.36941    0.03760
      11.29      2307.               118.293    0.34542    0.03274
      11.29      2307.               120.687    0.43445    0.06804
      11.29      2307.               123.112    0.39340    0.06237
      11.29      2307.               125.588    0.46891    0.03996
      11.29      2307.               128.004    0.50755    0.05671
      11.29      2307.               130.414    0.51844    0.05630
      11.29      2307.               132.840    0.54859    0.06811
      11.29      2307.               135.261    0.61444    0.06095
      11.29      2307.               137.614    0.51863    0.06897
      11.29      2307.               139.964    0.47805    0.05726
      11.29      2307.               142.346    0.67980    0.06918
      11.29      2307.               147.119    0.66288    0.08735
      11.29      2307.               149.491    0.53098    0.06682
      11.29      2307.               151.855    0.65743    0.06354
      11.29      2307.               154.246    0.67831    0.07184
      11.29      2307.               156.582    0.66881    0.08945
      11.29      2307.               158.949    0.67427    0.07226
      11.29      2307.               161.340    0.79532    0.09700
      11.29      2307.               163.618    0.76676    0.06367
      11.29      2307.               165.968    0.62958    0.09052
      11.29      2307.               168.337    0.73065    0.08920
      11.29      2307.               173.029    0.71605    0.05691
      11.29      2307.               175.373    0.86029    0.10283
      15.17       992.                21.246   14.52800    1.53000
      15.17       992.                22.305    7.43680    0.94500
      15.17       992.                23.363    4.32600    0.81100
      15.17       992.                26.535    3.33380    0.64000
      15.17       992.                31.825    3.11500    0.66200
      15.17       992.                39.159    2.69670    0.59000
      15.17       992.                40.208    2.99180    0.59200
      15.17       992.                41.258    4.75250    0.69400
      15.17       992.                42.362    4.63890    0.79000
      15.17       992.                43.373    3.39070    0.29300
      15.17       992.                44.420    3.76290    0.29600
      15.17       992.                45.466    4.65650    0.31600
      15.17       992.                46.511    4.19820    0.28300
      15.17       992.                47.601    4.81310    0.81400
      15.17       992.                48.600    4.07470    0.25200
      15.17       992.                49.643    3.22520    0.21000
      15.17       992.                50.685    3.36000    0.20300
      15.17       992.                51.727    3.35290    0.19700
      15.17       992.                52.794    3.23240    0.62200
      15.17       992.                53.788    3.12170    0.30400
      15.17       992.                54.827    3.17950    0.29300
      15.17       992.                55.865    2.52330    0.24800
      15.17       992.                56.903    2.67600    0.24100
      15.17       992.                58.008    3.79420    0.67800
      15.17       992.                59.492    3.06570    0.22500
      15.17       992.                61.043    3.37570    0.21700
      15.17       992.                62.076    3.17480    0.20400
      15.17       992.                63.152    3.37170    0.41000
      15.17       992.                64.157    2.79960    0.22800
      15.17       992.                65.187    3.08800    0.22300
      15.17       992.                66.216    2.84650    0.20500
      15.17       992.                67.244    2.70180    0.19300
      15.17       992.                68.323    2.77260    0.17300
      15.17       992.                69.297    2.90220    0.18400
      15.17       992.                70.322    2.71830    0.15200
      15.17       992.                71.346    2.55640    0.12700
      15.17       992.                72.369    2.31700    0.11600
      15.17       992.                73.405    2.25260    0.15700
      15.17       992.                74.393    1.99390    0.20800
      15.17       992.                75.413    2.28310    0.20700
      15.17       992.                76.432    1.40420    0.15400
      15.17       992.                77.449    1.81770    0.17000
      15.17       992.                78.541    1.71950    0.13300
      15.17       992.                79.482    1.47710    0.14000
      15.17       992.                80.497    1.12270    0.10300
      15.17       992.                81.510    1.55420    0.10300
      15.17       992.                82.523    1.43160    0.09530
      15.17       992.                83.570    1.44400    0.10500
      15.17       992.                84.563    1.43490    0.09960
      15.17       992.                85.572    1.40850    0.09620
      15.17       992.                86.580    1.36720    0.09410
      15.17       992.                87.587    1.30340    0.08270
      15.17       992.                88.635    1.34630    0.09900
      15.17       992.                89.598    1.26420    0.07850
      15.17       992.                90.602    1.36900    0.09720
      15.17       992.                91.605    1.19690    0.07050
      15.17       992.                92.607    1.14770    0.09040
      15.17       992.                93.630    1.15900    0.07910
      15.17       992.                94.588    1.32700    0.10300
      15.17       992.                95.586    1.05320    0.08950
      15.17       992.                96.584    0.96559    0.08510
      15.17       992.                97.580    0.86595    0.07210
      15.17       992.                98.575    0.86398    0.08070
      15.17       992.                99.569    0.83427    0.06810
      15.17       992.               100.562    0.94111    0.08680
      15.17       992.               101.554    0.63662    0.05460
      15.17       992.               102.544    0.77322    0.08040
      15.17       992.               103.534    0.81462    0.05520
      15.17       992.               106.073    0.60169    0.03400
      15.17       992.               108.535    0.60251    0.03140
      15.17       992.               111.041    0.54664    0.03240
      15.17       992.               113.490    0.58053    0.03100
      15.17       992.               115.856    0.53934    0.03500
      15.17       992.               118.293    0.47467    0.03020
      15.17       992.               120.781    0.53964    0.03190
      15.17       992.               123.206    0.44814    0.02660
      15.17       992.               125.588    0.47107    0.03010
      15.17       992.               128.001    0.44200    0.02680
      15.17       992.               130.414    0.41634    0.03810
      15.17       992.               132.816    0.36492    0.03100
      15.17       992.               135.261    0.39907    0.03650
      15.17       992.               137.652    0.38629    0.03170
      15.17       992.               139.964    0.35222    0.03750
      15.17       992.               142.346    0.32134    0.03100
      15.17       992.               144.780    0.27939    0.03130
      15.17       992.               147.154    0.25992    0.02600
      15.17       992.               149.488    0.24124    0.02820
      15.17       992.               151.855    0.27747    0.02660
      15.17       992.               154.223    0.27820    0.02270
      15.17       992.               156.582    0.25846    0.02350
      15.17       992.               158.986    0.34310    0.02520
      15.17       992.               161.340    0.34276    0.02700
      15.17       992.               163.607    0.32738    0.02370
      15.17       992.               165.957    0.38184    0.02740
      15.17       992.               168.371    0.41445    0.02760
      15.17       992.               170.718    0.43531    0.03060
      15.17       992.               172.998    0.38438    0.02540
      15.17       992.               175.343    0.53422    0.03230
      15.17      1799.      1910.     31.813  2.035E-01  1.210E-01
      15.17      1799.      1910.     60.009  2.024E-01  5.540E-02
      15.17      1799.      1910.     61.043  1.451E-01  4.400E-02
      15.17      1799.      1910.     62.076  1.883E-01  4.870E-02
      15.17      1799.      1910.     63.144  7.998E-02  2.750E-02
      15.17      1799.      1910.     65.187  1.950E-01  5.420E-02
      15.17      1799.      1910.     66.216  2.877E-01  6.300E-02
      15.17      1799.      1910.     67.244  2.557E-01  5.740E-02
      15.17      1799.      1910.     68.323  1.544E-01  3.840E-02
      15.17      1799.      1910.     69.297  2.020E-01  4.650E-02
      15.17      1799.      1910.     70.322  1.879E-01  3.770E-02
      15.17      1799.      1910.     71.346  1.940E-01  3.250E-02
      15.17      1799.      1910.     72.369  1.704E-01  2.940E-02
      15.17      1799.      1910.     73.393  1.017E-01  3.030E-02
      15.17      1799.      1910.     74.393  7.706E-02  4.060E-02
      15.17      1799.      1910.     75.413  1.100E-02  1.420E-02
      15.17      1799.      1910.     78.579  8.625E-02  2.520E-02
      15.17      1799.      1910.     79.482  1.346E-01  4.190E-02
      15.17      1799.      1910.     80.497  4.230E-02  1.970E-02
      15.17      1799.      1910.     81.510  7.057E-02  2.160E-02
      15.17      1799.      1910.     82.523  1.196E-02  8.570E-03
      15.17      1799.      1910.     83.570  9.083E-02  2.540E-02
      15.17      1799.      1910.     84.563  7.380E-02  2.180E-02
      15.17      1799.      1910.     85.572  4.812E-02  1.710E-02
      15.17      1799.      1910.     86.580  5.709E-02  1.860E-02
      15.17      1799.      1910.     87.587  2.714E-02  1.140E-02
      15.17      1799.      1910.     88.635  2.106E-02  1.200E-02
      15.17      1799.      1910.     89.598  1.482E-02  8.120E-03
      15.17      1799.      1910.     90.602  4.761E-02  1.750E-02
      15.17      1799.      1910.     91.605  5.631E-02  1.460E-02
      15.17      1799.      1910.     92.607  1.078E-01  2.700E-02
      15.17      1799.      1910.     93.630  5.631E-02  1.680E-02
      15.17      1799.      1910.     94.588  6.289E-03  7.030E-03
      15.17      1799.      1910.     95.586  1.231E-02  9.590E-03
      15.17      1799.      1910.     96.584  4.638E-02  1.850E-02
      15.17      1799.      1910.     97.580  2.707E-02  1.260E-02
      15.17      1799.      1910.     98.575  1.269E-01  3.070E-02
      15.17      1799.      1910.     99.569  4.032E-02  1.480E-02
      15.17      1799.      1910.    100.562  7.921E-02  2.500E-02
      15.17      1799.      1910.    101.554  7.084E-02  1.810E-02
      15.17      1799.      1910.    102.544  4.250E-02  1.870E-02
      15.17      1799.      1910.    103.534  6.612E-02  1.550E-02
      15.17      1799.      1910.    106.073  3.878E-02  8.250E-03
      15.17      1799.      1910.    108.535  6.669E-02  9.930E-03
      15.17      1799.      1910.    111.041  2.735E-02  6.840E-03
      15.17      1799.      1910.    113.490  5.029E-02  8.510E-03
      15.17      1799.      1910.    115.856  5.907E-02  1.080E-02
      15.17      1799.      1910.    118.293  4.031E-02  8.120E-03
      15.17      1799.      1910.    120.781  4.232E-02  8.700E-03
      15.17      1799.      1910.    123.206  4.504E-02  8.210E-03
      15.17      1799.      1910.    125.588  4.135E-02  8.480E-03
      15.17      1799.      1910.    128.001  4.133E-02  7.760E-03
      15.17      1799.      1910.    130.414  5.827E-02  1.320E-02
      15.17      1799.      1910.    132.816  5.656E-02  1.210E-02
      15.17      1799.      1910.    135.261  6.013E-02  1.410E-02
      15.17      1799.      1910.    137.652  8.554E-02  1.460E-02
      15.17      1799.      1910.    139.964  6.791E-02  1.610E-02
      15.17      1799.      1910.    142.346  5.580E-02  1.270E-02
      15.17      1799.      1910.    144.780  7.612E-02  1.670E-02
      15.17      1799.      1910.    147.154  1.058E-01  1.670E-02
      15.17      1799.      1910.    149.488  1.094E-01  1.970E-02
      15.17      1799.      1910.    151.855  7.962E-02  1.400E-02
      15.17      1799.      1910.    154.223  1.044E-01  1.370E-02
      15.17      1799.      1910.    156.582  8.296E-02  1.320E-02
      15.17      1799.      1910.    158.986  9.657E-02  1.300E-02
      15.17      1799.      1910.    161.340  1.196E-01  1.560E-02
      15.17      1799.      1910.    163.607  1.224E-01  1.400E-02
      15.17      1799.      1910.    165.957  1.336E-01  1.560E-02
      15.17      1799.      1910.    168.371  2.021E-01  1.910E-02
      15.17      1799.      1910.    170.718  2.721E-01  2.400E-02
      15.17      1799.      1910.    172.998  2.377E-01  1.900E-02
      15.17      1799.      1910.    175.343  3.557E-01  2.600E-02
      15.17      2307.                42.369  1.140E+00  3.320E-01
      15.17      2307.                52.792  2.636E-01  1.780E-01
      15.17      2307.                62.076  7.220E-02  3.010E-02
      15.17      2307.                63.117  7.829E-02  3.080E-02
      15.17      2307.                64.157  1.541E-01  5.200E-02
      15.17      2307.                65.187  1.095E-01  4.060E-02
      15.17      2307.                66.216  1.035E-01  3.770E-02
      15.17      2307.                67.244  6.264E-02  2.830E-02
      15.17      2307.                68.323  6.883E-02  2.580E-02
      15.17      2307.                69.297  5.901E-02  2.510E-02
      15.17      2307.                70.322  6.012E-02  2.130E-02
      15.17      2307.                71.346  1.223E-01  2.580E-02
      15.17      2307.                72.369  8.519E-02  2.070E-02
      15.17      2307.                73.393  6.671E-02  2.690E-02
      15.17      2307.                74.393  9.525E-02  4.520E-02
      15.17      2307.                75.413  8.160E-02  3.870E-02
      15.17      2307.                77.449  1.892E-01  5.440E-02
      15.17      2307.                78.541  1.113E-01  3.330E-02
      15.17      2307.                80.497  1.747E-02  1.270E-02
      15.17      2307.                81.510  7.090E-02  2.160E-02
      15.17      2307.                82.523  5.091E-02  1.770E-02
      15.17      2307.                83.570  3.770E-02  1.590E-02
      15.17      2307.                84.563  3.594E-02  1.520E-02
      15.17      2307.                86.580  4.657E-02  1.680E-02
      15.17      2307.                87.587  3.002E-02  1.200E-02
      15.17      2307.                88.635  2.104E-02  1.210E-02
      15.17      2307.                89.598  3.024E-02  1.160E-02
      15.17      2307.                90.602  9.971E-03  8.010E-03
      15.17      2307.                91.605  2.609E-02  9.910E-03
      15.17      2307.                92.607  8.857E-02  2.450E-02
      15.17      2307.                93.607  1.541E-01  2.150E-02
      15.17      2307.                93.653  8.578E-02  2.550E-02
      15.17      2307.                94.588  1.187E-01  3.060E-02
      15.17      2307.                95.586  6.604E-02  2.220E-02
      15.17      2307.                96.584  4.749E-02  1.870E-02
      15.17      2307.                97.580  7.121E-02  2.050E-02
      15.17      2307.                98.575  9.942E-02  2.720E-02
      15.17      2307.                99.569  5.367E-02  1.710E-02
      15.17      2307.               100.562  1.143E-02  9.490E-03
      15.17      2307.               101.554  4.393E-02  1.420E-02
      15.17      2307.               102.544  2.806E-02  1.520E-02
      15.17      2307.               103.534  5.344E-02  1.390E-02
      15.17      2307.               106.073  4.880E-02  9.260E-03
      15.17      2307.               108.535  4.388E-02  8.030E-03
      15.17      2307.               111.041  7.840E-02  1.160E-02
      15.17      2307.               113.490  4.824E-02  8.340E-03
      15.17      2307.               115.856  6.898E-02  1.170E-02
      15.17      2307.               118.293  6.863E-02  1.070E-02
      15.17      2307.               120.781  6.454E-02  1.080E-02
      15.17      2307.               123.206  6.155E-02  9.610E-03
      15.17      2307.               125.588  4.385E-02  8.740E-03
      15.17      2307.               128.001  5.811E-02  9.220E-03
      15.17      2307.               130.414  5.336E-02  1.330E-02
      15.17      2307.               132.816  5.110E-02  1.120E-02
      15.17      2307.               135.261  7.255E-02  1.550E-02
      15.17      2307.               137.652  8.149E-02  1.410E-02
      15.17      2307.               139.964  7.475E-02  1.620E-02
      15.17      2307.               142.346  7.651E-02  1.460E-02
      15.17      2307.               144.780  8.633E-02  1.650E-02
      15.17      2307.               147.154  8.076E-02  1.420E-02
      15.17      2307.               149.488  9.141E-02  1.560E-02
      15.17      2307.               151.855  9.363E-02  1.500E-02
      15.17      2307.               154.223  7.003E-02  1.120E-02
      15.17      2307.               156.582  6.075E-02  1.110E-02
      15.17      2307.               158.986  8.488E-02  1.220E-02
      15.17      2307.               161.340  7.925E-02  1.270E-02
      15.17      2307.               163.607  8.513E-02  1.160E-02
      15.17      2307.               165.957  9.244E-02  1.310E-02
      15.17      2307.               168.371  1.297E-01  1.530E-02
      15.17      2307.               170.718  1.189E-01  1.570E-02
      15.17      2307.               172.998  1.505E-01  1.530E-02
      15.17      2307.               175.343  1.424E-01  1.610E-02
ENDDATA            472
ENDSUBENT          499
SUBENT        D4366007   20170509   20170703   20170627       D109
BIB                  3          4
REACTION   (30-ZN-64(A,INL)30-ZN-64,PAR,SIG)
ERR-ANALYS (DATA-ERR) Uncertainties estimated from variations of
            different fits
STATUS     (TABLE) Data were taken from table 3.
ENDBIB               4
NOCOMMON             0          0
DATA                 5          8
EN-CM      EN-ERR     E-LVL      DATA       DATA-ERR
MEV        MEV        KEV        MB         MB
 11.29      0.09        992.      33.0       3.0
 11.29      0.09       1799.       3.1       0.5
 11.29      0.09       1910.      10.2       0.5
 11.29      0.09       2307.       3.2       0.5
 15.17      0.08        992.      28.0       1.0
 15.17      0.08       1799.       0.6       0.2
 15.17      0.08       1910.      13.6       0.5
 15.17      0.08       2307.       0.9       0.1
ENDDATA             10
ENDSUBENT           19
ENDENTRY             7
