ENTRY            O2540   20220301   20220823   20220713       O089
SUBENT        O2540001   20220301   20220823   20220713       O089
BIB                 11         43
TITLE      Measurements and parametrization of the 16O(d,d0)16O
           differential cross section
AUTHOR     (E.Ntemou, A.F.Gurbich, M.Kokkoris, A.Lagoyannis)
INSTITUTE  (2GRCATH,2GRCTUA,4RUSFEI)
REFERENCE  (J,NIM/B,510,56,2022)
           #doi:10.1016/j.nimb.2021.11.003
FACILITY   (VDGT,2GRCATH) 5.5 MV Tandem Accelerator Laboratory
INC-SPECT  For the determination of the energy to which the
           cross-section values were attributed the energy loss
           and the straggling inside the target were calculated.
           The target thickness ratio of Au to O was determined
           by the p-EBS technique.
DETECTOR   (SIBAR) Five Silicon Surface Barrier (SSB) detectors,
           having a thickness of 500 um, which were mounted at
           130, 140, 150, 160 and 170 degrees.
SAMPLE     (8-O-16,NAT=0.9976) A self-supporting thin carbon foil
           with Na2HPO4 powder evaporated on top, along with a
           thin Au layer for normalization purposes.
ANALYSIS   A scaling factor was applied at each scattering angle.
           The scaling factor was calculated as average value
           of the ratio between SigmaCalc evaluation for the
           natO(d,d0) cross section and the Rutherford scattering
           cross section on Au at each beam energy in the energy
           range 1500-1980 keV.
           Values of the scaling factor for each scattering angle
              Angle    Scaling factor     Relative uncertainty
            (degree)                               (%)
               130     0.275 +- 0.009              3.3
               140     0.248 +- 0.014              5.7
               150     0.237 +- 0.009              3.8
               160     0.231 +- 0.008              3.5
               170     0.227 +- 0.011              4.9
ERR-ANALYS (ERR-S) The combined statistical uncertainties
           (ERR-1) The systematic uncertainties originating from
           the differences between compiled and experimental
           stopping power data and their corresponding values
           were estimated to be for oxygen - 2.8%
           (ERR-2) The systematic uncertainties originating from
           the differences between compiled and experimental
           stopping power data and their corresponding values
           were estimated to be for gold - 3.6%
           (ERR-3) The uncertainty of the scaling factor.
HISTORY    (20220301C) VS
ENDBIB              43
COMMON               2          3
ERR-1      ERR-2
PER-CENT   PER-CENT
        2.8        3.6
ENDCOMMON            3
ENDSUBENT           50
SUBENT        O2540002   20220301   20220823   20220713       O089
BIB                  2          3
REACTION   (8-O-16(D,EL)8-O-16,,DA)
STATUS     (TABLE) Converted by R33toX4 from R33 files submitted
           by E. Ntemou. Plotted on fig.5 a-e.
ENDBIB               3
COMMON               2          3
ANG-ERR    EN-ERR
ADEG       KEV
         1.         5.
ENDCOMMON            3
DATA                 5        395
ANG        EN         DATA       ERR-S      ERR-3
ADEG       KEV        MB/SR      MB/SR      PER-CENT
 130.00     1509.000   43.900     2.300         3.3
 130.00     1529.000   43.900     2.300         3.3
 130.00     1549.000   43.700     2.400         3.3
 130.00     1569.000   40.900     2.000         3.3
 130.00     1589.000   37.900     2.000         3.3
 130.00     1610.000   36.000     1.800         3.3
 130.00     1630.000   32.700     2.200         3.3
 130.00     1650.000   30.200     1.700         3.3
 130.00     1670.000   37.900     2.000         3.3
 130.00     1690.000   40.600     2.000         3.3
 130.00     1710.000   43.300     2.100         3.3
 130.00     1730.000   46.900     2.300         3.3
 130.00     1750.000   52.200     2.400         3.3
 130.00     1770.000   57.100     2.800         3.3
 130.00     1790.000   53.200     3.000         3.3
 130.00     1810.000   51.500     2.600         3.3
 130.00     1831.000   50.100     2.300         3.3
 130.00     1851.000   43.500     2.000         3.3
 130.00     1871.000   41.000     1.900         3.3
 130.00     1891.000   38.700     1.800         3.3
 130.00     1901.000   37.800     1.800         3.3
 130.00     1911.000   34.000     1.800         3.3
 130.00     1921.000   33.500     1.700         3.3
 130.00     1931.000   33.300     1.800         3.3
 130.00     1941.000   31.100     1.700         3.3
 130.00     1951.000   28.800     1.500         3.3
 130.00     1961.000   26.700     1.500         3.3
 130.00     1981.000   22.300     1.300         3.3
 130.00     1991.000   22.500     1.100         3.3
 130.00     2001.000   20.700     1.100         3.3
 130.00     2011.000   21.100     1.100         3.3
 130.00     2021.000   20.000     1.000         3.3
 130.00     2031.000   20.600     1.100         3.3
 130.00     2041.000   19.800     1.000         3.3
 130.00     2051.000   20.100     1.000         3.3
 130.00     2061.000   20.400     1.000         3.3
 130.00     2071.000   21.900     1.100         3.3
 130.00     2081.000   22.200     1.200         3.3
 130.00     2091.000   20.900     1.000         3.3
 130.00     2102.000   21.700     1.100         3.3
 130.00     2112.000   20.800     1.000         3.3
 130.00     2122.000   22.300     1.100         3.3
 130.00     2132.000   22.300     1.100         3.3
 130.00     2142.000   21.800     1.100         3.3
 130.00     2152.000   21.400     1.100         3.3
 130.00     2162.000   21.300     1.100         3.3
 130.00     2172.000   19.100     1.100         3.3
 130.00     2182.000   18.500     1.000         3.3
 130.00     2192.000   15.900     1.000         3.3
 130.00     2202.000   15.200     0.700         3.3
 130.00     2212.000   14.500     0.800         3.3
 130.00     2222.000   15.700     0.700         3.3
 130.00     2232.000   16.500     0.800         3.3
 130.00     2242.000   17.800     0.900         3.3
 130.00     2252.000   17.800     0.800         3.3
 130.00     2262.000   17.200     0.800         3.3
 130.00     2272.000   15.200     0.900         3.3
 130.00     2282.000   16.000     0.900         3.3
 130.00     2292.000   18.400     1.200         3.3
 130.00     2302.000   19.700     1.000         3.3
 130.00     2312.000   23.800     1.300         3.3
 130.00     2322.000   25.000     1.300         3.3
 130.00     2332.000   29.200     1.400         3.3
 130.00     2342.000   34.000     1.600         3.3
 130.00     2352.000   37.000     1.700         3.3
 130.00     2362.000   38.400     1.700         3.3
 130.00     2372.000   38.300     1.700         3.3
 130.00     2382.000   40.400     1.700         3.3
 130.00     2392.000   41.400     1.800         3.3
 130.00     2402.000   42.200     1.800         3.3
 130.00     2412.000   41.300     1.700         3.3
 130.00     2422.000   44.200     2.000         3.3
 130.00     2433.000   40.800     1.800         3.3
 130.00     2443.000   39.500     1.700         3.3
 130.00     2453.000   40.100     1.800         3.3
 130.00     2463.000   39.800     1.800         3.3
 130.00     2473.000   38.200     1.900         3.3
 130.00     2483.000   39.400     1.700         3.3
 130.00     2493.000   41.400     1.600         3.3
 140.00     1509.000   43.500     2.800         5.7
 140.00     1529.000   40.900     2.700         5.7
 140.00     1549.000   39.100     2.600         5.7
 140.00     1569.000   37.500     2.500         5.7
 140.00     1589.000   35.100     2.500         5.7
 140.00     1610.000   34.100     2.300         5.7
 140.00     1630.000   33.600     2.300         5.7
 140.00     1650.000   31.000     2.200         5.7
 140.00     1670.000   38.800     2.400         5.7
 140.00     1690.000   39.200     2.600         5.7
 140.00     1710.000   40.200     2.700         5.7
 140.00     1730.000   45.500     2.800         5.7
 140.00     1750.000   51.000     3.000         5.7
 140.00     1770.000   60.000     4.000         5.7
 140.00     1790.000   56.000     4.000         5.7
 140.00     1810.000   51.000     3.000         5.7
 140.00     1831.000   49.000     3.000         5.7
 140.00     1851.000   45.100     2.800         5.7
 140.00     1871.000   41.200     2.500         5.7
 140.00     1891.000   38.200     2.400         5.7
 140.00     1901.000   36.100     2.200         5.7
 140.00     1911.000   33.600     2.100         5.7
 140.00     1921.000   31.200     1.900         5.7
 140.00     1931.000   26.000     1.700         5.7
 140.00     1941.000   26.200     1.800         5.7
 140.00     1951.000   24.800     1.600         5.7
 140.00     1961.000   24.000     1.600         5.7
 140.00     1981.000   19.400     1.300         5.7
 140.00     1991.000   18.500     1.200         5.7
 140.00     2001.000   17.800     1.200         5.7
 140.00     2011.000   15.900     1.000         5.7
 140.00     2021.000   16.200     1.000         5.7
 140.00     2031.000   17.000     1.100         5.7
 140.00     2041.000   16.100     1.000         5.7
 140.00     2051.000   16.300     1.000         5.7
 140.00     2061.000   17.100     1.100         5.7
 140.00     2071.000   17.100     1.000         5.7
 140.00     2081.000   17.800     1.200         5.7
 140.00     2091.000   18.300     1.100         5.7
 140.00     2102.000   17.300     1.100         5.7
 140.00     2112.000   18.600     1.100         5.7
 140.00     2122.000   17.500     1.100         5.7
 140.00     2132.000   15.300     0.900         5.7
 140.00     2142.000   16.600     1.000         5.7
 140.00     2152.000   16.700     1.000         5.7
 140.00     2162.000   16.300     1.000         5.7
 140.00     2172.000   16.000     1.100         5.7
 140.00     2182.000   14.100     0.900         5.7
 140.00     2192.000   13.800     0.900         5.7
 140.00     2202.000   12.300     0.800         5.7
 140.00     2212.000   14.400     1.000         5.7
 140.00     2222.000   16.500     1.000         5.7
 140.00     2232.000   17.100     1.000         5.7
 140.00     2242.000   17.100     1.100         5.7
 140.00     2252.000   17.700     1.100         5.7
 140.00     2262.000   16.400     1.000         5.7
 140.00     2272.000   16.600     1.000         5.7
 140.00     2282.000   15.700     1.000         5.7
 140.00     2292.000   17.200     1.200         5.7
 140.00     2302.000   20.700     1.300         5.7
 140.00     2312.000   24.200     1.500         5.7
 140.00     2322.000   28.500     1.700         5.7
 140.00     2332.000   32.700     1.900         5.7
 140.00     2342.000   36.000     2.100         5.7
 140.00     2352.000   38.000     2.300         5.7
 140.00     2362.000   42.100     2.500         5.7
 140.00     2372.000   42.500     2.500         5.7
 140.00     2382.000   41.800     2.400         5.7
 140.00     2392.000   43.500     2.500         5.7
 140.00     2402.000   43.600     2.500         5.7
 140.00     2412.000   43.700     2.500         5.7
 140.00     2422.000   42.300     2.500         5.7
 140.00     2433.000   44.300     2.600         5.7
 140.00     2443.000   42.400     2.500         5.7
 140.00     2453.000   40.400     2.400         5.7
 140.00     2463.000   40.600     2.400         5.7
 140.00     2473.000   37.800     2.300         5.7
 140.00     2483.000   37.700     2.200         5.7
 140.00     2493.000   39.600     2.200         5.7
 150.00     1509.000   39.100     1.800         3.8
 150.00     1529.000   39.100     1.900          3.8
 150.00     1549.000   38.400     1.800           3.8
 150.00     1569.000   37.100     1.700         3.8
 150.00     1589.000   36.600     1.800         3.8
 150.00     1610.000   34.400     1.600         3.8
 150.00     1630.000   30.700     1.400         3.8
 150.00     1650.000   30.300     1.400         3.8
 150.00     1670.000   36.000     1.600         3.8
 150.00     1690.000   40.400     1.800         3.8
 150.00     1710.000   42.500     1.800         3.8
 150.00     1730.000   46.500     2.000         3.8
 150.00     1750.000   50.300     2.100         3.8
 150.00     1770.000   54.400     2.400         3.8
 150.00     1790.000   53.600     2.300         3.8
 150.00     1810.000   50.500     2.300         3.8
 150.00     1831.000   47.000     2.000         3.8
 150.00     1851.000   44.700     1.900         3.8
 150.00     1871.000   43.100     1.800         3.8
 150.00     1891.000   38.700     1.600         3.8
 150.00     1901.000   36.500     1.600         3.8
 150.00     1911.000   33.300     1.500         3.8
 150.00     1921.000   30.200     1.400         3.8
 150.00     1931.000   28.500     1.300         3.8
 150.00     1941.000   25.900     1.200         3.8
 150.00     1951.000   22.600     1.100         3.8
 150.00     1961.000   20.300     1.000         3.8
 150.00     1981.000   17.600     0.800         3.8
 150.00     1991.000   16.000     0.800         3.8
 150.00     2001.000   15.400     0.700         3.8
 150.00     2011.000   14.000     0.700         3.8
 150.00     2021.000   13.800     0.600         3.8
 150.00     2031.000   13.300     0.600         3.8
 150.00     2041.000   14.600     0.700         3.8
 150.00     2051.000   14.300     0.700         3.8
 150.00     2061.000   14.100     0.700         3.8
 150.00     2071.000   15.600     0.700         3.8
 150.00     2081.000   16.400     0.800         3.8
 150.00     2091.000   16.600     0.700         3.8
 150.00     2102.000   15.300     0.700         3.8
 150.00     2112.000   15.800     0.700         3.8
 150.00     2122.000   16.700     0.800         3.8
 150.00     2132.000   15.300     0.700         3.8
 150.00     2142.000   15.000     0.700         3.8
 150.00     2152.000   14.300     0.700         3.8
 150.00     2162.000   13.800     0.700         3.8
 150.00     2172.000   13.400     0.700         3.8
 150.00     2182.000   11.500     0.600         3.8
 150.00     2192.000   12.400     0.600         3.8
 150.00     2202.000   12.000     0.600         3.8
 150.00     2212.000   14.200     0.700         3.8
 150.00     2222.000   16.800     0.700         3.8
 150.00     2232.000   17.400     0.800         3.8
 150.00     2242.000   18.200     0.800         3.8
 150.00     2252.000   17.300     0.800         3.8
 150.00     2262.000   16.600     0.700         3.8
 150.00     2272.000   17.400     0.800         3.8
 150.00     2282.000   17.200     0.800         3.8
 150.00     2292.000   19.200     0.900         3.8
 150.00     2302.000   22.500     1.000         3.8
 150.00     2312.000   27.500     1.200         3.8
 150.00     2322.000   32.100     1.400         3.8
 150.00     2332.000   36.200     1.500         3.8
 150.00     2342.000   40.100     1.700         3.8
 150.00     2352.000   43.800     1.800         3.8
 150.00     2362.000   44.200     1.800         3.8
 150.00     2372.000   47.400     1.900         3.8
 150.00     2382.000   46.300     1.900         3.8
 150.00     2392.000   47.200     1.900         3.8
 150.00     2402.000   46.300     1.900         3.8
 150.00     2412.000   46.400     1.900         3.8
 150.00     2422.000   46.900     2.000         3.8
 150.00     2433.000   47.100     1.900         3.8
 150.00     2443.000   44.600     1.800         3.8
 150.00     2453.000   41.500     1.800         3.8
 150.00     2463.000   40.200     1.700         3.8
 150.00     2473.000   42.000     1.900         3.8
 150.00     2483.000   38.500     1.700         3.8
 150.00     2493.000   40.200     1.600         3.8
 160.00     1509.000   37.900     1.700         3.5
 160.00     1529.000   37.000     1.600         3.5
 160.00     1549.000   36.800     1.600         3.5
 160.00     1569.000   38.900     1.600         3.5
 160.00     1589.000   34.600     1.500         3.5
 160.00     1610.000   33.300     1.400         3.5
 160.00     1630.000   31.900     1.100         3.5
 160.00     1650.000   30.900     1.300         3.5
 160.00     1670.000   36.300     1.700         3.5
 160.00     1690.000   40.400     1.600         3.5
 160.00     1710.000   41.400     1.700         3.5
 160.00     1730.000   46.700     1.900         3.5
 160.00     1750.000   52.900     2.000         3.5
 160.00     1770.000   54.900     2.200         3.5
 160.00     1790.000   52.200     2.100         3.5
 160.00     1810.000   49.700     2.200         3.5
 160.00     1831.000   46.200     1.900         3.5
 160.00     1851.000   45.200     1.700         3.5
 160.00     1871.000   45.700     1.700         3.5
 160.00     1891.000   41.100     1.600         3.5
 160.00     1901.000   37.300     1.500         3.5
 160.00     1911.000   31.600     1.300         3.5
 160.00     1921.000   27.800     1.200         3.5
 160.00     1931.000   26.000     1.200         3.5
 160.00     1941.000   23.700     1.100         3.5
 160.00     1951.000   22.300     1.000         3.5
 160.00     1961.000   20.500     1.000         3.5
 160.00     1981.000   15.300     0.900         3.5
 160.00     1991.000   14.900     0.800         3.5
 160.00     2001.000   13.600     0.600         3.5
 160.00     2011.000   13.500     0.600         3.5
 160.00     2021.000   12.200     0.600         3.5
 160.00     2031.000   11.700     0.500         3.5
 160.00     2041.000   12.400     0.600         3.5
 160.00     2051.000   12.300     0.600         3.5
 160.00     2061.000   13.200     0.600         3.5
 160.00     2071.000   14.700     0.600         3.5
 160.00     2081.000   14.700     0.700         3.5
 160.00     2091.000   14.200     0.600         3.5
 160.00     2102.000   14.000     0.600         3.5
 160.00     2112.000   14.000     0.600         3.5
 160.00     2122.000   14.000     0.600         3.5
 160.00     2132.000   12.600     0.600         3.5
 160.00     2142.000   13.300     0.600         3.5
 160.00     2152.000   12.600     0.600         3.5
 160.00     2162.000   13.100     0.600         3.5
 160.00     2172.000   11.000     0.500         3.5
 160.00     2182.000    9.800     0.500         3.5
 160.00     2192.000   11.300     0.500         3.5
 160.00     2202.000   11.600     0.500         3.5
 160.00     2212.000   13.500     0.600         3.5
 160.00     2222.000   16.100     0.700         3.5
 160.00     2232.000   18.100     0.700         3.5
 160.00     2242.000   18.300     0.800         3.5
 160.00     2252.000   18.600     0.800         3.5
 160.00     2262.000   17.600     0.700         3.5
 160.00     2272.000   16.800     0.700         3.5
 160.00     2282.000   17.300     0.700         3.5
 160.00     2292.000   19.100     0.800         3.5
 160.00     2302.000   24.800     1.000         3.5
 160.00     2312.000   29.000     1.200         3.5
 160.00     2322.000   36.800     1.400         3.5
 160.00     2332.000   39.500     1.500         3.5
 160.00     2342.000   44.000     1.700         3.5
 160.00     2352.000   46.900     1.800         3.5
 160.00     2362.000   48.900     1.800         3.5
 160.00     2372.000   50.200     1.900         3.5
 160.00     2382.000   50.900     1.900         3.5
 160.00     2392.000   49.600     1.900         3.5
 160.00     2402.000   50.600     1.900         3.5
 160.00     2412.000   48.900     1.800         3.5
 160.00     2422.000   50.600     2.000         3.5
 160.00     2433.000   48.800     1.800         3.5
 160.00     2443.000   44.500     1.700         3.5
 160.00     2453.000   44.900     1.700         3.5
 160.00     2463.000   42.800     1.600         3.5
 160.00     2473.000   41.000     1.700         3.5
 160.00     2483.000   41.200     1.600         3.5
 160.00     2493.000   41.300     1.500         3.5
 170.00     1509.000   37.800     2.100         4.9
 170.00     1529.000   37.300     2.200         4.9
 170.00     1549.000   39.700     2.200         4.9
 170.00     1569.000   37.700     2.200         4.9
 170.00     1589.000   32.900     2.000         4.9
 170.00     1610.000   31.600     1.800         4.9
 170.00     1630.000   30.000     1.800         4.9
 170.00     1650.000   30.200     1.800         4.9
 170.00     1670.000   37.300     2.200         4.9
 170.00     1690.000   40.400     2.300         4.9
 170.00     1710.000   41.500     2.300         4.9
 170.00     1730.000   46.200     2.600         4.9
 170.00     1750.000   53.100     2.800         4.9
 170.00     1770.000   55.000     3.000         4.9
 170.00     1790.000   52.300     2.900         4.9
 170.00     1810.000   50.500     2.900         4.9
 170.00     1831.000   48.100     2.600         4.9
 170.00     1851.000   45.100     2.400         4.9
 170.00     1871.000   47.300     2.400         4.9
 170.00     1891.000   38.700     2.000         4.9
 170.00     1901.000   36.400     1.900         4.9
 170.00     1911.000   30.100     1.700         4.9
 170.00     1921.000   27.400     1.500         4.9
 170.00     1931.000   25.400     1.500         4.9
 170.00     1941.000   24.300     1.600         4.9
 170.00     1951.000   20.800     1.400         4.9
 170.00     1961.000   19.600     1.200         4.9
 170.00     1981.000   15.200     1.100         4.9
 170.00     1991.000   14.200     0.900         4.9
 170.00     2001.000   12.700     0.800         4.9
 170.00     2011.000   11.600     0.700         4.9
 170.00     2021.000   10.800     0.700         4.9
 170.00     2031.000   11.500     0.700         4.9
 170.00     2041.000    9.800     0.600         4.9
 170.00     2051.000    9.900     0.600         4.9
 170.00     2061.000   11.900     0.700         4.9
 170.00     2071.000   12.500     0.800         4.9
 170.00     2081.000   13.600     0.800         4.9
 170.00     2091.000   11.700     0.700         4.9
 170.00     2102.000   13.700     0.800         4.9
 170.00     2112.000   12.700     0.700         4.9
 170.00     2122.000   14.200     0.800         4.9
 170.00     2132.000   12.300     0.800         4.9
 170.00     2142.000   11.900     0.700         4.9
 170.00     2152.000   11.700     0.700         4.9
 170.00     2162.000   11.400     0.700         4.9
 170.00     2172.000    9.800     0.600         4.9
 170.00     2182.000   10.200     0.700         4.9
 170.00     2192.000   11.300     0.700         4.9
 170.00     2202.000   11.500     0.700         4.9
 170.00     2212.000   13.800     0.800         4.9
 170.00     2222.000   15.400     0.800         4.9
 170.00     2232.000   18.000     1.000         4.9
 170.00     2242.000   18.500     1.000         4.9
 170.00     2252.000   18.200     1.000         4.9
 170.00     2262.000   17.300     0.900         4.9
 170.00     2272.000   16.900     0.900         4.9
 170.00     2282.000   16.900     0.900         4.9
 170.00     2292.000   19.400     1.100         4.9
 170.00     2302.000   23.400     1.200         4.9
 170.00     2312.000   29.200     1.600         4.9
 170.00     2322.000   35.100     1.800         4.9
 170.00     2332.000   39.200     2.000         4.9
 170.00     2342.000   44.000     2.300         4.9
 170.00     2352.000   47.300     2.500         4.9
 170.00     2362.000   51.700     2.700         4.9
 170.00     2372.000   52.500     2.700         4.9
 170.00     2382.000   52.000     2.700         4.9
 170.00     2392.000   51.700     2.700         4.9
 170.00     2402.000   50.400     2.700         4.9
 170.00     2412.000   51.800     2.700         4.9
 170.00     2422.000   51.200     2.700         4.9
 170.00     2433.000   50.400     2.700         4.9
 170.00     2443.000   48.100     2.500         4.9
 170.00     2453.000   45.600     2.500         4.9
 170.00     2463.000   43.600     2.300         4.9
 170.00     2473.000   42.600     2.500         4.9
 170.00     2483.000   40.100     2.300         4.9
 170.00     2493.000   42.100     2.100         4.9
ENDDATA            397
ENDSUBENT          409
ENDENTRY             2
