ENTRY            22725   20050225   20050610                  2171
SUBENT        22725001   20050225   20050610                  2171
BIB                 13         44
TITLE       .Measurement of neutron total cross-sections of Dy
            and Hf in the energy range 0.002 to 100 keV
AUTHOR     (H.J.CHO,K.KOBAYASHI,S.YAMAMOTO,Y.FUJITA, Y.LEE,
           G.KIM, I.S.KO, M.-H.CHO,W.NAMKUNG, S.K.KO)
INSTITUTE  (2JPNKTO)  H.Cho, K.Kobayashi, S.Yamamoto, Y.Fujita,
           (3KORPUE)  Y.Lee, G.Kim, I.S.Ko, M.-H.Cho, W.Namkung
           (3KORULS)  S.K.Ko
REFERENCE  (J,ANE,27,1259,2000)  Main reference, Graphs are given
FACILITY   (LINAC,2JPNKTO)  46 MeV electron linear accelerator
            of the Research Reactor Institute, Kyoto University
           - KURRI. Operated in two different modes - one for
           thermal region without cadmium sheet with repetition
           rate 25Hz, pulse width 3 microsec, peak current 200
           milli-A, and the other for higher energy region with
           cadmium sheet, repetition rate 100 Hz, pulse width
           22 nanosec, peak current 1 amp. Electron energy in
           both modes 30 MeV
INC-SOURCE (PHOTO)  Tantalum target consisting of 12 Ta plates
             5 cm diam, 3 cm thick set at the center of an
             octagonal water tank, to moderate fast neutrons
INC-SPECT  .A set of notch filters of Co, Ag, Mn and Cd were
            mounted in front of the sample changer - for the
            background measurement and energy calibration
METHOD     (TOF)  Flight path is 22.1 m at the angle 90 degree
                  relative to electron beam
DETECTOR   (SCIN)  Li-6 glass scintillation counter 12.7 cm
            diameter, 1.27 cm thick, mounted on EMI-9618/R
            photomultiplier - for neutron detection.
           (PROPC) BF3 counter for neutron flux determination
CORRECTION .Corrections were made for -
            -Dead time of the time analyser,
            -Attenuation of the neutron beam die to the thickness
             of the samples,
            -Impurity elements Ta and Al
MONITOR    (5-B-10(N,A)3-LI-7,,SIG)
ERR-ANALYS (ERR-T)   Max Total error
           (ERR-S)   Statistical error
           (ERR-SYS) Max systematic error
           (ERR-1)   Min systematic error
           (ERR-2)   Max error due to geometrical factor for the
                     samples
           (ERR-3)   Max error due to detector efficiency
           (ERR-4)   Min error due to detector efficiency
HISTORY    (20050225C)   SM
ENDBIB              44
COMMON               6          3
ERR-T      ERR-SYS    ERR-1      ERR-2      ERR-3      ERR-4
PER-CENT   PER-CENT   PER-CENT   PER-CENT   PER-CENT   PER-CENT
   3.0        1.0        0.5         0.1      1.98       1.85
ENDCOMMON            3
ENDSUBENT           51
SUBENT        22725002   20050225   20050610                  2171
BIB                  4         11
REACTION   (66-DY-0(N,TOT),,SIG)
SAMPLE     .Three metal transmission samples wer placed at the
            midpoint of the flight path and were cycled into
            the neutron beam by an automatic sample changer
            with four sample positions.
           .Purity of all samples were 99.9%, size 5.0 x 5.0 cm2,
            Thicknesses - 1st 0.50 mm = 1.584 atoms/kb,
                          2nd 3.00 mm = 9.506 atoms/kb,
                          3d  5.00 mm =15.843 atoms/kb,
ERR-ANALYS (ERR-5) Min statistical error
STATUS     (TABLE) Delivered by INTERNET from authors
ENDBIB              11
COMMON               1          3
ERR-5
PER-CENT
   0.65
ENDCOMMON            3
DATA                 3        309
EN         DATA       ERR-S
EV         B          B
     0.0020  3560.8482    85.6873
     0.0021  3426.9598    80.0523
     0.0022  3291.1866    66.9208
     0.0024  3131.5958    77.0630
     0.0025  3016.4954    73.2988
     0.0027  2908.8107    64.0287
     0.0028  2879.4497    53.8335
     0.0030  2806.4053    54.9860
     0.0032  2716.1385    42.9606
     0.0033  2751.3966    59.3843
     0.0035  2687.3828    53.3359
     0.0038  2617.2959    52.0814
     0.0040  2501.4076    49.3785
     0.0042  2399.1562    40.0999
     0.0045  2297.0131    55.1110
     0.0047  2104.3388    70.1167
     0.0050  2200.1197    48.0563
     0.0053  2154.6058    53.4236
     0.0056  2140.4688    61.9501
     0.0060  2113.1120    46.9543
     0.0063  1985.6210    38.4725
     0.0067  1966.1419    55.5301
     0.0071  1957.2833    54.3336
     0.0075  1937.9555    50.7928
     0.0079  1864.4044    38.3451
     0.0084  1836.8812    38.4996
     0.0089  1769.8147    37.0956
     0.0094  1716.3549    34.7985
     0.0100  1683.7417    29.2535
     0.0106  1627.7454    27.1398
     0.0112  1592.5855    24.1914
     0.0119  1552.2796    21.5540
     0.0126  1549.2460    20.7249
     0.0133  1484.1671    17.6854
     0.0141  1444.2006    16.4107
     0.0150  1392.1351    15.1658
     0.0158  1355.8853    14.0167
     0.0168  1328.1789    13.0520
     0.0178  1294.8804    11.8986
     0.0188  1251.0504    10.8595
     0.0200  1224.3829    10.1183
     0.0211  1189.9746     9.3230
     0.0224  1157.9628     8.5933
     0.0237  1117.6362     7.9418
     0.0251  1080.9609     7.3455
     0.0266  1061.7430     6.8476
     0.0282  1032.4586     6.3315
     0.0299  1005.6172     5.9456
     0.0316   974.1288     5.5715
     0.0335   944.5854     5.2283
     0.0355   918.3979     4.9232
     0.0376   895.9044     4.6304
     0.0398   866.3829     4.3527
     0.0422   835.7219     4.1088
     0.0447   816.1195     3.9278
     0.0473   788.3532     3.7344
     0.0501   773.7312     3.5965
     0.0531   752.1974     3.4528
     0.0562   726.0797     3.3188
     0.0596   706.3510     3.2141
     0.0631   683.5334     3.1190
     0.0668   667.6722     3.0547
     0.0708   651.0146     2.9993
     0.0750   632.4778     2.9505
     0.0794   606.5031     2.9117
     0.0841   593.6347     2.9052
     0.0891   577.0138     2.9146
     0.0944   557.5233     2.9217
     0.1000   543.3255     2.9635
     0.1059   525.3841     3.0134
     0.1122   508.9386     3.0718
     0.1189   496.0616     3.1569
     0.1259   482.4661     3.2657
     0.1334   461.6198     3.3704
     0.1413   453.6037     3.5208
     0.1496   440.5643     3.6611
     0.1585   421.7205     3.8274
     0.1679   416.5112     4.0011
     0.1778   400.5608     4.1903
     0.1884   389.6380     4.3484
     0.1995   373.3974     4.5013
     0.2113   375.8813     4.6325
     0.2239   355.1396     4.7328
     0.2371   345.1021     4.7650
     0.2512   333.5284     4.7733
     0.2661   317.1949     4.7525
     0.2818   313.8533     4.7256
     0.2985   299.8525     4.6580
     0.3162   298.4053     4.5825
     0.3350   279.0137     4.4962
     0.3548   280.0883     4.4318
     0.3758   265.3919     4.3469
     0.3981   252.6051     4.2570
     0.4217   242.4714     4.1886
     0.4467   240.3853     4.1260
     0.4732   228.8589     4.0603
     0.5012   208.8775     3.9995
     0.5309   207.7946     3.9584
     0.5623   207.5927     3.9075
     0.5957   205.0803     3.8477
     0.6310   201.1078     3.7932
     0.6683   184.6254     3.7371
     0.7079   170.7673     3.6862
     0.7499   175.4386     3.6287
     0.7943   164.3339     3.5626
     0.8414   161.1501     3.5210
     0.8913   163.1935     3.4539
     0.9441   144.7588     3.4082
     1.0000   150.5850     3.3693
     1.0593   142.5204     3.3198
     1.1220   137.8612     3.2845
     1.1885   146.7357     3.2344
     1.2589   146.6451     3.2120
     1.3335   165.2719     3.2016
     1.4125   180.5648     3.1949
     1.4962   225.5623     3.2602
     1.5849   357.7680     3.7278
     1.6788  1038.9896     8.9289
     1.7783  2814.5381     9.2285
     1.8836   927.5322     3.5549
     1.9953   286.0503     2.9976
     2.1135   159.9361     2.8664
     2.2387   124.0291     2.8127
     2.3714   103.1534     2.7723
     2.5119   107.4996     2.7779
     2.6607   194.3011     3.0559
     2.8184   602.6111     2.9664
     2.9854   178.7605     2.6539
     3.1623   101.9902     2.6064
     3.3497   103.4073     2.6062
     3.5481   140.2813     2.8408
     3.7584   919.0031     3.1545
     3.9811   418.9619     2.6168
     4.2170   185.2313     2.7298
     4.4668   692.5830     2.7868
     4.7315   306.7188     2.6585
     5.0119   341.9842     3.5587
     5.3088   994.2730     8.3543
     5.6234  4337.6921     8.6547
     5.9566  1831.9760     3.2330
     6.3096   481.3989     2.4959
     6.6834   190.1826     2.3129
     7.0795   105.8646     2.2436
     7.4989    76.1625     2.2209
     7.9433   196.7371     2.2121
     8.4140    95.9206     2.1444
     8.9125    38.0571     2.1218
     9.4406    34.3179     2.1127
    10.0000    41.9389     2.1505
    10.5925   667.9887     2.2662
    11.2202   100.2277     2.0842
    11.8850    36.1340     2.0218
    12.5893    43.6402     2.0064
    13.3352    30.7005     2.0233
    14.1254    81.1522     2.0502
    14.9624   479.7067     2.0309
    15.8489    88.5439     2.2271
    16.7880  1089.6213     2.1940
    17.7828   103.6561     1.9647
    18.8365   473.9297     1.9367
    19.9526    60.0921     1.9334
    21.1349   266.1972     1.9215
    22.3872    30.1780     1.8610
    23.7137    25.6991     1.8198
    25.1189    85.3964     1.8062
    26.6073    38.0911     1.7920
    28.1838    21.6485     1.7772
    29.8538    77.9151     1.7631
    31.6228    27.4187     1.7511
    33.4965    19.6849     1.7483
    35.4813    36.6855     1.7436
    37.5837   120.5110     1.7288
    39.8107   241.9917     1.7126
    42.1697    25.0253     1.6968
    44.6684   115.4167     1.6810
    47.3151    75.8433     1.6764
    50.1187    23.1457     1.6758
    53.0884    98.4240     1.6720
    56.2341    66.2720     1.6633
    59.5662   130.1094     1.6551
    63.0957   260.2704     1.6627
    66.8344    53.2508     1.6759
    70.7946   152.9934     1.6819
    74.9894   998.3982     1.6475
    79.4328   100.5223     1.6054
    84.1395    71.1573     1.5662
    89.1251    63.7694     1.5554
    94.4061    84.3060     1.5487
   100.0000    67.1065     1.5416
   105.9254    48.4363     1.5332
   112.2018   107.2785     1.5240
   118.8502    48.6877     1.5142
   125.8925    57.3770     1.5049
   133.3521    77.1063     1.4998
   141.2538    38.1737     1.4950
   149.6236   143.4081     1.4900
   158.4893   324.9300     1.4841
   167.8804   103.7495     1.4736
   177.8279    60.7655     1.4617
   188.3649    53.4131     1.4490
   199.5262    40.6837     1.4356
   211.3489    42.5167     1.4249
   223.8721    54.2513     1.4207
   237.1374    86.0658     1.4163
   251.1886    50.5866     1.4118
   266.0725    36.2058     1.4069
   281.8383    79.7941     1.4017
   298.5383   152.0592     1.3954
   316.2278    60.4205     1.3886
   334.9654    56.1532     1.3813
   354.8134    76.5104     1.3737
   375.8374    59.3642     1.3655
   398.1072    48.8474     1.3570
   421.6965    47.4936     1.3510
   446.6836    65.6993     1.3466
   473.1513    49.7923     1.3419
   501.1872    46.6846     1.3370
   530.8844    43.5158     1.3317
   562.3413    53.9046     1.3262
   595.6621    43.1700     1.3203
   630.9573    43.3115     1.3141
   668.3439    46.5876     1.3074
   707.9458    56.1337     1.3004
   749.8942    78.3678     1.2929
   794.3282    57.3033     1.2849
   841.3951    51.6754     1.2765
   891.2509    48.4037     1.2676
   944.0609    51.3455     1.2582
  1000.0000    49.7750     1.2482
  1059.2537    49.9910     1.2376
  1122.0185    41.2609     1.2258
  1188.5022    35.5779     1.2069
  1258.9254    35.1263     1.1851
  1333.5214    32.9089     1.1621
  1412.5375    33.5398     1.1377
  1496.2357    35.0444     1.1118
  1584.8932    38.4659     1.0844
  1678.8040    38.7347     1.0554
  1778.2794    41.8527     1.0247
  1883.6491    44.1487     0.9921
  1995.2623    43.7118     0.9576
  2113.4890    44.6326     0.9211
  2238.7211    44.2465     0.8824
  2371.3737    41.7006     0.8414
  2511.8864    40.7450     0.8000
  2660.7251    34.0690     0.7900
  2818.3829    31.7974     0.7915
  2985.3826    31.0910     0.7932
  3162.2777    32.4308     0.7950
  3349.6544    32.2276     0.7968
  3548.1339    32.8619     0.7988
  3758.3740    32.5339     0.8009
  3981.0717    32.0411     0.8031
  4216.9650    29.2654     0.8055
  4466.8359    29.0991     0.8080
  4731.5126    29.2031     0.8106
  5011.8723    28.9180     0.8134
  5308.8444    27.3530     0.8164
  5623.4133    24.6741     0.8195
  5956.6214    24.2187     0.8228
  6309.5734    27.0314     0.8263
  6683.4392    26.5757     0.8301
  7079.4578    25.6225     0.8340
  7498.9421    25.5669     0.8382
  7943.2823    24.4583     0.8426
  8413.9514    23.0002     0.8473
  8912.5094    24.2675     0.8523
  9440.6088    22.6127     0.8575
 10000.0000    21.6819     0.8376
 10592.5373    21.5609     0.8350
 11220.1845    21.2290     0.8316
 11885.0223    20.4609     0.8285
 12589.2541    19.4100     0.8258
 13335.2143    18.7251     0.8215
 14125.3754    19.2296     0.8129
 14962.3566    18.3651     0.8097
 15848.9319    17.6039     0.8046
 16788.0402    17.3509     0.9633
 17782.7941    16.5167     0.9207
 18836.4909    16.4186     0.8097
 19952.6232    16.2389     0.6733
 21134.8904    14.8744     0.5644
 22387.2114    15.0555     0.4214
 23713.7371    15.8203     0.7776
 25118.8643    15.3444     0.6229
 26607.2506    14.7173     0.5571
 28183.8293    14.1127     0.6024
 29853.8262    13.8934     0.9063
 31622.7766    13.9466     0.7995
 33496.5439    13.7324     0.7104
 35481.3389    13.3764     0.6284
 37583.7404    12.8758     0.5783
 39810.7171    12.3003     0.5412
 42169.6503    12.4062     0.4988
 44668.3592    12.4705     0.4518
 47315.1259    12.5349     0.4241
 50118.7234    11.7717     0.4294
 53088.4444    11.0338     0.4316
 56234.1325    10.7656     0.4094
 59566.2144    10.5727     0.3816
 63095.7344    10.3214     0.3850
 66834.3918    10.2391     0.4351
 70794.5784    10.1394     0.4885
 74989.4209     9.9693     0.5454
 79432.8235     9.9137     0.6059
 84139.5142     9.8540     0.6718
 89125.0938     9.7114     0.9402
 94406.0876     9.5067     0.5838
100000.0000     9.2900     0.8013
ENDDATA            311
ENDSUBENT          331
SUBENT        22725003   20050225   20050610                  2171
BIB                  4         12
REACTION   (72-HF-0(N,TOT),,SIG)
SAMPLE     .fOUR metal transmission samples wer placed at the
            midpoint of the flight path and were cycled into
            the neutron beam by an automatic sample changer
            with four sample positions.
           .Purity of all samples were 99.9%, size 5.0 x 5.0 cm2,
            Thicknesses - 1st 0.50 mm = 2.224 atoms/kb,
                          2nd 1.50 mm = 6.731 atoms/kb,
                          3d  2.00 mm = 8.975 atoms/kb,
                          4th 3.00 mm =13.462 atoms/kb
ERR-ANALYS (ERR-5) Min statistical error
STATUS     (TABLE) Delivered by INTERNET from authors
ENDBIB              12
COMMON               1          3
ERR-5
PER-CENT
   0.36
ENDCOMMON            3
DATA                 3        302
EN         DATA       ERR-S
EV         B          B
 0.00298538    302.67     29.00
 0.00316227    291.29     33.67
 0.00334965    279.75     22.46
 0.00354813    270.01     22.14
 0.00375837    264.48     22.62
 0.00398107    254.05     17.50
 0.00421696    251.55     17.50
 0.00446683    245.26     15.12
 0.00473151    236.82     14.40
 0.00501187    231.12     14.24
 0.00530884    225.68     13.21
 0.00562341    218.47     12.20
 0.00595662    215.62     11.04
 0.00630957    210.93     10.24
 0.00668343    206.73      9.56
 0.00707945    199.39      8.96
 0.00749894    194.01      8.30
 0.00794328    186.71      7.62
 0.00841395    182.89      7.01
 0.00891250    177.86      6.49
 0.00944060    175.31      6.13
 0.01          174.01      5.80
 0.01059253    168.23      5.40
 0.01122018    165.90      5.06
 0.01188502    161.39      4.59
 0.01258925    157.22      4.31
 0.01333521    154.87      3.98
 0.01412537    151.79      3.72
 0.01496235    144.18      3.52
 0.01584893    141.30      3.31
 0.01678804    139.42      3.12
 0.01778279    133.10      2.89
 0.01883649    128.82      2.71
 0.01995262    124.57      2.55
 0.02113489    119.97      2.40
 0.02238721    117.15      2.26
 0.02371373    116.71      2.14
 0.02511886    112.96      2.02
 0.02660725    111.43      1.90
 0.02818382    110.03      1.79
 0.02985382    106.45      1.70
 0.03162277    103.48      1.63
 0.03349654    100.67      1.55
 0.03548133     94.31      1.48
 0.03758374     92.49      1.41
 0.03981071     90.19      1.35
 0.04216965     88.78      1.29
 0.04466835     86.23      1.25
 0.04731512     84.48      1.20
 0.05011872     82.87      1.17
 0.05308844     80.01      1.13
 0.05623413     77.37      1.10
 0.05956621     75.35      1.08
 0.06309573     74.06      1.06
 0.06683439     74.16      1.05
 0.07079457     71.66      1.04
 0.07498942     71.72      1.03
 0.07943282     68.94      1.03
 0.08413951     67.04      1.03
 0.08912509     64.94      1.04
 0.09440608     63.48      1.06
 0.1            62.48      1.08
 0.10592537     61.43      1.11
 0.11220184     60.13      1.14
 0.11885022     57.73      1.17
 0.12589254     57.66      1.22
 0.13335214     54.57      1.28
 0.14125375     55.89      1.33
 0.14962356     56.23      1.40
 0.15848931     52.57      1.47
 0.16788040     53.65      1.55
 0.17782794     52.36      1.63
 0.18836490     49.71      1.70
 0.19952623     55.00      1.77
 0.21134890     50.37      1.83
 0.22387211     48.87      1.87
 0.23713737     45.96      1.90
 0.25118864     46.80      1.92
 0.26607250     50.14      1.92
 0.28183829     46.88      1.91
 0.29853826     49.32      1.90
 0.31622776     51.19      1.88
 0.33496543     46.52      1.85
 0.35481338     47.87      1.83
 0.37583740     46.92      1.80
 0.39810717     44.93      1.78
 0.42169650     48.27      1.76
 0.44668359     51.90      1.74
 0.47315125     49.28      1.72
 0.50118723     53.72      1.71
 0.53088444     51.85      1.69
 0.56234132     54.17      1.68
 0.59566214     69.45      1.67
 0.63095734     64.30      1.65
 0.66834391     62.70      1.65
 0.70794578     70.33      1.64
 0.74989420     89.52      1.64
 0.79432823    105.01      1.65
 0.84139514    125.32      1.68
 0.89125093    177.40      1.75
 0.94406087    256.05      1.95
 1.            506.70      2.83
 1.05925372   1509.69      7.71
 1.12201845   3287.49      8.61
 1.18850222   1705.33      4.16
 1.25892541    511.00      1.89
 1.33352143    209.27      1.57
 1.41253754    119.88      1.45
 1.49623565     86.82      1.40
 1.58489319     76.53      1.37
 1.67880401     67.77      1.35
 1.77827941     69.61      1.34
 1.88364909     79.13      1.35
 1.99526231    100.85      1.39
 2.11348904    164.47      1.52
 2.23872113    381.29      2.63
 2.37137370   1765.78      6.34
 2.51188643   2714.04      3.85
 2.66072506    968.12      1.53
 2.81838293    173.22      1.27
 2.98538261     83.75      1.19
 3.16227766     49.17      1.16
 3.34965439     39.42      1.14
 3.54813389     27.91      1.12
 3.75837404     27.09      1.11
 3.98107170     22.60      1.09
 4.21696503     22.20      1.08
 4.46683592     24.25      1.07
 4.73151259     25.78      1.06
 5.01187233     28.06      1.05
 5.30884444     36.97      1.09
 5.62341325    302.68      1.83
 5.95662143   1932.03      1.83
 6.30957344    186.14      1.37
 6.68343917   2322.19      1.60
 7.07945784    246.05      1.43
 7.49894209    724.45      2.56
 7.94328234   3389.46      3.68
 8.41395141    828.53      1.64
 8.91250938    510.70      1.32
 9.44060876    166.13      1.03
 10.            57.74      0.96
 10.5925372     37.36      0.94
 11.2201845     85.44      0.93
 11.8850222     24.60      0.91
 12.5892541     21.52      0.90
 13.3352143     23.46      0.91
 14.1253754    194.16      0.92
 14.9623565     23.98      0.89
 15.8489319     15.45      0.86
 16.7880401     12.54      0.86
 17.7827941     91.23      0.85
 18.8364909     19.63      0.84
 19.9526231     10.12      0.84
 21.1348904     11.23      0.84
 22.3872113    103.93      0.85
 23.7137370     42.60      0.84
 25.1188643    188.78      0.81
 26.6072506     16.17      0.80
 28.1838293     68.16      0.79
 29.8538261     13.21      0.79
 31.6227766    117.45      0.79
 33.4965439     25.83      0.79
 35.4813389     11.07      0.79
 37.5837404    248.20      0.78
 39.8107170     33.96      0.77
 42.1696503    115.91      0.77
 44.6683592     52.40      0.77
 47.3151259     37.00      0.77
 50.1187233    329.63      0.76
 53.0884444     46.51      0.75
 56.2341325     39.11      0.74
 59.5662143    137.76      0.73
 63.0957344     22.74      0.73
 66.8343917    120.96      0.73
 70.7945784     50.06      0.73
 74.9894209    259.44      0.72
 79.4328234     66.03      0.70
 84.1395141     18.02      0.69
 89.1250938     86.54      0.69
 94.4060876     22.23      0.69
 100.           27.62      0.69
 105.925372    143.45      0.68
 112.201845     44.82      0.68
 118.850222     12.99      0.67
 125.892541     65.82      0.67
 133.352143     26.21      0.66
 141.253754     21.75      0.66
 149.623565     42.35      0.66
 158.489319     61.41      0.65
 167.880401     18.12      0.65
 177.827941    142.74      0.65
 188.364909     69.38      0.64
 199.526231     30.12      0.64
 211.348904     19.87      0.64
 223.872113     63.58      0.63
 237.137370     18.33      0.63
 251.188643     23.65      0.63
 266.072506     59.63      0.62
 281.838293     41.95      0.62
 298.538261     72.29      0.62
 316.227766     38.20      0.62
 334.965439     32.48      0.61
 354.813389     28.70      0.61
 375.837404     25.57      0.61
 398.107170     26.31      0.60
 421.696503     32.76      0.60
 446.683592     33.54      0.60
 473.151259     25.86      0.60
 501.187233     32.18      0.59
 530.884444     32.11      0.59
 562.341325     22.59      0.59
 595.662143     19.16      0.59
 630.957344     21.77      0.58
 668.343917     19.81      0.58
 707.945784     22.13      0.58
 749.894209     19.35      0.57
 794.328234     23.78      0.57
 841.395141     34.08      0.57
 891.250938     38.68      0.56
 944.060876     35.69      0.56
 1000.          35.33      0.55
 1059.25372     23.67      0.55
 1122.01845     25.57      0.54
 1188.50222     23.66      0.53
 1258.92541     21.64      0.53
 1333.52143     20.57      0.52
 1412.53754     22.03      0.51
 1496.23565     23.24      0.49
 1584.89319     20.67      0.48
 1678.80401     18.80      0.47
 1778.27941     20.11      0.46
 1883.64909     18.17      0.44
 1995.26231     18.91      0.43
 2113.48904     19.92      0.41
 2238.72113     20.93      0.40
 2371.37370     19.58      0.38
 2511.88643     20.05      0.36
 2660.72506     22.03      0.36
 2818.38293     18.63      0.36
 2985.38261     19.86      0.36
 3162.27766     19.12      0.36
 3349.65439     17.94      0.36
 3548.13389     18.14      0.36
 3758.37404     16.45      0.36
 3981.07170     17.01      0.36
 4216.96503     18.79      0.36
 4466.83592     16.79      0.36
 4731.51259     15.41      0.36
 5011.87233     17.98      0.36
 5308.84444     18.01      0.36
 5623.41325     19.83      0.36
 5956.62143     19.15      0.36
 6309.57344     18.82      0.36
 6683.43917     20.45      0.36
 7079.45784     17.10      0.36
 7498.94209     15.79      0.36
 7943.28234     15.33      0.37
 8413.95141     13.74      0.37
 8912.50938     12.74      0.35
 9440.60876     12.33      0.37
 10000.         12.95      0.35
 10592.5372     12.66      0.37
 11220.1845     12.00      0.37
 11885.0222     11.67      0.37
 12589.2541     11.76      0.38
 13335.2143     12.26      0.36
 14125.3754     12.49      0.35
 14962.3565     12.04      0.35
 15848.9319     11.72      0.36
 16788.0401     11.73      0.35
 17782.7941     11.48      0.35
 18836.4909     11.01      0.35
 19952.6231     10.46      0.35
 21134.8904     10.06      0.34
 22387.2113     10.69      0.34
 23713.7370     11.48      0.33
 25118.8643     10.41      0.33
 26607.2506      9.50      0.33
 28183.8293      9.26      0.33
 29853.8261      9.17      0.33
 31622.7766      9.19      0.32
 33496.5439      9.22      0.32
 35481.3389      8.25      0.32
 37583.7404      8.06      0.32
 39810.7170      8.77      0.32
 42169.6503      8.70      0.32
 44668.3592      8.29      0.32
 47315.1259      7.93      0.32
 50118.7233      7.64      0.32
 53088.4444      7.31      0.32
 56234.1325      7.11      0.32
 59566.2143      7.34      0.32
 63095.7344      7.14      0.32
 66834.3917      7.07      0.32
 70794.5784      7.49      0.32
 74989.4209      7.84      0.31
 79432.8234      7.63      0.31
 84139.5141      7.41      0.31
 89125.0938      7.20      0.30
 94406.0876      6.99      0.30
100000.          7.26      0.30
ENDDATA            304
ENDSUBENT          325
ENDENTRY             3
