ENTRY            D4136   20220315   20220530   20220530       D136
SUBENT        D4136001   20220315   20220530   20220530       D136
BIB                 12         36
TITLE      Study of the 106Cd(a,a)106Cd scattering at energies
           relevant to the p-process
AUTHOR     (G.G.Kiss, Zs.Fulop, Gy.Gyurky, Z.Mate, E.Somorjai,
            D.Galaviz, A.Kretschmer, K.Sonnabend, A.Zilges)
INSTITUTE  (3HUNDEB,3HUNKOS,2GERTHD)
REFERENCE  (J,EPJ/A,27,(S1),197,2006)
           (J,AND,99,651,2013) revised data tabulated
FACILITY   (CYCLO,3HUNDEB)
SAMPLE     Evaporated highly enriched 106Cd
METHOD     (SITA,EXTB,COINC)
           Targets were prepared by evaporation onto 20 ug/cm2
            carbon backing. Target thickness was about 250 ug/cm2.
           Target stability was monitored during irradiation.
           Small beam spot was used for precise scattering angle
            measurement.
           Scattering angle was determined by coinc measurement
            of elastic scattered alpha particle and the recoiled
            12C.
DETECTOR   (SIBAR) Four detectors were used. Active area 50cm2.
            The solid angles were 1.63 X 10**-4 and 1.55 X 10**-4.
            Two other detectors were used for beam monitoring.
           Angular uncertainty was 0.07 degree.
ERR-ANALYS (DATA-ERR) Statistical uncertainties of each data
            point changes only from <0.3% (forward angles) to
            about 1%-2% (backward angles).
ADD-RES    106Cd(a,g)110Sn S-factor calculated with the measured
            106Cd(a,a)106Cd scattering cross section and optical
            model.
STATUS     (APRVD) Approved by G.G.Kiss
           (APRVD) Revised entry approved by P.Mohr (2013-11-24)
HISTORY    (20060817C)
           (20120601C) Preliminary data were replaced with the
            final data in D4136003, D4136004, D4136005
           (20131124U) On. REFERENCE: AND added
           (20220315A) VT. Subent. 005,004 merged in 003
           (20220315D) On. 002 deleted. (calculated S-factor)
ENDBIB              36
NOCOMMON             0          0
ENDSUBENT           39
NOSUBENT      D4136002   20220315   20220530   20220530       D136
SUBENT        D4136003   20220315   20220530   20220530       D136
BIB                  3          4
REACTION   (48-CD-106(A,EL)48-CD-106,,DA,,RTH)
STATUS     (TABLE) Data were received from author G.G.Kiss
           (SPSDD,D4136006)
HISTORY    (20131124A) On. Superseded
ENDBIB               4
COMMON               2          3
EN-ERR     ANG-ERR
MEV        ADEG
        0.1       0.15
ENDCOMMON            3
DATA                 4        410
EN-CM      ANG-CM     DATA       DATA-ERR
MEV        ADEG       NO-DIM     NO-DIM
      15.55      20.65      0.973     0.0407
      15.55      21.68      0.986     0.0396
      15.55      22.72      0.999     0.0385
      15.55      23.75      0.996     0.0370
      15.55      24.78      0.995     0.0357
      15.55      25.81      0.991     0.0343
      15.55      26.84      0.997     0.0335
      15.55      27.87      1.002     0.0326
      15.55      28.90      0.997     0.0316
      15.55      29.93      0.998     0.0308
      15.55      30.96      0.994     0.0299
      15.55      31.99      1.003     0.0294
      15.55      33.01      1.001     0.0287
      15.55      34.04      0.987     0.0277
      15.55      35.07      0.978     0.0269
      15.55      36.10      0.978     0.0263
      15.55      37.13      0.978     0.0258
      15.55      38.15      0.976     0.0253
      15.55      39.18      0.993     0.0247
      15.55      40.21      0.999     0.0245
      15.55      41.23      1.007     0.0243
      15.55      42.26      1.010     0.0240
      15.55      43.28      1.010     0.0236
      15.55      44.31      1.022     0.0236
      15.55      45.33      1.023     0.0233
      15.55      46.36      1.022     0.0230
      15.55      47.38      1.043     0.0232
      15.55      48.41      1.055     0.0232
      15.55      49.43      1.055     0.0229
      15.55      50.45      1.058     0.0227
      15.55      51.47      1.057     0.0224
      15.55      52.50      1.057     0.0223
      15.55      53.52      1.055     0.0220
      15.55      54.54      1.071     0.0221
      15.55      55.56      1.059     0.0218
      15.55      56.58      1.062     0.0216
      15.55      57.60      1.063     0.0215
      15.55      58.62      1.075     0.0216
      15.55      59.64      1.062     0.0212
      15.55      60.65      1.060     0.0210
      15.55      61.67      1.052     0.0204
      15.55      62.69      1.057     0.0203
      15.55      63.70      1.049     0.0200
      15.55      64.72      1.045     0.0198
      15.55      65.74      1.052     0.0196
      15.55      66.75      1.029     0.0194
      15.55      67.76      1.037     0.0190
      15.55      68.78      1.018     0.0185
      15.55      69.79      1.009     0.0183
      15.55      70.80      0.987     0.0178
      15.55      71.82      0.971     0.0175
      15.55      72.83      0.947     0.0169
      15.55      73.84      0.935     0.0167
      15.55      74.85      0.921     0.0163
      15.55      75.86      0.900     0.0163
      15.55      76.86      0.887     0.0164
      15.55      77.87      0.880     0.0155
      15.55      78.88      0.861     0.0151
      15.55      79.88      0.843     0.0148
      15.55      80.89      0.835     0.0144
      15.55      81.89      0.833     0.0154
      15.55      82.89      0.816     0.0139
      15.55      83.88      0.796     0.0136
      15.55      84.88      0.784     0.0133
      15.55      85.86      0.771     0.0131
      15.55      86.84      0.754     0.0128
      15.55      87.78      0.736     0.0125
      15.55      88.64      0.723     0.0121
      15.55      90.89      0.692     0.0118
      15.55      91.32      0.692     0.0116
      15.55      92.17      0.662     0.0121
      15.55      93.11      0.648     0.0110
      15.55      94.08      0.635     0.0109
      15.55      95.06      0.621     0.0106
      15.55      96.04      0.614     0.0104
      15.55      97.03      0.604     0.0103
      15.55      98.02      0.578     0.0099
      15.55      99.01      0.563     0.0095
      15.55     100.01      0.547     0.0095
      15.55     101.00      0.541     0.0092
      15.55     101.99      0.523     0.0099
      15.55     103.48      0.499     0.0094
      15.55     104.97      0.474     0.0092
      15.55     106.45      0.463     0.0093
      15.55     107.94      0.442     0.0087
      15.55     109.43      0.432     0.0083
      15.55     110.91      0.428     0.0080
      15.55     111.90      0.417     0.0086
      15.55     112.39      0.417     0.0080
      15.55     113.38      0.402     0.0082
      15.55     113.87      0.403     0.0077
      15.55     114.86      0.385     0.0080
      15.55     115.35      0.390     0.0075
      15.55     116.34      0.358     0.0079
      15.55     116.83      0.374     0.0072
      15.55     117.82      0.362     0.0077
      15.55     119.29      0.350     0.0073
      15.55     120.77      0.341     0.0069
      15.55     122.25      0.338     0.0071
      15.55     123.72      0.321     0.0068
      15.55     125.19      0.310     0.0066
      15.55     126.66      0.306     0.0073
      15.55     128.13      0.283     0.0075
      15.55     129.60      0.284     0.0077
      15.55     131.07      0.287     0.0081
      15.55     132.53      0.285     0.0072
      15.55     134.00      0.299     0.0073
      15.55     135.46      0.288     0.0069
      15.55     136.44      0.268     0.0070
      15.55     136.93      0.275     0.0068
      15.55     137.90      0.272     0.0070
      15.55     138.39      0.272     0.0067
      15.55     139.36      0.260     0.0070
      15.55     139.85      0.261     0.0064
      15.55     140.82      0.249     0.0070
      15.55     141.31      0.259     0.0063
      15.55     142.28      0.254     0.0068
      15.55     143.74      0.238     0.0063
      15.55     145.20      0.232     0.0060
      15.55     146.66      0.233     0.0062
      15.55     148.11      0.222     0.0059
      15.55     149.57      0.228     0.0059
      15.55     151.02      0.224     0.0051
      15.55     152.96      0.223     0.0044
      15.55     154.90      0.222     0.0043
      15.55     156.83      0.217     0.0042
      15.55     158.77      0.216     0.0045
      15.55     160.70      0.207     0.0040
      15.55     162.63      0.204     0.0040
      15.55     164.57      0.205     0.0039
      15.55     166.50      0.202     0.0038
      15.55     168.43      0.200     0.0042
      15.55     170.36      0.200     0.0040
      17.00      20.80      1.000     0.0138
      17.00      21.83      1.014     0.0139
      17.00      22.88      1.016     0.0140
      17.00      23.89      1.006     0.0138
      17.00      24.93      0.995     0.0136
      17.00      25.96      0.987     0.0135
      17.00      27.03      0.948     0.0129
      17.00      28.03      0.959     0.0130
      17.00      29.12      0.948     0.0129
      17.00      30.12      0.948     0.0128
      17.00      31.14      0.983     0.0133
      17.00      31.18      0.981     0.0133
      17.00      32.17      0.993     0.0134
      17.00      33.21      0.991     0.0135
      17.00      34.22      0.988     0.0134
      17.00      35.25      0.995     0.0135
      17.00      36.28      0.998     0.0136
      17.00      37.35      1.017     0.0137
      17.00      38.34      1.032     0.0139
      17.00      39.42      1.045     0.0141
      17.00      40.42      1.054     0.0142
      17.00      41.47      1.067     0.0143
      17.00      41.48      1.060     0.0143
      17.00      42.49      1.066     0.0144
      17.00      43.46      1.075     0.0145
      17.00      44.51      1.088     0.0147
      17.00      45.56      1.085     0.0147
      17.00      46.56      1.095     0.0149
      17.00      47.58      1.092     0.0148
      17.00      48.61      1.093     0.0148
      17.00      49.62      1.090     0.0148
      17.00      50.68      1.098     0.0149
      17.00      51.66      1.075     0.0147
      17.00      51.73      1.089     0.0148
      17.00      52.74      1.085     0.0147
      17.00      53.72      1.071     0.0145
      17.00      54.76      1.061     0.0144
      17.00      55.80      1.033     0.0141
      17.00      56.80      1.025     0.0140
      17.00      57.81      1.020     0.0139
      17.00      58.84      1.002     0.0137
      17.00      59.85      0.979     0.0135
      17.00      60.89      0.969     0.0133
      17.00      61.88      0.930     0.0129
      17.00      61.88      0.935     0.0128
      17.00      62.89      0.938     0.0129
      17.00      63.93      0.911     0.0126
      17.00      64.96      0.881     0.0124
      17.00      65.96      0.858     0.0120
      17.00      66.97      0.843     0.0118
      17.00      68.00      0.823     0.0116
      17.00      69.01      0.809     0.0114
      17.00      70.04      0.773     0.0108
      17.00      71.05      0.752     0.0107
      17.00      72.04      0.728     0.0103
      17.00      72.06      0.740     0.0105
      17.00      73.05      0.715     0.0102
      17.00      74.07      0.696     0.0101
      17.00      75.09      0.686     0.0101
      17.00      76.09      0.661     0.0097
      17.00      77.10      0.636     0.0094
      17.00      78.11      0.615     0.0091
      17.00      79.12      0.610     0.0090
      17.00      80.13      0.583     0.0086
      17.00      81.14      0.564     0.0085
      17.00      82.14      0.542     0.0080
      17.00      82.14      0.547     0.0082
      17.00      83.15      0.527     0.0078
      17.00      84.15      0.518     0.0075
      17.00      85.15      0.500     0.0074
      17.00      86.15      0.481     0.0071
      17.00      87.16      0.458     0.0068
      17.00      88.16      0.454     0.0067
      17.00      89.16      0.444     0.0067
      17.00      90.16      0.429     0.0065
      17.00      91.17      0.412     0.0062
      17.00      92.17      0.402     0.0060
      17.00      92.17      0.405     0.0065
      17.00      93.17      0.387     0.0062
      17.00      94.16      0.379     0.0059
      17.00      95.16      0.364     0.0058
      17.00      96.16      0.354     0.0057
      17.00      97.16      0.340     0.0055
      17.00      98.16      0.336     0.0054
      17.00      99.15      0.325     0.0054
      17.00     100.15      0.321     0.0053
      17.00     101.14      0.306     0.0051
      17.00     102.13      0.297     0.0050
      17.00     102.13      0.292     0.0048
      17.00     103.62      0.286     0.0051
      17.00     105.11      0.274     0.0049
      17.00     106.60      0.262     0.0046
      17.00     108.08      0.250     0.0042
      17.00     109.56      0.235     0.0041
      17.00     111.05      0.230     0.0040
      17.00     112.03      0.214     0.0041
      17.00     112.52      0.218     0.0038
      17.00     113.50      0.214     0.0044
      17.00     114.00      0.212     0.0038
      17.00     114.98      0.207     0.0043
      17.00     115.48      0.201     0.0038
      17.00     116.47      0.191     0.0039
      17.00     116.95      0.193     0.0035
      17.00     117.94      0.188     0.0036
      17.00     119.41      0.185     0.0036
      17.00     120.90      0.175     0.0035
      17.00     122.36      0.167     0.0033
      17.00     123.83      0.163     0.0033
      17.00     125.30      0.157     0.0034
      17.00     126.76      0.154     0.0032
      17.00     126.78      0.146     0.0058
      17.00     128.26      0.148     0.0061
      17.00     129.72      0.142     0.0058
      17.00     131.17      0.143     0.0057
      17.00     132.64      0.137     0.0053
      17.00     134.12      0.135     0.0053
      17.00     135.55      0.129     0.0051
      17.00     136.54      0.128     0.0044
      17.00     137.03      0.126     0.0050
      17.00     138.01      0.122     0.0045
      17.00     138.49      0.122     0.0049
      17.00     139.47      0.119     0.0043
      17.00     139.95      0.117     0.0048
      17.00     140.91      0.116     0.0041
      17.00     142.37      0.110     0.0037
      17.00     143.85      0.107     0.0037
      17.00     145.27      0.108     0.0037
      17.00     146.74      0.110     0.0037
      17.00     148.19      0.101     0.0035
      17.00     149.65      0.106     0.0037
      17.00     151.03      0.101     0.0032
      17.00     151.06      0.089     0.0021
      17.00     151.15      0.101     0.0038
      17.00     153.06      0.099     0.0036
      17.00     154.98      0.098     0.0037
      17.00     156.90      0.096     0.0053
      17.00     158.83      0.091     0.0034
      17.00     160.68      0.089     0.0031
      17.00     160.72      0.088     0.0021
      17.00     160.73      0.091     0.0033
      17.00     160.81      0.091     0.0028
      17.00     162.71      0.088     0.0026
      17.00     164.63      0.088     0.0027
      17.00     166.55      0.086     0.0040
      17.00     168.47      0.086     0.0025
      17.00     170.37      0.083     0.0024
      18.88      20.72      0.955     0.0447
      18.88      21.75      0.965     0.0463
      18.88      22.78      0.950     0.0436
      18.88      23.82      0.955     0.0437
      18.88      24.85      0.955     0.0451
      18.88      25.88      0.970     0.0436
      18.88      26.92      0.974     0.0429
      18.88      27.95      0.983     0.0426
      18.88      28.98      0.993     0.0392
      18.88      30.02      1.011     0.0367
      18.88      31.05      1.021     0.0366
      18.88      32.08      1.052     0.0388
      18.88      33.11      1.072     0.0383
      18.88      34.14      1.078     0.0402
      18.88      36.20      1.118     0.0422
      18.88      37.23      1.138     0.0426
      18.88      38.26      1.144     0.0427
      18.88      39.29      1.128     0.0395
      18.88      40.32      1.128     0.0359
      18.88      42.38      1.113     0.0421
      18.88      43.41      1.087     0.0382
      18.88      44.44      1.060     0.0387
      18.88      45.46      1.050     0.0377
      18.88      46.49      1.028     0.0377
      18.88      47.52      1.013     0.0364
      18.88      48.54      0.986     0.0349
      18.88      49.57      0.976     0.0338
      18.88      50.59      0.942     0.0315
      18.88      51.62      0.923     0.0322
      18.88      52.64      0.911     0.0329
      18.88      53.67      0.864     0.0288
      18.88      54.69      0.827     0.0289
      18.88      55.71      0.814     0.0281
      18.88      56.74      0.780     0.0276
      18.88      57.76      0.753     0.0262
      18.88      58.78      0.715     0.0244
      18.88      59.80      0.698     0.0234
      18.88      60.82      0.663     0.0215
      18.88      61.84      0.647     0.0225
      18.88      62.86      0.619     0.0254
      18.88      63.88      0.606     0.0225
      18.88      64.90      0.577     0.0219
      18.88      65.91      0.561     0.0204
      18.88      66.93      0.531     0.0183
      18.88      67.95      0.516     0.0179
      18.88      68.96      0.490     0.0170
      18.88      69.98      0.474     0.0153
      18.88      70.99      0.460     0.0144
      18.88      72.01      0.436     0.0149
      18.88      73.02      0.422     0.0175
      18.88      74.03      0.411     0.0154
      18.88      75.05      0.380     0.0146
      18.88      76.06      0.367     0.0134
      18.88      77.07      0.346     0.0120
      18.88      78.08      0.331     0.0116
      18.88      79.09      0.328     0.0115
      18.88      80.10      0.317     0.0101
      18.88      81.11      0.303     0.0094
      18.88      82.12      0.288     0.0077
      18.88      83.12      0.275     0.0064
      18.88      84.13      0.266     0.0061
      18.88      85.14      0.254     0.0057
      18.88      86.14      0.245     0.0054
      18.88      87.15      0.235     0.0052
      18.88      88.15      0.227     0.0050
      18.88      89.15      0.216     0.0047
      18.88      90.12      0.211     0.0044
      18.88      91.08      0.197     0.0041
      18.88      92.08      0.193     0.0043
      18.88      93.08      0.189     0.0045
      18.88      94.08      0.180     0.0042
      18.88      95.08      0.175     0.0041
      18.88      96.07      0.166     0.0038
      18.88      97.07      0.162     0.0037
      18.88      98.07      0.151     0.0034
      18.88      99.07      0.146     0.0033
      18.88     100.06      0.145     0.0031
      18.88     101.06      0.141     0.0029
      18.88     102.06      0.139     0.0028
      18.88     103.55      0.132     0.0026
      18.88     105.04      0.123     0.0026
      18.88     106.53      0.114     0.0024
      18.88     108.01      0.109     0.0023
      18.88     109.50      0.102     0.0020
      18.88     110.98      0.100     0.0021
      18.88     111.97      0.095     0.0021
      18.88     112.46      0.091     0.0019
      18.88     113.45      0.093     0.0020
      18.88     113.95      0.088     0.0018
      18.88     114.93      0.086     0.0020
      18.88     115.43      0.087     0.0017
      18.88     116.41      0.083     0.0019
      18.88     116.90      0.084     0.0017
      18.88     117.89      0.082     0.0019
      18.88     119.36      0.076     0.0017
      18.88     120.84      0.074     0.0018
      18.88     122.31      0.067     0.0016
      18.88     123.78      0.065     0.0015
      18.88     125.25      0.065     0.0014
      18.88     126.72      0.062     0.0016
      18.88     128.19      0.058     0.0016
      18.88     129.66      0.057     0.0017
      18.88     131.12      0.052     0.0016
      18.88     132.59      0.049     0.0015
      18.88     134.05      0.049     0.0014
      18.88     135.51      0.047     0.0015
      18.88     136.48      0.044     0.0014
      18.88     136.97      0.046     0.0014
      18.88     137.94      0.041     0.0013
      18.88     138.43      0.042     0.0012
      18.88     139.40      0.044     0.0015
      18.88     139.89      0.042     0.0012
      18.88     140.86      0.040     0.0014
      18.88     141.34      0.042     0.0012
      18.88     142.31      0.040     0.0014
      18.88     143.77      0.040     0.0012
      18.88     145.22      0.038     0.0013
      18.88     146.68      0.037     0.0012
      18.88     148.13      0.035     0.0011
      18.88     149.58      0.039     0.0011
      18.88     151.03      0.035     0.0011
      18.88     152.96      0.034     0.0012
      18.88     154.89      0.033     0.0008
      18.88     156.82      0.033     0.0007
      18.88     158.75      0.032     0.0010
      18.88     160.68      0.032     0.0012
      18.88     162.61      0.031     0.0012
      18.88     164.53      0.029     0.0008
      18.88     166.46      0.030     0.0007
      18.88     168.38      0.030     0.0010
      18.88     170.30      0.029     0.0009
ENDDATA            412
ENDSUBENT          425
NOSUBENT      D4136004   20220315   20220530   20220530       D136
NOSUBENT      D4136005   20220315   20220530   20220530       D136
SUBENT        D4136006   20131124   20140228   20140211       D092
BIB                  3          4
REACTION   (48-CD-106(A,EL)48-CD-106,,DA,,RTH)
STATUS     (TABLE) Data tabulated by Peter Mohr
HISTORY    (20131123R) Data received from Peter Mohr
           (20131124C) On
ENDBIB               4
NOCOMMON             0          0
DATA                 4        410
EN-CM      ANG-CM     DATA       DATA-ERR
MEV        ADEG       NO-DIM     NO-DIM
 15.55      20.653     9.7300E-01  4.072E-02
 15.55      21.684     9.8571E-01  3.955E-02
 15.55      22.715     9.9891E-01  3.852E-02
 15.55      23.746     9.9569E-01  3.698E-02
 15.55      24.777     9.9469E-01  3.569E-02
 15.55      25.807     9.9107E-01  3.434E-02
 15.55      26.837     9.9741E-01  3.348E-02
 15.55      27.867     1.0020E+00  3.264E-02
 15.55      28.897     9.9694E-01  3.156E-02
 15.55      29.927     9.9801E-01  3.075E-02
 15.55      30.956     9.9361E-01  2.987E-02
 15.55      31.985     1.0026E+00  2.944E-02
 15.55      33.014     1.0009E+00  2.870E-02
 15.55      34.042     9.8698E-01  2.767E-02
 15.55      35.070     9.7797E-01  2.690E-02
 15.55      36.098     9.7830E-01  2.627E-02
 15.55      37.126     9.7796E-01  2.576E-02
 15.55      38.153     9.7616E-01  2.525E-02
 15.55      39.180     9.9268E-01  2.473E-02
 15.55      40.206     9.9851E-01  2.446E-02
 15.55      41.232     1.0069E+00  2.427E-02
 15.55      42.258     1.0097E+00  2.398E-02
 15.55      43.284     1.0099E+00  2.362E-02
 15.55      44.309     1.0216E+00  2.355E-02
 15.55      45.333     1.0230E+00  2.329E-02
 15.55      46.358     1.0221E+00  2.296E-02
 15.55      47.382     1.0425E+00  2.315E-02
 15.55      48.405     1.0547E+00  2.316E-02
 15.55      49.428     1.0548E+00  2.291E-02
 15.55      50.451     1.0575E+00  2.271E-02
 15.55      51.473     1.0573E+00  2.240E-02
 15.55      52.495     1.0565E+00  2.228E-02
 15.55      53.516     1.0550E+00  2.201E-02
 15.55      54.537     1.0708E+00  2.213E-02
 15.55      55.558     1.0588E+00  2.176E-02
 15.55      56.578     1.0624E+00  2.162E-02
 15.55      57.597     1.0633E+00  2.152E-02
 15.55      58.616     1.0746E+00  2.160E-02
 15.55      59.635     1.0622E+00  2.123E-02
 15.55      60.653     1.0595E+00  2.101E-02
 15.55      61.671     1.0522E+00  2.040E-02
 15.55      62.688     1.0574E+00  2.029E-02
 15.55      63.704     1.0488E+00  2.000E-02
 15.55      64.720     1.0451E+00  1.977E-02
 15.55      65.735     1.0520E+00  1.964E-02
 15.55      66.750     1.0288E+00  1.938E-02
 15.55      67.764     1.0373E+00  1.898E-02
 15.55      68.778     1.0183E+00  1.853E-02
 15.55      69.791     1.0093E+00  1.829E-02
 15.55      70.804     9.8704E-01  1.780E-02
 15.55      71.815     9.7097E-01  1.749E-02
 15.55      72.826     9.4651E-01  1.693E-02
 15.55      73.837     9.3520E-01  1.667E-02
 15.55      74.847     9.2139E-01  1.631E-02
 15.55      75.855     9.0042E-01  1.627E-02
 15.55      76.863     8.8681E-01  1.643E-02
 15.55      77.871     8.8047E-01  1.553E-02
 15.55      78.877     8.6082E-01  1.514E-02
 15.55      79.882     8.4271E-01  1.480E-02
 15.55      80.885     8.3482E-01  1.435E-02
 15.55      81.887     8.3276E-01  1.542E-02
 15.55      82.887     8.1594E-01  1.390E-02
 15.55      83.884     7.9640E-01  1.361E-02
 15.55      84.877     7.8437E-01  1.332E-02
 15.55      85.863     7.7136E-01  1.305E-02
 15.55      86.837     7.5361E-01  1.276E-02
 15.55      87.783     7.3586E-01  1.248E-02
 15.55      88.643     7.2327E-01  1.213E-02
 15.55      90.886     6.9154E-01  1.176E-02
 15.55      91.317     6.9152E-01  1.158E-02
 15.55      92.166     6.6226E-01  1.214E-02
 15.55      93.107     6.4761E-01  1.102E-02
 15.55      94.075     6.3464E-01  1.090E-02
 15.55      95.056     6.2092E-01  1.059E-02
 15.55      96.042     6.1382E-01  1.042E-02
 15.55      97.031     6.0355E-01  1.030E-02
 15.55      98.022     5.7831E-01  9.926E-03
 15.55      99.014     5.6280E-01  9.505E-03
 15.55     100.006     5.4732E-01  9.479E-03
 15.55     100.999     5.4137E-01  9.165E-03
 15.55     101.991     5.2268E-01  9.906E-03
 15.55     103.479     4.9851E-01  9.429E-03
 15.55     104.967     4.7438E-01  9.174E-03
 15.55     106.454     4.6345E-01  9.271E-03
 15.55     107.940     4.4185E-01  8.690E-03
 15.55     109.425     4.3159E-01  8.349E-03
 15.55     110.909     4.2815E-01  7.979E-03
 15.55     111.897     4.1659E-01  8.550E-03
 15.55     112.391     4.1712E-01  8.017E-03
 15.55     113.379     4.0237E-01  8.167E-03
 15.55     113.873     4.0328E-01  7.736E-03
 15.55     114.860     3.8450E-01  8.038E-03
 15.55     115.353     3.8971E-01  7.498E-03
 15.55     116.339     3.5771E-01  7.928E-03
 15.55     116.832     3.7403E-01  7.198E-03
 15.55     117.817     3.6208E-01  7.719E-03
 15.55     119.294     3.5019E-01  7.317E-03
 15.55     120.770     3.4120E-01  6.949E-03
 15.55     122.245     3.3751E-01  7.131E-03
 15.55     123.718     3.2144E-01  6.801E-03
 15.55     125.191     3.0994E-01  6.580E-03
 15.55     126.662     3.0631E-01  7.253E-03
 15.55     128.131     2.8250E-01  7.531E-03
 15.55     129.600     2.8383E-01  7.697E-03
 15.55     131.068     2.8695E-01  8.053E-03
 15.55     132.534     2.8455E-01  7.228E-03
 15.55     134.000     2.9917E-01  7.284E-03
 15.55     135.464     2.8849E-01  6.871E-03
 15.55     136.440     2.6757E-01  7.005E-03
 15.55     136.927     2.7535E-01  6.834E-03
 15.55     137.902     2.7219E-01  7.046E-03
 15.55     138.390     2.7197E-01  6.691E-03
 15.55     139.364     2.6021E-01  6.955E-03
 15.55     139.851     2.6098E-01  6.439E-03
 15.55     140.824     2.4918E-01  7.040E-03
 15.55     141.311     2.5858E-01  6.318E-03
 15.55     142.284     2.5402E-01  6.826E-03
 15.55     143.743     2.3785E-01  6.290E-03
 15.55     145.201     2.3186E-01  5.953E-03
 15.55     146.657     2.3335E-01  6.181E-03
 15.55     148.113     2.2209E-01  5.873E-03
 15.55     149.569     2.2761E-01  5.926E-03
 15.55     151.023     2.2431E-01  5.052E-03
 15.55     152.961     2.2275E-01  4.396E-03
 15.55     154.898     2.2217E-01  4.287E-03
 15.55     156.834     2.1660E-01  4.198E-03
 15.55     158.768     2.1552E-01  4.537E-03
 15.55     160.701     2.0666E-01  4.014E-03
 15.55     162.634     2.0350E-01  3.962E-03
 15.55     164.566     2.0478E-01  3.882E-03
 15.55     166.497     2.0154E-01  3.836E-03
 15.55     168.427     1.9976E-01  4.162E-03
 15.55     170.357     1.9959E-01  3.983E-03
 17.00      20.804     9.9992E-01  1.381E-02
 17.00      21.832     1.0135E+00  1.394E-02
 17.00      22.876     1.0163E+00  1.399E-02
 17.00      23.891     1.0058E+00  1.384E-02
 17.00      24.928     9.9453E-01  1.363E-02
 17.00      25.956     9.8697E-01  1.345E-02
 17.00      27.034     9.4819E-01  1.288E-02
 17.00      28.029     9.5908E-01  1.301E-02
 17.00      29.116     9.4768E-01  1.287E-02
 17.00      30.115     9.4769E-01  1.281E-02
 17.00      31.141     9.8322E-01  1.334E-02
 17.00      31.175     9.8108E-01  1.327E-02
 17.00      32.167     9.9274E-01  1.344E-02
 17.00      33.206     9.9098E-01  1.347E-02
 17.00      34.220     9.8838E-01  1.344E-02
 17.00      35.254     9.9510E-01  1.354E-02
 17.00      36.279     9.9790E-01  1.356E-02
 17.00      37.349     1.0170E+00  1.369E-02
 17.00      38.344     1.0324E+00  1.388E-02
 17.00      39.421     1.0449E+00  1.406E-02
 17.00      40.420     1.0535E+00  1.416E-02
 17.00      41.473     1.0672E+00  1.433E-02
 17.00      41.479     1.0602E+00  1.434E-02
 17.00      42.489     1.0660E+00  1.438E-02
 17.00      43.461     1.0754E+00  1.454E-02
 17.00      44.513     1.0879E+00  1.472E-02
 17.00      45.558     1.0845E+00  1.466E-02
 17.00      46.561     1.0947E+00  1.485E-02
 17.00      47.581     1.0917E+00  1.483E-02
 17.00      48.610     1.0927E+00  1.482E-02
 17.00      49.623     1.0904E+00  1.481E-02
 17.00      50.677     1.0982E+00  1.489E-02
 17.00      51.658     1.0748E+00  1.468E-02
 17.00      51.732     1.0893E+00  1.476E-02
 17.00      52.740     1.0854E+00  1.472E-02
 17.00      53.716     1.0709E+00  1.445E-02
 17.00      54.759     1.0608E+00  1.443E-02
 17.00      55.796     1.0333E+00  1.406E-02
 17.00      56.798     1.0249E+00  1.402E-02
 17.00      57.814     1.0195E+00  1.390E-02
 17.00      58.837     1.0022E+00  1.372E-02
 17.00      59.848     9.7912E-01  1.346E-02
 17.00      60.889     9.6875E-01  1.330E-02
 17.00      61.875     9.3002E-01  1.289E-02
 17.00      61.881     9.3540E-01  1.281E-02
 17.00      62.894     9.3779E-01  1.290E-02
 17.00      63.933     9.1066E-01  1.263E-02
 17.00      64.958     8.8120E-01  1.236E-02
 17.00      65.964     8.5827E-01  1.199E-02
 17.00      66.969     8.4253E-01  1.180E-02
 17.00      67.998     8.2272E-01  1.157E-02
 17.00      69.010     8.0910E-01  1.136E-02
 17.00      70.035     7.7302E-01  1.083E-02
 17.00      71.045     7.5172E-01  1.070E-02
 17.00      72.039     7.2790E-01  1.027E-02
 17.00      72.055     7.4007E-01  1.048E-02
 17.00      73.048     7.1501E-01  1.016E-02
 17.00      74.073     6.9583E-01  1.005E-02
 17.00      75.090     6.8553E-01  1.010E-02
 17.00      76.093     6.6123E-01  9.656E-03
 17.00      77.095     6.3633E-01  9.362E-03
 17.00      78.113     6.1538E-01  9.135E-03
 17.00      79.120     6.1045E-01  9.017E-03
 17.00      80.133     5.8281E-01  8.576E-03
 17.00      81.138     5.6401E-01  8.547E-03
 17.00      82.140     5.4214E-01  8.042E-03
 17.00      82.143     5.4672E-01  8.178E-03
 17.00      83.145     5.2660E-01  7.758E-03
 17.00      84.146     5.1823E-01  7.480E-03
 17.00      85.153     4.9951E-01  7.368E-03
 17.00      86.153     4.8068E-01  7.123E-03
 17.00      87.159     4.5839E-01  6.791E-03
 17.00      88.159     4.5435E-01  6.702E-03
 17.00      89.163     4.4445E-01  6.711E-03
 17.00      90.164     4.2925E-01  6.463E-03
 17.00      91.165     4.1152E-01  6.236E-03
 17.00      92.166     4.0222E-01  6.040E-03
 17.00      92.166     4.0548E-01  6.529E-03
 17.00      93.165     3.8680E-01  6.183E-03
 17.00      94.164     3.7874E-01  5.894E-03
 17.00      95.161     3.6372E-01  5.848E-03
 17.00      96.161     3.5385E-01  5.702E-03
 17.00      97.156     3.3965E-01  5.451E-03
 17.00      98.156     3.3595E-01  5.367E-03
 17.00      99.150     3.2494E-01  5.359E-03
 17.00     100.148     3.2123E-01  5.259E-03
 17.00     101.144     3.0559E-01  5.085E-03
 17.00     102.131     2.9743E-01  4.963E-03
 17.00     102.132     2.9211E-01  4.803E-03
 17.00     103.616     2.8592E-01  5.117E-03
 17.00     105.105     2.7360E-01  4.904E-03
 17.00     106.596     2.6153E-01  4.559E-03
 17.00     108.078     2.4981E-01  4.216E-03
 17.00     109.555     2.3545E-01  4.072E-03
 17.00     111.050     2.2960E-01  4.021E-03
 17.00     112.032     2.1438E-01  4.116E-03
 17.00     112.524     2.1803E-01  3.839E-03
 17.00     113.504     2.1353E-01  4.413E-03
 17.00     114.003     2.1237E-01  3.767E-03
 17.00     114.984     2.0728E-01  4.317E-03
 17.00     115.480     2.0089E-01  3.782E-03
 17.00     116.469     1.9134E-01  3.852E-03
 17.00     116.952     1.9334E-01  3.547E-03
 17.00     117.940     1.8828E-01  3.582E-03
 17.00     119.405     1.8464E-01  3.598E-03
 17.00     120.897     1.7498E-01  3.472E-03
 17.00     122.360     1.6718E-01  3.344E-03
 17.00     123.829     1.6308E-01  3.276E-03
 17.00     125.297     1.5697E-01  3.396E-03
 17.00     126.759     1.5413E-01  3.206E-03
 17.00     126.779     1.4612E-01  5.764E-03
 17.00     128.259     1.4767E-01  6.072E-03
 17.00     129.722     1.4235E-01  5.831E-03
 17.00     131.174     1.4305E-01  5.719E-03
 17.00     132.644     1.3698E-01  5.322E-03
 17.00     134.120     1.3517E-01  5.302E-03
 17.00     135.554     1.2911E-01  5.111E-03
 17.00     136.537     1.2785E-01  4.352E-03
 17.00     137.026     1.2617E-01  4.963E-03
 17.00     138.012     1.2234E-01  4.496E-03
 17.00     138.487     1.2237E-01  4.858E-03
 17.00     139.468     1.1888E-01  4.319E-03
 17.00     139.947     1.1659E-01  4.800E-03
 17.00     140.909     1.1590E-01  4.055E-03
 17.00     142.374     1.1000E-01  3.699E-03
 17.00     143.845     1.0675E-01  3.664E-03
 17.00     145.268     1.0826E-01  3.702E-03
 17.00     146.736     1.0997E-01  3.720E-03
 17.00     148.190     1.0144E-01  3.464E-03
 17.00     149.645     1.0604E-01  3.745E-03
 17.00     151.026     1.0101E-01  3.197E-03
 17.00     151.064     8.9107E-02  2.051E-03
 17.00     151.146     1.0069E-01  3.840E-03
 17.00     153.058     9.8905E-02  3.644E-03
 17.00     154.982     9.7807E-02  3.701E-03
 17.00     156.901     9.5861E-02  5.296E-03
 17.00     158.833     9.1021E-02  3.396E-03
 17.00     160.679     8.8638E-02  3.115E-03
 17.00     160.720     8.8201E-02  2.094E-03
 17.00     160.734     9.0958E-02  3.345E-03
 17.00     160.809     9.0769E-02  2.842E-03
 17.00     162.713     8.8268E-02  2.618E-03
 17.00     164.632     8.8184E-02  2.713E-03
 17.00     166.545     8.6337E-02  3.963E-03
 17.00     168.474     8.5550E-02  2.543E-03
 17.00     170.369     8.2967E-02  2.415E-03
 18.88      20.715     9.5450E-01  4.471E-02
 18.88      21.749     9.6545E-01  4.626E-02
 18.88      22.783     9.5007E-01  4.356E-02
 18.88      23.817     9.5505E-01  4.373E-02
 18.88      24.851     9.5502E-01  4.507E-02
 18.88      25.884     9.6959E-01  4.357E-02
 18.88      26.917     9.7426E-01  4.293E-02
 18.88      27.950     9.8297E-01  4.260E-02
 18.88      28.983     9.9316E-01  3.916E-02
 18.88      30.015     1.0113E+00  3.666E-02
 18.88      31.048     1.0206E+00  3.660E-02
 18.88      32.079     1.0520E+00  3.882E-02
 18.88      33.111     1.0723E+00  3.828E-02
 18.88      34.142     1.0775E+00  4.019E-02
 18.88      36.204     1.1175E+00  4.219E-02
 18.88      37.234     1.1382E+00  4.263E-02
 18.88      38.264     1.1439E+00  4.266E-02
 18.88      39.294     1.1277E+00  3.951E-02
 18.88      40.323     1.1277E+00  3.587E-02
 18.88      42.380     1.1133E+00  4.210E-02
 18.88      43.408     1.0871E+00  3.815E-02
 18.88      44.436     1.0601E+00  3.872E-02
 18.88      45.463     1.0504E+00  3.774E-02
 18.88      46.490     1.0279E+00  3.765E-02
 18.88      47.517     1.0130E+00  3.643E-02
 18.88      48.543     9.8628E-01  3.487E-02
 18.88      49.568     9.7562E-01  3.377E-02
 18.88      50.593     9.4203E-01  3.153E-02
 18.88      51.618     9.2336E-01  3.223E-02
 18.88      52.642     9.1077E-01  3.294E-02
 18.88      53.666     8.6389E-01  2.883E-02
 18.88      54.689     8.2650E-01  2.886E-02
 18.88      55.712     8.1422E-01  2.813E-02
 18.88      56.735     7.8029E-01  2.761E-02
 18.88      57.757     7.5295E-01  2.621E-02
 18.88      58.778     7.1535E-01  2.444E-02
 18.88      59.799     6.9774E-01  2.344E-02
 18.88      60.819     6.6324E-01  2.152E-02
 18.88      61.839     6.4672E-01  2.254E-02
 18.88      62.858     6.1909E-01  2.539E-02
 18.88      63.877     6.0614E-01  2.254E-02
 18.88      64.895     5.7656E-01  2.193E-02
 18.88      65.913     5.6115E-01  2.042E-02
 18.88      66.930     5.3133E-01  1.834E-02
 18.88      67.946     5.1552E-01  1.788E-02
 18.88      68.962     4.8954E-01  1.699E-02
 18.88      69.978     4.7426E-01  1.528E-02
 18.88      70.993     4.6029E-01  1.444E-02
 18.88      72.007     4.3572E-01  1.491E-02
 18.88      73.021     4.2178E-01  1.749E-02
 18.88      74.034     4.1106E-01  1.536E-02
 18.88      75.046     3.8006E-01  1.460E-02
 18.88      76.058     3.6673E-01  1.344E-02
 18.88      77.069     3.4621E-01  1.204E-02
 18.88      78.080     3.3078E-01  1.162E-02
 18.88      79.090     3.2838E-01  1.152E-02
 18.88      80.099     3.1722E-01  1.006E-02
 18.88      81.108     3.0293E-01  9.375E-03
 18.88      82.116     2.8838E-01  7.700E-03
 18.88      83.124     2.7533E-01  6.361E-03
 18.88      84.131     2.6606E-01  6.060E-03
 18.88      85.137     2.5374E-01  5.706E-03
 18.88      86.142     2.4543E-01  5.415E-03
 18.88      87.146     2.3453E-01  5.213E-03
 18.88      88.150     2.2703E-01  4.964E-03
 18.88      89.150     2.1613E-01  4.677E-03
 18.88      90.115     2.1062E-01  4.447E-03
 18.88      91.077     1.9701E-01  4.139E-03
 18.88      92.076     1.9301E-01  4.274E-03
 18.88      93.076     1.8926E-01  4.505E-03
 18.88      94.076     1.8049E-01  4.247E-03
 18.88      95.075     1.7476E-01  4.064E-03
 18.88      96.074     1.6626E-01  3.800E-03
 18.88      97.073     1.6190E-01  3.724E-03
 18.88      98.070     1.5093E-01  3.426E-03
 18.88      99.067     1.4578E-01  3.276E-03
 18.88     100.064     1.4525E-01  3.121E-03
 18.88     101.060     1.4100E-01  2.888E-03
 18.88     102.055     1.3916E-01  2.806E-03
 18.88     103.546     1.3197E-01  2.640E-03
 18.88     105.036     1.2341E-01  2.606E-03
 18.88     106.525     1.1368E-01  2.373E-03
 18.88     108.012     1.0939E-01  2.302E-03
 18.88     109.497     1.0231E-01  2.043E-03
 18.88     110.981     1.0003E-01  2.133E-03
 18.88     111.970     9.4752E-02  2.104E-03
 18.88     112.464     9.1332E-02  1.935E-03
 18.88     113.452     9.2572E-02  2.003E-03
 18.88     113.945     8.8142E-02  1.801E-03
 18.88     114.932     8.5995E-02  2.040E-03
 18.88     115.425     8.6756E-02  1.715E-03
 18.88     116.410     8.2547E-02  1.923E-03
 18.88     116.903     8.4217E-02  1.724E-03
 18.88     117.888     8.1606E-02  1.906E-03
 18.88     119.364     7.5913E-02  1.667E-03
 18.88     120.838     7.3901E-02  1.765E-03
 18.88     122.311     6.6982E-02  1.590E-03
 18.88     123.783     6.4989E-02  1.472E-03
 18.88     125.253     6.4695E-02  1.407E-03
 18.88     126.722     6.1842E-02  1.576E-03
 18.88     128.190     5.8312E-02  1.614E-03
 18.88     129.657     5.7003E-02  1.742E-03
 18.88     131.122     5.1797E-02  1.577E-03
 18.88     132.586     4.8585E-02  1.503E-03
 18.88     134.048     4.9100E-02  1.394E-03
 18.88     135.510     4.6616E-02  1.450E-03
 18.88     136.483     4.3823E-02  1.400E-03
 18.88     136.970     4.5618E-02  1.378E-03
 18.88     137.943     4.0699E-02  1.280E-03
 18.88     138.429     4.2242E-02  1.230E-03
 18.88     139.401     4.4238E-02  1.530E-03
 18.88     139.887     4.2496E-02  1.186E-03
 18.88     140.858     4.0461E-02  1.392E-03
 18.88     141.344     4.1924E-02  1.211E-03
 18.88     142.314     3.9570E-02  1.364E-03
 18.88     143.769     3.9618E-02  1.241E-03
 18.88     145.224     3.8294E-02  1.322E-03
 18.88     146.677     3.6789E-02  1.235E-03
 18.88     148.129     3.5337E-02  1.123E-03
 18.88     149.580     3.8870E-02  1.147E-03
 18.88     151.030     3.5310E-02  1.107E-03
 18.88     152.963     3.3644E-02  1.235E-03
 18.88     154.894     3.3090E-02  8.424E-04
 18.88     156.824     3.2773E-02  7.424E-04
 18.88     158.752     3.2374E-02  1.000E-03
 18.88     160.679     3.1808E-02  1.159E-03
 18.88     162.606     3.0526E-02  1.196E-03
 18.88     164.531     2.8708E-02  7.690E-04
 18.88     166.456     3.0291E-02  7.033E-04
 18.88     168.379     2.9936E-02  9.665E-04
 18.88     170.303     2.9448E-02  8.698E-04
ENDDATA            412
ENDSUBENT          421
ENDENTRY             6
