ENTRY            41158     940928
SUBENT        41158001     940928              20050926       0000
BIB                 11         18
TITLE       LOE-ENERGY NEUTRON SPECTROMETER AND ITS APPLICATION
            FOR CF-252 NEUTRON SPECTRUM MEASUREMENTS
AUTHOR     (A.LAJTAI,P.P.D'YACHENKO,V.N.KONONOV,E.A.SEREGINA)
INSTITUTE  (4ZZZDUB)  LAJTAI
           (4RUSFEI)  D'YACHENKO, KONONOV, SEREGINA
REFERENCE  (J,NIM/A,293,555,90)   DATA TABLE IS GIVEN
DETECTOR   (GLASD)  LI-6 THIN GLASS DETECTOR FOR NEUTRONS
           (FISCH)  FOR FISSION FRAGMENTS
METHOD     (TOF)
MONITOR     ABSOLUTE MEASUREMENTS
PART-DET   (FF,N)
ERR-ANALYS (ERR-T) TOTAL ERROR
           (ERR-1) ERROR OF THE CORRECTION FACTOR
           (ERR-2) ERROR OF EFFICIENCY OF IONOZATION CHAMBER
           (ERR-3) ERROR OF DETERMINATION OF FLIGHT LENGTH AND
                   NEUTRON SOLID ANGLE
STATUS      DATA ARE TAKEN FROM THE REFERENCE
HISTORY    (940928C)  + + COMPILED AT THE CENTRE - CJD + +
ENDBIB              18
COMMON               3          3
ERR-1      ERR-2      ERR-3
PER-CENT   PER-CENT   PER-CENT
 2.          3.         2.
ENDCOMMON            3
ENDSUBENT           25
SUBENT        41158002     940928              20050926       0000
BIB                  2          4
REACTION   (98-CF-252(0,F),PR,DE,N,REL) REFERENCE QUANTITY IS
                                                NOT GIVEN
MISC-COL   (MISC)  RATIO OF THE MEASURED SPECTRUM TO THE MAXWEL-
                   LIAN ONE WITH TEMPERATURE 1.42 MEV
ENDBIB               4
NOCOMMON
DATA                 4         70
E          DATA       ERR-T      MISC
KEV        ARB-UNITS  ARB-UNITS  NO-DIM
  25.        3.530       0.478     1.140
  35.        2.870       0.463     0.790
  45.        4.406       0.477     1.075
  55.        4.200       0.455     0.934
  65.        4.435       0.443     0.913
  75.        4.962       0.454     0.958
  85.        4.834       0.427     0.883
  95.        5.640       0.414     0.981
 105.        5.688       0.391     0.948
 115.        6.402       0.471     1.028
 125.        7.032       0.470     1.089
 135.        6.786       0.453     1.018
 145.        6.495       0.424     0.947
 155.        7.308       0.457     1.038
 165.        7.140       0.438     0.990
 175.        7.546       0.453     1.023
 185.        7.545       0.445     1.002
 195.        7.914       0.464     1.031
 205.        7.674       0.448     0.979
 215.        8.587       0.494     1.080
 225.        7.354       0.423     0.911
 235.        7.695       0.443     0.939
 245.        7.749       0.445     0.933
 255.        7.391       0.431     0.879
 265.        8.167       0.466     0.959
 275.        8.918       0.521     1.035
 285.        8.907       0.534     1.022
 295.        8.798       0.511     1.000
 305.        8.538       0.499     0.961
 315.        8.551       0.503     0.954
 325.        8.984       0.528     0.994
 335.        8.771       0.518     0.962
 345.        8.454       0.505     0.920
 355.        8.831       0.529     0.954
 365.        9.357       0.560     1.004
 375.        9.404       0.563     1.003
 385.        9.075       0.549     0.962
 395.        9.192       0.554     0.970
 410.        9.577       0.560     1.001
 430.        9.888       0.587     1.024
 450.        9.393       0.550     0.964
 470.        9.712       0.624     0.989
 490.        9.362       0.564     0.947
 510.        9.697       0.566     0.975
 530.        9.889       0.598     0.989
 550.        9.770       0.578     0.976
 570.        9.711       0.580     0.963
 590.        9.667       0.591     0.955
 610.        9.982       0.614     0.985
 630.        9.938       0.613     0.978
 650.       10.020       0.626     0.985
 670.        9.983       0.625     0.980
 690.        9.924       0.653     0.974
 710.       10.296       0.642     1.011
 735.       10.467       0.646     1.028
 765.       10.509       0.629     1.033
 795.       10.032       0.625     0.988
 825.        9.881       0.617     0.976
 855.        9.970       0.626     0.988
 885.       10.013       0.623     0.996
 915.        9.768       0.616     0.974
 945.        9.755       0.621     0.978
 975.        9.597       0.592     0.969
1005.        9.516       0.590     0.966
1020.        9.401       0.587     0.958
1060.        9.864       0.608     1.014
1100.        9.822       0.621     1.019
1140.        9.985       0.618     1.046
1180.        9.486       0.590     1.005
1220.        9.820       0.603     1.053
ENDDATA             72
ENDSUBENT           81
ENDENTRY             2
