ENTRY            32807   20241011   20250113   20250113       3215
SUBENT        32807001   20241011   20250113   20250113       3215
BIB                 12         56
TITLE      Measurement of the neutron total cross section of
           carbon at the Back-n white neutron beam of CSNS
AUTHOR     (Xing-Yan Liu,Yi-Wei Yang,Rong Liu,Jie Wen,
           Zhong-Wei Wen,Zi-Jie Han,Zhi-Zhou Ren,Qi An,
           Huai-Yong Bai,Jie Bao,Ping Cao, Qi-Ping Chen,
           Yong-Hao Chen,Pin-Jing Cheng,Zeng-Qi Cui,Rui-Rui Fan,
           Chang-Qing Feng,Min-Hao Gu,Feng-Qin Guo,Chang-Cai Han,
           Guo-Zhu He,Yong-Cheng He,Yue-Feng He,Han-Xiong Huang,
           Wei-Ling Huang,Xi-Ru Huang,Xiao-Lu Ji,Xu-Yang Ji,
           Hao-Yu Jiang,Wei Jiang,Han-Tao Jing,Ling Kang,
           Ming-Tao Kang,Bo Li,Lun Li, Qiang Li,Xiao Li,Yang Li,
           Yang Li,Shu-Bin Liu,Guang-Yuan Luan,Ying-Lin Ma,
           Chang-Jun Ning,Bin-Bin Qi,Jie Ren,Xi-Chao Ruan,
           Zhao-Hui Song,Hong Sun,Xiao-Yang Sun,Zhi-Jia Sun,
           Zhi-Xin Tan,Hong-Qing Tang,Jing-Yu Tang,
           Peng-Cheng Wang,Qi Wang, Tao-Feng Wang,Yan-Feng Wang,
           Zhao-Hui Wang,Zheng Wang,Qing-Biao Wu,Xiao-Guang Wu,
           Xuan Wu,Li-Kun Xie,Han Yi,Li Yu, Tao Yu,Yong-Ji Yu,
           Guo-Hui Zhang,Jing Zhang,Lin-Hao Zhang, Li-Ying Zhang,
           Qing-Min Zhang,Qi-Wei Zhang,Xian-Peng Zhang,
           Yu-Liang Zhang,Zhi-Yong Zhang,Ying-Tan Zhao,
           Liang Zhou,Zu-Ying Zhou,Dan-Yang Zhu,Ke-Jun Zhu,
           Peng Zhu)
INSTITUTE  (3CPRNPC,3CPRHST,3CPRBJG,3CPRAEP,3CPRIHP,3CPRNIX,
           3CPRBHN)
           (3CPRCPR) State Key Laboratory of Particle Detection
           and Electronics, Chinese Academy of Sciences (CAS),
           Beijing
           (3CPRCPR) Spallation Neutron Source Science Center,
           Dongguan
           (3CPRCPR) University of South China, Hengyang
           (3CPRCPR) Xian Jiaotong University, Xian
REFERENCE  (J,CNST,30,139,2019)
           #doi:10.1007/s41365-019-0660-9
FACILITY   (SYNCH,3CPRIHP) Back-n white neutron source of China
           Spallation Neutron Source (CSNS)
INC-SOURCE (SPALL) Neutrons are produced via 1.6 GeV proton-
           induced spallation reactions on a Tungsten target.
           The incident proton pulse was in double-bunch mode,
           about 50 ns (FWHM) wide and 410 ns apart.
SAMPLE     A cylindrical natural graphite sample with diameter
           of 70.07 +- 0.02 mm, thickness of 40.03 +- 0.02 mm
           and mass of 287.79 +- 0.01 g. The calculated density
           of the sample was 1.86 g/cm3.
DETECTOR   (FISCH) A multilayer fast ionization chamber is
           located in the neutron beam line at Endstation 2.
           Three 235U and three 238U cells are located in the
           detector.
METHOD     (TOF) A flight path about 76 m.
ERR-ANALYS (ERR-S) The uncertainty of the counting statistics is
           generally approximately 3% for each bin in the energy
           range of 1-20 MeV.
STATUS     (TABLE,,Xingyan Liu+,J,CNST,30,139,2019)
            Data presented by author
HISTORY    (20241210R) The data received from Xing-Yan Liu
           (20241011C) Jimin Wang (CNDC)
ENDBIB              56
NOCOMMON             0          0
ENDSUBENT           59
SUBENT        32807002   20241011   20250113   20250113       3215
BIB                  3          3
REACTION   (6-C-0(N,TOT),,SIG)
COMMENT    The measured results with 235U cells
STATUS     (COREL,32807003) Data measured with 238U cells
ENDBIB               3
NOCOMMON             0          0
DATA                 3        751
EN         DATA       ERR-S
EV         B          PER-CENT
  1.001E+00    4.87946       1.80
  1.024E+00    4.67405       1.76
  1.048E+00    4.78497       1.62
  1.073E+00    4.85710       1.54
  1.098E+00    4.81349       1.53
  1.123E+00    4.78548       1.67
  1.149E+00    4.75613       1.94
  1.176E+00    4.77173       2.35
  1.204E+00    4.88666       2.72
  1.232E+00    5.02888       3.11
  1.260E+00    5.07968       2.90
  1.290E+00    4.53944       3.48
  1.320E+00    4.72830       3.71
  1.351E+00    4.86477       3.62
  1.382E+00    4.76001       3.55
  1.414E+00    4.78502       3.76
  1.447E+00    4.62963       4.05
  1.481E+00    4.76792       4.05
  1.515E+00    5.06704       3.73
  1.551E+00    4.79940       4.17
  1.587E+00    5.17181       3.84
  1.624E+00    4.75820       4.27
  1.661E+00    4.81222       4.10
  1.700E+00    5.08205       3.99
  1.740E+00    4.78759       4.44
  1.780E+00    4.86747       3.88
  1.822E+00    4.83415       3.99
  1.864E+00    4.64282       4.21
  1.908E+00    4.51140       3.95
  1.952E+00    4.57323       3.23
  1.998E+00    4.92951       3.42
  2.044E+00    4.69109       4.61
  2.092E+00    5.02019       4.29
  2.140E+00    4.80720       4.66
  2.190E+00    4.80535       4.98
  2.241E+00    4.67613       4.96
  2.294E+00    5.06599       4.75
  2.347E+00    5.27756       4.51
  2.402E+00    5.21486       4.87
  2.458E+00    4.70850       5.76
  2.515E+00    5.21240       5.28
  2.573E+00    5.02822       5.87
  2.633E+00    4.96240       5.66
  2.695E+00    5.24243       4.05
  2.757E+00    4.80839       3.87
  2.822E+00    4.79625       3.59
  2.887E+00    5.02243       3.25
  2.955E+00    5.11820       2.58
  3.023E+00    4.86488       2.25
  3.094E+00    4.61610       2.87
  3.166E+00    4.87054       3.91
  3.240E+00    4.89157       3.93
  3.315E+00    4.83008       4.06
  3.392E+00    4.85896       2.71
  3.471E+00    4.56863       2.19
  3.552E+00    4.83304       2.84
  3.635E+00    4.71033       7.19
  3.720E+00    4.53690      11.86
  3.806E+00    5.95174       9.25
  3.895E+00    4.60595      13.56
  3.986E+00    4.43341      11.12
  4.078E+00    4.65514      12.33
  4.173E+00    4.85568      11.72
  4.271E+00    4.97959      13.56
  4.370E+00    4.49549      10.08
  4.472E+00    4.46099       8.45
  4.576E+00    4.34277       6.69
  4.683E+00    4.54204       4.12
  4.792E+00    4.89237       6.82
  4.903E+00    5.25545       5.78
  5.018E+00    4.85413       5.08
  5.135E+00    5.00849       4.17
  5.254E+00    4.95431       3.51
  5.377E+00    4.68552       3.72
  5.502E+00    5.11241       3.40
  5.630E+00    4.71656       3.59
  5.761E+00    4.75344       3.11
  5.895E+00    5.00849       2.23
  6.033E+00    4.93000       1.83
  6.173E+00    4.64117       1.49
  6.317E+00    4.96972       3.15
  6.464E+00    4.94374       6.03
  6.615E+00    4.93381       4.98
  6.769E+00    4.70766       2.24
  6.926E+00    4.75149       2.59
  7.088E+00    4.86279       6.64
  7.253E+00    4.63398      10.08
  7.422E+00    5.11763      10.10
  7.595E+00    4.48518      10.24
  7.771E+00    4.72949       7.46
  7.952E+00    5.02681       3.86
  8.138E+00    4.82158       2.36
  8.327E+00    4.70797       0.92
  8.521E+00    4.84253       0.61
  8.720E+00    4.83545       1.17
  8.923E+00    4.86665       1.38
  9.131E+00    4.91131       1.85
  9.343E+00    4.87025       2.47
  9.561E+00    4.82152       3.29
  9.784E+00    4.80570       2.88
  1.001E+01    4.81732       3.75
  1.024E+01    4.80240       3.83
  1.048E+01    4.88397       3.90
  1.073E+01    5.02376       3.69
  1.098E+01    4.58646       3.38
  1.123E+01    4.72251       1.89
  1.149E+01    4.86787       3.06
  1.176E+01    4.87746       1.37
  1.204E+01    4.74087       0.94
  1.232E+01    4.82342       2.54
  1.260E+01    4.63005       3.14
  1.290E+01    4.84065       2.73
  1.320E+01    4.80769       2.05
  1.351E+01    4.90389       1.50
  1.382E+01    4.90541       1.83
  1.414E+01    4.91491       2.67
  1.447E+01    4.77883       4.04
  1.481E+01    4.67666       2.12
  1.515E+01    4.74300       3.94
  1.551E+01    5.16885       1.85
  1.587E+01    4.83698       2.57
  1.624E+01    4.86447       1.95
  1.661E+01    4.68800       4.61
  1.700E+01    4.67440       3.78
  1.740E+01    5.08292       1.45
  1.780E+01    4.79208       2.79
  1.822E+01    4.75311       1.88
  1.864E+01    4.58825       0.85
  1.908E+01    4.89298       2.29
  1.952E+01    4.75082       3.29
  1.998E+01    4.95275       2.30
  2.044E+01    4.94785       1.60
  2.092E+01    4.81243       6.65
  2.140E+01    5.18264       7.53
  2.190E+01    5.08442       2.56
  2.241E+01    4.91903       1.78
  2.294E+01    4.87410       1.62
  2.347E+01    4.82630       1.96
  2.402E+01    4.82372       2.10
  2.458E+01    4.84077       1.55
  2.515E+01    4.71155       2.54
  2.573E+01    4.69963       2.13
  2.633E+01    4.90082       3.44
  2.695E+01    5.00849       1.94
  2.757E+01    4.77978       2.99
  2.822E+01    4.94052       4.97
  2.887E+01    4.64544       4.16
  2.955E+01    4.66411       2.30
  3.023E+01    4.88773       3.31
  3.094E+01    4.76333       1.23
  3.166E+01    4.82971       3.72
  3.240E+01    4.64088       1.55
  3.315E+01    4.83402       1.18
  3.392E+01    4.78204       0.93
  3.471E+01    4.82459       2.23
  3.552E+01    4.89778       3.20
  3.635E+01    4.95708       3.23
  3.720E+01    4.64364       2.83
  3.806E+01    4.93918       1.47
  3.895E+01    4.89245       2.44
  3.986E+01    4.79374       1.82
  4.078E+01    4.62561       1.97
  4.173E+01    4.82375       2.51
  4.271E+01    4.62674       2.04
  4.370E+01    4.66258       2.68
  4.472E+01    4.74401       2.59
  4.576E+01    4.65568       2.14
  4.683E+01    4.83652       1.76
  4.792E+01    4.87787       2.05
  4.903E+01    4.87557       1.06
  5.018E+01    4.78283       1.04
  5.135E+01    4.86283       1.81
  5.254E+01    4.85127       1.56
  5.377E+01    4.86808       0.89
  5.502E+01    4.87096       1.04
  5.630E+01    4.78981       1.27
  5.761E+01    4.80256       1.80
  5.895E+01    4.91010       1.83
  6.033E+01    4.76790       2.67
  6.173E+01    4.57695       2.49
  6.317E+01    4.82918       3.89
  6.464E+01    4.87764       4.32
  6.615E+01    4.78221       2.99
  6.769E+01    4.71027       1.16
  6.926E+01    4.73264       1.44
  7.088E+01    4.84250       1.98
  7.253E+01    4.68767       1.47
  7.422E+01    4.90074       2.73
  7.595E+01    4.95881       2.17
  7.771E+01    4.77882       2.17
  7.952E+01    4.82962       2.28
  8.138E+01    4.82471       1.35
  8.327E+01    4.84961       2.58
  8.521E+01    4.95540       1.85
  8.720E+01    4.99648       1.93
  8.923E+01    4.73665       1.78
  9.131E+01    4.89069       2.26
  9.343E+01    4.52997       2.60
  9.561E+01    4.95678       2.49
  9.784E+01    4.84942       3.58
  1.001E+02    4.76654       2.08
  1.024E+02    4.93848       1.98
  1.048E+02    4.80683       2.34
  1.073E+02    4.80754       2.55
  1.098E+02    4.45338       3.24
  1.123E+02    4.72984       2.08
  1.149E+02    4.85091       1.79
  1.176E+02    4.80821       1.63
  1.204E+02    4.78379       1.69
  1.232E+02    4.73622       2.27
  1.260E+02    4.81958       4.07
  1.290E+02    4.92208       2.52
  1.320E+02    4.79892       2.44
  1.351E+02    4.77555       3.00
  1.382E+02    4.72416       2.44
  1.414E+02    5.03937       1.83
  1.447E+02    4.84343       1.93
  1.481E+02    4.75400       2.71
  1.515E+02    4.80292       2.71
  1.551E+02    4.74750       2.29
  1.587E+02    4.97633       1.97
  1.624E+02    4.89651       1.83
  1.661E+02    4.70456       2.88
  1.700E+02    4.99668       1.44
  1.740E+02    4.84015       2.01
  1.780E+02    4.81339       4.06
  1.822E+02    4.78067       3.15
  1.864E+02    4.83609       2.56
  1.908E+02    4.56030       2.18
  1.952E+02    4.89634       2.00
  1.998E+02    4.68829       2.54
  2.044E+02    4.81897       1.87
  2.092E+02    4.75462       2.54
  2.140E+02    4.76348       1.85
  2.190E+02    5.00713       2.12
  2.241E+02    4.84191       1.75
  2.294E+02    4.70405       2.14
  2.347E+02    4.62119       1.87
  2.402E+02    4.78331       2.72
  2.458E+02    4.93492       2.14
  2.515E+02    4.87852       1.70
  2.573E+02    4.79213       1.70
  2.633E+02    4.87431       1.60
  2.695E+02    4.76703       2.03
  2.757E+02    4.89813       2.46
  2.822E+02    4.71379       2.31
  2.887E+02    5.06134       2.32
  2.955E+02    4.91674       2.44
  3.023E+02    4.50873       2.64
  3.094E+02    4.81342       2.54
  3.166E+02    4.76708       2.82
  3.240E+02    4.69885       3.48
  3.315E+02    5.07001       3.00
  3.392E+02    4.81217       3.20
  3.471E+02    4.88695       2.83
  3.552E+02    4.81562       2.84
  3.635E+02    5.20687       2.67
  3.720E+02    4.77541       2.49
  3.806E+02    4.88785       3.54
  3.895E+02    4.64782       2.73
  3.986E+02    4.67416       3.08
  4.078E+02    4.98654       2.15
  4.173E+02    5.04247       1.99
  4.271E+02    4.83384       2.10
  4.370E+02    4.74613       2.62
  4.472E+02    5.08711       1.77
  4.576E+02    4.89113       1.95
  4.683E+02    4.81921       2.03
  4.792E+02    4.74748       1.97
  4.903E+02    4.71926       1.79
  5.018E+02    4.81414       2.05
  5.135E+02    4.83277       1.95
  5.254E+02    4.89346       2.34
  5.377E+02    4.80600       2.47
  5.502E+02    4.60839       2.01
  5.630E+02    4.90818       2.16
  5.761E+02    5.04460       1.91
  5.895E+02    4.72395       2.10
  6.033E+02    4.65727       2.39
  6.173E+02    4.75694       2.13
  6.317E+02    4.79591       2.75
  6.464E+02    4.84314       2.30
  6.615E+02    4.82804       2.46
  6.769E+02    5.04287       2.03
  6.926E+02    4.85354       2.54
  7.088E+02    4.67095       2.71
  7.253E+02    4.79633       2.75
  7.422E+02    4.97448       2.09
  7.595E+02    4.77160       2.07
  7.771E+02    4.82898       3.15
  7.952E+02    4.81462       3.24
  8.138E+02    4.84334       2.50
  8.327E+02    4.65988       2.55
  8.521E+02    4.74013       2.64
  8.720E+02    5.01891       1.99
  8.923E+02    4.69518       1.90
  9.131E+02    4.65940       3.03
  9.343E+02    4.81037       3.28
  9.561E+02    4.64189       2.84
  9.784E+02    4.84584       2.83
  1.001E+03    4.87704       2.41
  1.024E+03    4.79216       1.78
  1.048E+03    4.95963       3.05
  1.073E+03    4.97835       3.58
  1.098E+03    4.87206       2.61
  1.123E+03    4.78780       2.08
  1.149E+03    4.87562       2.57
  1.176E+03    4.75778       2.34
  1.204E+03    4.68774       2.72
  1.232E+03    4.93401       2.66
  1.260E+03    4.81014       2.31
  1.290E+03    4.67373       2.19
  1.320E+03    4.72145       1.93
  1.351E+03    4.74294       2.66
  1.382E+03    4.86819       2.81
  1.414E+03    4.73558       2.39
  1.447E+03    4.72605       3.04
  1.481E+03    4.87497       2.89
  1.515E+03    4.95092       2.70
  1.551E+03    4.79247       2.59
  1.587E+03    4.94851       2.33
  1.624E+03    4.69921       2.23
  1.661E+03    4.83615       2.18
  1.700E+03    4.83634       2.31
  1.740E+03    4.70362       2.90
  1.780E+03    4.74439       2.63
  1.822E+03    4.68732       2.45
  1.864E+03    4.61214       2.43
  1.908E+03    4.68730       1.91
  1.952E+03    4.87763       3.08
  1.998E+03    5.08447       2.67
  2.044E+03    4.88545       2.89
  2.092E+03    4.80492       2.73
  2.140E+03    4.85765       2.66
  2.190E+03    4.90655       2.73
  2.241E+03    4.74710       2.92
  2.294E+03    4.82106       3.01
  2.347E+03    4.90321       2.71
  2.402E+03    4.67955       2.75
  2.458E+03    5.03867       2.23
  2.515E+03    4.95228       2.49
  2.573E+03    4.73562       3.82
  2.633E+03    4.94012       2.33
  2.695E+03    4.74056       2.88
  2.757E+03    5.09533       2.22
  2.822E+03    4.71668       2.57
  2.887E+03    4.55926       2.57
  2.955E+03    4.73863       3.12
  3.023E+03    4.86119       2.66
  3.094E+03    4.77707       2.80
  3.166E+03    4.84437       2.36
  3.240E+03    5.01675       2.36
  3.315E+03    5.00186       2.84
  3.392E+03    4.97117       2.53
  3.471E+03    4.75849       2.66
  3.552E+03    4.93153       2.17
  3.635E+03    4.75157       2.54
  3.720E+03    4.81220       3.15
  3.806E+03    4.68348       2.88
  3.895E+03    5.00387       2.71
  3.986E+03    4.79602       2.48
  4.078E+03    4.71038       2.73
  4.173E+03    4.77232       2.73
  4.271E+03    4.61641       2.75
  4.370E+03    4.81259       2.63
  4.472E+03    4.81977       2.59
  4.576E+03    4.77180       2.39
  4.683E+03    4.79600       2.75
  4.792E+03    4.78591       2.76
  4.903E+03    4.94077       2.45
  5.018E+03    4.80678       2.97
  5.135E+03    4.86983       2.40
  5.254E+03    4.89664       2.54
  5.377E+03    4.89508       2.17
  5.502E+03    4.72435       2.98
  5.630E+03    4.69491       3.01
  5.761E+03    4.70448       2.77
  5.895E+03    5.04199       2.67
  6.033E+03    4.67172       2.97
  6.173E+03    5.07998       2.63
  6.317E+03    4.80584       2.76
  6.464E+03    4.75238       2.74
  6.615E+03    4.89800       2.62
  6.769E+03    4.97284       2.54
  6.926E+03    4.81453       2.90
  7.088E+03    4.86081       2.52
  7.253E+03    4.96329       2.83
  7.422E+03    4.78083       3.41
  7.595E+03    4.51757       3.60
  7.771E+03    4.89074       3.06
  7.952E+03    4.71737       3.04
  8.138E+03    4.83243       2.97
  8.327E+03    4.80638       2.74
  8.521E+03    4.84918       2.74
  8.720E+03    4.73499       2.63
  8.923E+03    4.68858       2.59
  9.131E+03    4.79750       2.76
  9.343E+03    4.87229       2.78
  9.561E+03    4.90357       2.61
  9.784E+03    4.70457       2.70
  1.001E+04    4.79460       2.89
  1.024E+04    4.83548       2.60
  1.048E+04    4.91492       2.65
  1.073E+04    4.78639       2.62
  1.098E+04    4.89180       2.46
  1.123E+04    5.01359       2.54
  1.149E+04    4.85502       2.58
  1.176E+04    4.57576       3.01
  1.204E+04    5.00990       2.73
  1.232E+04    4.77532       2.68
  1.260E+04    4.83530       2.57
  1.290E+04    4.99124       2.62
  1.320E+04    4.92512       2.62
  1.351E+04    4.85533       2.47
  1.382E+04    4.81684       2.54
  1.414E+04    4.86637       2.47
  1.447E+04    4.94698       2.45
  1.481E+04    4.73519       2.92
  1.515E+04    4.95741       3.01
  1.551E+04    4.54649       3.04
  1.587E+04    4.73246       2.87
  1.624E+04    4.77932       2.92
  1.661E+04    4.82509       2.84
  1.700E+04    5.14952       2.40
  1.740E+04    4.79235       2.60
  1.780E+04    4.80992       2.80
  1.822E+04    5.05595       2.57
  1.864E+04    4.94062       2.48
  1.908E+04    4.92569       2.45
  1.952E+04    4.87239       2.46
  1.998E+04    4.99632       2.44
  2.044E+04    4.81288       2.39
  2.092E+04    4.73926       2.17
  2.140E+04    4.74588       2.31
  2.190E+04    4.76860       2.48
  2.241E+04    4.79225       2.37
  2.294E+04    4.90247       2.08
  2.347E+04    4.71181       2.09
  2.402E+04    4.71390       1.88
  2.458E+04    4.64872       1.90
  2.515E+04    4.88932       1.89
  2.573E+04    4.64823       2.37
  2.633E+04    4.86317       2.89
  2.695E+04    4.75116       3.35
  2.757E+04    4.83948       2.94
  2.822E+04    4.94144       2.55
  2.887E+04    4.79364       2.58
  2.955E+04    4.85632       2.47
  3.023E+04    4.74216       2.54
  3.094E+04    4.96164       2.35
  3.166E+04    4.53596       2.59
  3.240E+04    4.67330       2.78
  3.315E+04    4.78914       2.93
  3.392E+04    5.12365       2.67
  3.471E+04    5.01186       2.77
  3.552E+04    4.59652       2.71
  3.635E+04    4.69507       2.53
  3.720E+04    4.73453       2.53
  3.806E+04    4.84075       2.34
  3.895E+04    4.85691       2.27
  3.986E+04    4.87272       2.15
  4.078E+04    4.87858       2.03
  4.173E+04    4.73188       2.07
  4.271E+04    4.69582       2.18
  4.370E+04    4.82774       2.01
  4.472E+04    4.73481       1.95
  4.576E+04    4.70056       1.93
  4.683E+04    4.64707       2.00
  4.792E+04    4.86609       2.06
  4.903E+04    4.85198       2.02
  5.018E+04    4.64283       2.08
  5.135E+04    4.75806       1.95
  5.254E+04    4.62836       1.94
  5.377E+04    4.82647       1.81
  5.502E+04    4.68985       1.78
  5.630E+04    4.55699       1.81
  5.761E+04    4.70688       1.83
  5.895E+04    4.74329       1.75
  6.033E+04    4.73478       1.73
  6.173E+04    4.57261       1.76
  6.317E+04    4.75896       1.69
  6.464E+04    4.69479       1.66
  6.615E+04    4.64697       1.72
  6.769E+04    4.63023       1.61
  6.926E+04    4.65927       1.82
  7.088E+04    4.76143       1.66
  7.253E+04    4.64500       1.77
  7.422E+04    4.61915       1.79
  7.595E+04    4.78065       1.68
  7.771E+04    4.57321       1.96
  7.952E+04    4.56104       1.86
  8.138E+04    4.51215       2.15
  8.327E+04    4.66563       2.00
  8.521E+04    4.61726       1.96
  8.720E+04    4.66389       1.85
  8.923E+04    4.64530       1.71
  9.131E+04    4.41356       1.80
  9.343E+04    4.64356       1.60
  9.561E+04    4.51428       1.64
  9.784E+04    4.48724       1.59
  1.001E+05    4.52874       1.54
  1.024E+05    4.55842       1.51
  1.048E+05    4.55816       1.52
  1.073E+05    4.54823       1.50
  1.098E+05    4.45210       1.52
  1.123E+05    4.52922       1.46
  1.149E+05    4.45920       1.41
  1.176E+05    4.57073       1.41
  1.204E+05    4.44080       1.41
  1.232E+05    4.52701       1.28
  1.260E+05    4.46201       1.35
  1.290E+05    4.43494       1.44
  1.320E+05    4.51146       1.45
  1.351E+05    4.44816       1.50
  1.382E+05    4.43923       1.57
  1.414E+05    4.51542       1.52
  1.447E+05    4.49673       1.47
  1.481E+05    4.35201       1.46
  1.515E+05    4.45804       1.39
  1.551E+05    4.36758       1.42
  1.587E+05    4.38730       1.35
  1.624E+05    4.38104       1.28
  1.661E+05    4.26825       1.30
  1.700E+05    4.33073       1.30
  1.740E+05    4.39091       1.28
  1.780E+05    4.40035       1.22
  1.822E+05    4.32126       1.31
  1.864E+05    4.18710       1.34
  1.908E+05    4.35899       1.28
  1.952E+05    4.10341       1.32
  1.998E+05    4.28780       1.23
  2.044E+05    4.22401       1.24
  2.092E+05    4.16127       1.22
  2.140E+05    4.07403       1.27
  2.190E+05    4.22424       1.18
  2.241E+05    4.16773       1.16
  2.294E+05    4.10859       1.18
  2.347E+05    4.13808       1.13
  2.402E+05    4.03827       1.15
  2.458E+05    4.01356       1.16
  2.515E+05    4.09661       1.17
  2.573E+05    4.07830       1.13
  2.633E+05    4.06876       1.12
  2.695E+05    4.05126       1.14
  2.757E+05    4.07170       1.10
  2.822E+05    4.00696       1.13
  2.887E+05    4.01508       1.08
  2.955E+05    3.90735       1.11
  3.023E+05    3.91833       1.06
  3.094E+05    3.89124       1.08
  3.166E+05    3.95037       1.05
  3.240E+05    3.94359       1.07
  3.315E+05    3.86352       1.03
  3.392E+05    3.83639       1.02
  3.471E+05    3.77832       1.06
  3.552E+05    3.79876       1.05
  3.635E+05    3.71184       1.07
  3.752E+05    3.65256       1.65
  3.786E+05    3.78299       1.58
  3.820E+05    3.75107       1.63
  3.855E+05    3.70335       1.64
  3.890E+05    3.72072       1.64
  3.926E+05    3.60629       1.67
  3.962E+05    3.61360       1.65
  3.998E+05    3.65846       1.64
  4.036E+05    3.54172       1.67
  4.073E+05    3.69759       1.59
  4.111E+05    3.68708       1.63
  4.150E+05    3.76391       1.59
  4.189E+05    3.79998       1.63
  4.229E+05    3.64232       1.66
  4.270E+05    3.71754       1.64
  4.311E+05    3.68345       1.65
  4.352E+05    3.53959       1.68
  4.394E+05    3.71864       1.60
  4.437E+05    3.57213       1.64
  4.481E+05    3.70327       1.60
  4.525E+05    3.64630       1.58
  4.569E+05    3.52724       1.59
  4.615E+05    3.44078       1.61
  4.661E+05    3.59949       1.54
  4.708E+05    3.61553       1.51
  4.755E+05    3.44665       1.59
  4.803E+05    3.43634       1.57
  4.852E+05    3.46393       1.53
  4.902E+05    3.49809       1.54
  4.952E+05    3.41529       1.52
  5.003E+05    3.47552       1.45
  5.055E+05    3.36316       1.53
  5.108E+05    3.45206       1.48
  5.162E+05    3.51065       1.43
  5.217E+05    3.39548       1.46
  5.272E+05    3.54936       1.43
  5.328E+05    3.63540       1.38
  5.385E+05    3.45255       1.43
  5.444E+05    3.34668       1.45
  5.503E+05    3.38497       1.42
  5.563E+05    3.31898       1.45
  5.624E+05    3.41576       1.40
  5.686E+05    3.37071       1.42
  5.749E+05    3.21705       1.49
  5.813E+05    3.44801       1.39
  5.878E+05    3.23238       1.43
  5.944E+05    3.02849       1.53
  6.012E+05    3.15783       1.45
  6.080E+05    3.24359       1.37
  6.150E+05    3.14048       1.43
  6.221E+05    3.23573       1.38
  6.293E+05    3.14420       1.42
  6.367E+05    3.23724       1.38
  6.441E+05    3.33278       1.36
  6.518E+05    3.07609       1.46
  6.595E+05    3.22935       1.37
  6.674E+05    3.35574       1.29
  6.754E+05    3.22041       1.36
  6.836E+05    3.14798       1.39
  6.919E+05    3.08822       1.37
  7.004E+05    3.15052       1.38
  7.090E+05    3.09104       1.38
  7.178E+05    3.14146       1.36
  7.267E+05    3.06165       1.36
  7.359E+05    3.20301       1.30
  7.452E+05    3.00573       1.39
  7.546E+05    2.77168       1.54
  7.643E+05    3.01439       1.40
  7.741E+05    2.92490       1.40
  7.842E+05    2.98198       1.42
  7.944E+05    2.82488       1.46
  8.048E+05    2.96290       1.40
  8.155E+05    2.82262       1.43
  8.263E+05    2.77056       1.47
  8.374E+05    2.67871       1.51
  8.487E+05    2.90450       1.40
  8.602E+05    2.84974       1.38
  8.720E+05    2.83975       1.42
  8.840E+05    2.69295       1.47
  8.962E+05    2.80352       1.39
  9.087E+05    2.89097       1.35
  9.215E+05    2.72295       1.40
  9.345E+05    2.72006       1.40
  9.479E+05    2.81673       1.31
  9.615E+05    2.77753       1.34
  9.754E+05    2.68655       1.41
  9.896E+05    2.70738       1.41
  1.004E+06    2.68783       1.39
  1.019E+06    2.65239       1.39
  1.034E+06    2.59607       1.40
  1.050E+06    2.48904       1.49
  1.066E+06    2.60311       1.42
  1.082E+06    2.49138       1.47
  1.098E+06    2.59946       1.42
  1.115E+06    2.44632       1.49
  1.133E+06    2.49028       1.45
  1.151E+06    2.43415       1.48
  1.169E+06    2.35149       1.54
  1.187E+06    2.42651       1.51
  1.207E+06    2.49813       1.46
  1.226E+06    2.35277       1.51
  1.246E+06    2.33070       1.54
  1.267E+06    2.40913       1.48
  1.288E+06    2.26332       1.54
  1.309E+06    2.27978       1.55
  1.332E+06    2.34415       1.53
  1.354E+06    2.24807       1.58
  1.378E+06    2.26656       1.53
  1.401E+06    2.08794       1.65
  1.426E+06    2.15893       1.58
  1.451E+06    1.99832       1.77
  1.477E+06    2.08747       1.67
  1.504E+06    1.95289       1.77
  1.531E+06    2.16076       1.63
  1.559E+06    2.05487       1.70
  1.588E+06    1.90162       1.78
  1.617E+06    1.95267       1.76
  1.648E+06    1.79466       1.91
  1.679E+06    2.06105       1.67
  1.711E+06    1.95843       1.75
  1.744E+06    2.07639       1.62
  1.779E+06    2.02153       1.67
  1.814E+06    2.04408       1.61
  1.850E+06    1.76905       1.85
  1.887E+06    1.80574       1.84
  1.926E+06    1.93685       1.76
  1.965E+06    1.87031       1.75
  2.006E+06    1.91433       1.70
  2.048E+06    1.89398       1.76
  2.092E+06    2.19201       1.54
  2.137E+06    1.65315       1.99
  2.183E+06    1.61739       2.03
  2.231E+06    1.57423       2.10
  2.280E+06    1.72719       1.89
  2.332E+06    1.53983       2.11
  2.385E+06    1.53545       2.06
  2.439E+06    1.53602       2.14
  2.496E+06    1.45772       2.27
  2.554E+06    1.68202       1.97
  2.615E+06    1.83251       1.83
  2.678E+06    1.96117       1.68
  2.743E+06    1.99718       1.67
  2.811E+06    2.25322       1.45
  2.881E+06    2.51687       1.38
  2.954E+06    2.44960       1.40
  3.030E+06    1.70873       1.90
  3.108E+06    1.66265       1.88
  3.190E+06    2.08966       1.55
  3.275E+06    2.18691       1.51
  3.363E+06    2.33680       1.47
  3.455E+06    2.49647       1.39
  3.551E+06    2.60657       1.36
  3.651E+06    2.60374       1.40
  3.755E+06    2.37840       1.45
  3.864E+06    2.08526       1.66
  3.977E+06    1.84009       1.77
  4.096E+06    1.90204       1.75
  4.220E+06    2.01145       1.68
  4.350E+06    2.15846       1.57
  4.485E+06    1.88698       1.72
  4.628E+06    1.55529       2.08
  4.777E+06    1.43034       2.20
  4.934E+06    1.29987       2.36
  5.098E+06    1.28751       2.43
  5.271E+06    1.39218       2.22
  5.453E+06    1.38703       2.27
  5.644E+06    1.18063       2.65
  5.845E+06    1.23335       2.49
  6.058E+06    1.31917       2.28
  6.283E+06    1.43644       2.09
  6.520E+06    1.07352       2.59
  6.771E+06    0.84682       3.08
  7.037E+06    0.95027       2.75
  7.319E+06    1.41001       1.88
  7.618E+06    1.84416       1.49
  7.936E+06    1.90098       1.44
  8.275E+06    1.36978       1.92
  8.636E+06    1.12853       2.33
  9.021E+06    1.21491       2.20
  9.432E+06    1.32033       2.02
  9.873E+06    1.32639       2.04
  1.034E+07    1.32416       2.10
  1.085E+07    1.29851       2.13
  1.140E+07    1.42009       1.99
  1.199E+07    1.49896       1.92
  1.262E+07    1.52603       1.90
  1.331E+07    1.61197       1.76
  1.405E+07    1.43515       1.88
  1.486E+07    1.55028       1.76
  1.575E+07    1.53741       1.86
  1.671E+07    1.46807       1.93
  1.777E+07    1.46543       1.97
  1.893E+07    1.63193       1.91
  2.021E+07    1.59899       1.95
ENDDATA            753
ENDSUBENT          761
SUBENT        32807003   20241011   20250113   20250113       3215
BIB                  3          3
REACTION   (6-C-0(N,TOT),,SIG)
COMMENT    The measured results with 238U cells
STATUS     (COREL,32807002) Data measured with 235U cells
ENDBIB               3
NOCOMMON             0          0
DATA                 3        107
EN         DATA       ERR-S
EV         B          PER-CENT
  1.004E+06    0.81716      39.12
  1.019E+06    3.87102       8.52
  1.034E+06    1.75643      18.43
  1.050E+06    2.34046      12.78
  1.066E+06    1.35984      22.01
  1.082E+06    1.81292      15.81
  1.098E+06    2.40765      10.25
  1.115E+06    2.38148       9.92
  1.133E+06    2.18009      10.65
  1.151E+06    1.57440      12.63
  1.169E+06    3.51671       5.71
  1.187E+06    2.31432       8.65
  1.207E+06    2.58262       7.70
  1.226E+06    2.65520       7.49
  1.246E+06    2.62486       7.05
  1.267E+06    2.38860       7.21
  1.288E+06    2.46834       6.62
  1.309E+06    2.11453       7.09
  1.332E+06    2.65049       5.00
  1.354E+06    2.91034       4.29
  1.378E+06    2.00531       5.22
  1.401E+06    1.99004       4.72
  1.426E+06    1.92769       4.30
  1.451E+06    2.26709       3.33
  1.477E+06    1.83441       3.98
  1.504E+06    2.18186       3.21
  1.531E+06    2.07938       3.19
  1.559E+06    1.96006       3.27
  1.588E+06    1.87459       3.42
  1.617E+06    1.68252       3.66
  1.648E+06    2.05513       3.07
  1.679E+06    2.01323       3.01
  1.711E+06    2.07270       2.87
  1.744E+06    1.74813       3.28
  1.779E+06    2.05273       2.78
  1.814E+06    1.88532       2.89
  1.850E+06    1.69697       3.18
  1.887E+06    2.01088       2.72
  1.926E+06    1.85318       2.92
  1.965E+06    2.06324       2.61
  2.006E+06    1.78993       2.92
  2.048E+06    2.11274       2.56
  2.092E+06    2.16044       2.55
  2.137E+06    1.90598       2.83
  2.183E+06    1.57405       3.39
  2.231E+06    1.70488       3.09
  2.280E+06    1.78977       2.95
  2.332E+06    1.45076       3.56
  2.385E+06    1.63854       3.15
  2.439E+06    1.60959       3.24
  2.496E+06    1.62852       3.31
  2.554E+06    1.57418       3.35
  2.615E+06    1.84077       2.85
  2.678E+06    1.74829       2.95
  2.743E+06    2.07512       2.51
  2.811E+06    2.08122       2.49
  2.881E+06    2.44536       2.25
  2.954E+06    2.39032       2.25
  3.030E+06    1.53571       3.31
  3.108E+06    1.71526       2.92
  3.190E+06    1.98989       2.52
  3.275E+06    2.34995       2.21
  3.363E+06    2.46064       2.14
  3.455E+06    2.79941       1.99
  3.551E+06    2.59370       2.12
  3.651E+06    2.70750       2.06
  3.755E+06    2.42598       2.14
  3.864E+06    2.25431       2.30
  3.977E+06    2.10415       2.41
  4.096E+06    1.78115       2.83
  4.220E+06    2.22297       2.26
  4.350E+06    1.97020       2.51
  4.485E+06    1.76880       2.77
  4.628E+06    1.38862       3.38
  4.777E+06    1.54510       2.93
  4.934E+06    1.41042       3.10
  5.098E+06    1.29674       3.49
  5.271E+06    1.22968       3.63
  5.453E+06    1.24507       3.63
  5.644E+06    1.33572       3.31
  5.845E+06    0.97935       4.46
  6.058E+06    1.37229       3.11
  6.283E+06    1.50526       2.70
  6.520E+06    1.07834       3.46
  6.771E+06    0.63487       5.56
  7.037E+06    0.85767       4.18
  7.319E+06    1.42973       2.50
  7.618E+06    2.09089       1.82
  7.936E+06    2.02618       1.88
  8.275E+06    1.42518       2.53
  8.636E+06    1.33986       2.69
  9.021E+06    1.29908       2.79
  9.432E+06    1.28704       2.86
  9.873E+06    1.21403       3.07
  1.034E+07    1.40246       2.71
  1.085E+07    1.41755       2.60
  1.140E+07    1.46480       2.66
  1.199E+07    1.37433       2.89
  1.262E+07    1.39507       2.85
  1.331E+07    1.70335       2.37
  1.405E+07    1.29863       2.94
  1.486E+07    1.39492       2.69
  1.575E+07    1.54178       2.46
  1.671E+07    1.53544       2.44
  1.777E+07    1.48298       2.53
  1.893E+07    1.54230       2.69
  2.021E+07    1.51775       2.52
ENDDATA            109
ENDSUBENT          117
ENDENTRY             3
