ENTRY            32878   20250829   20251103   20251103       3220
SUBENT        32878001   20250829   20251103   20251103       3220
BIB                 10         25
TITLE      Radiative capture cross-section measurement and
           resonance parameter analysis for 169Tm based on white
           neutron source
AUTHOR     (Ren Jie, Ruan Xichao, Wang Jincheng, Bao Jie,
           Luan Guangyuan, Zhang Qiwei, Huang Hanxiong,
           Nie Yangbo)
INSTITUTE  (3CPRAEP)
REFERENCE  (J,CST,56,805,2022)
           #doi:10.7538/yzk.2022.youxian.0125
FACILITY   (SYNCH,3CPRIHP) The back-streaming white neutron
           beamline (Back-n) of the China Spallation Neutron
           Source (CSNS)
INC-SOURCE (SPALL) Neutrons are produced via 1.6 GeV proton-
           induced spallation reactions on a Tungsten target.
           The incident proton pulse was in double-bunch mode.
           The diameter of the neutron beam spot was about 40 mm,
           and the neutron flux was about 2.0E6 n/cm2/s.
SAMPLE     The 169Tm sample with diameter of 40.0 mm, mass of
           2.42 g and purity of 99.995%.
DETECTOR   (SCIN) Four C6D6 liquid scintillator detectors (EJ315)
           (SILI) The neutron flux was monitored by a Li-Si
           detector.
METHOD     (TOF,PHWT) The length of neutron flight path is
                      76.72 +- 0.15 m.
HISTORY    (20250829C) Wang Jimin
ENDBIB              25
NOCOMMON             0          0
ENDSUBENT           28
SUBENT        32878002   20250829   20251103   20251103       3220
BIB                  5          7
REACTION   (69-TM-169(N,G)69-TM-170,,RYL)
METHOD     Saturated resonance technique with the 169Tm 3.89 eV
           resonance
ERR-ANALYS (ERR-SYS) Systematic uncertainty
STATUS     (TABLE,,Ren Jie+,J,CST,56,805,2022)
            Data presented by author
HISTORY    (20250108R) The data received from Ren Jie
ENDBIB               7
COMMON               2          3
ERR-SYS    THICKNESS
PER-CENT   ATOMS/B
         3.   0.000687
ENDCOMMON            3
DATA                 3       1637
EN-MIN     EN-MAX     DATA
EV         EV         NO-DIM
    1.00000    1.00231 0.04657910
    1.00231    1.00462 0.04847390
    1.00462    1.00693 0.04738270
    1.00693    1.00925 0.04810410
    1.00925    1.01158 0.04792690
    1.01158    1.01391 0.05005340
    1.01391    1.01625 0.04888180
    1.01625    1.01859 0.04553070
    1.01859    1.02094 0.04788700
    1.02094    1.02329 0.04964770
    1.02329    1.02565 0.05119010
    1.02565    1.02802 0.04434640
    1.02802    1.03039 0.04944810
    1.03039    1.03276 0.04799020
    1.03276    1.03514 0.05105990
    1.03514    1.03753 0.04718680
    1.03753    1.03992 0.04772050
    1.03992    1.04232 0.05168100
    1.04232    1.04472 0.05008480
    1.04472    1.04713 0.04614550
    1.04713    1.04954 0.05140690
    1.04954    1.05196 0.04566670
    1.05196    1.05439 0.04614100
    1.05439    1.05682 0.04467090
    1.05682    1.05925 0.04593310
    1.05925    1.06170 0.04742120
    1.06170    1.06414 0.04443410
    1.06414    1.06660 0.04565890
    1.06660    1.06906 0.04776900
    1.06906    1.07152 0.04867450
    1.07152    1.07399 0.04823600
    1.07399    1.07647 0.04870340
    1.07647    1.07895 0.04890830
    1.07895    1.08143 0.05033640
    1.08143    1.08393 0.04645510
    1.08393    1.08643 0.04489380
    1.08643    1.08893 0.04831360
    1.08893    1.09144 0.04298400
    1.09144    1.09396 0.04795740
    1.09396    1.09648 0.04852080
    1.09648    1.09901 0.04436950
    1.09901    1.10154 0.04579740
    1.10154    1.10408 0.04874170
    1.10408    1.10662 0.04669960
    1.10662    1.10918 0.05046220
    1.10918    1.11173 0.04800110
    1.11173    1.11429 0.05000640
    1.11429    1.11686 0.04227940
    1.11686    1.11944 0.04452430
    1.11944    1.12202 0.04881380
    1.12202    1.12461 0.04821310
    1.12461    1.12720 0.04486370
    1.12720    1.12980 0.05143040
    1.12980    1.13240 0.05201030
    1.13240    1.13501 0.05090070
    1.13501    1.13763 0.05237960
    1.13763    1.14025 0.04641480
    1.14025    1.14288 0.04594110
    1.14288    1.14551 0.05143940
    1.14551    1.14815 0.05024260
    1.14815    1.15080 0.04922070
    1.15080    1.15345 0.05061670
    1.15345    1.15611 0.05097540
    1.15611    1.15878 0.04721820
    1.15878    1.16145 0.04658090
    1.16145    1.16413 0.04710590
    1.16413    1.16681 0.04842140
    1.16681    1.16950 0.04751760
    1.16950    1.17220 0.04355260
    1.17220    1.17490 0.04249820
    1.17490    1.17761 0.04571930
    1.17761    1.18032 0.04914200
    1.18032    1.18304 0.04627930
    1.18304    1.18577 0.04556710
    1.18577    1.18850 0.04768200
    1.18850    1.19124 0.04875550
    1.19124    1.19399 0.05135850
    1.19399    1.19674 0.04799730
    1.19674    1.19950 0.04759980
    1.19950    1.20226 0.05077230
    1.20226    1.20504 0.04729070
    1.20504    1.20781 0.04498600
    1.20781    1.21060 0.04855880
    1.21060    1.21339 0.04903560
    1.21339    1.21619 0.04875330
    1.21619    1.21899 0.05154020
    1.21899    1.22180 0.05117280
    1.22180    1.22462 0.04712790
    1.22462    1.22744 0.04745760
    1.22744    1.23027 0.04728060
    1.23027    1.23311 0.04553490
    1.23311    1.23595 0.05106560
    1.23595    1.23880 0.05154860
    1.23880    1.24165 0.05206680
    1.24165    1.24452 0.05058620
    1.24452    1.24738 0.04742130
    1.24738    1.25026 0.04785200
    1.25026    1.25314 0.05265750
    1.25314    1.25603 0.05203850
    1.25603    1.25893 0.04840260
    1.25893    1.26183 0.05083450
    1.26183    1.26474 0.04909530
    1.26474    1.26765 0.04705530
    1.26765    1.27057 0.04934150
    1.27057    1.27350 0.04897030
    1.27350    1.27644 0.04734510
    1.27644    1.27938 0.04577310
    1.27938    1.28233 0.04742670
    1.28233    1.28529 0.04936010
    1.28529    1.28825 0.04822250
    1.28825    1.29122 0.04936500
    1.29122    1.29420 0.04631090
    1.29420    1.29718 0.04446300
    1.29718    1.30017 0.05121030
    1.30017    1.30317 0.05194280
    1.30317    1.30617 0.04983630
    1.30617    1.30918 0.04574130
    1.30918    1.31220 0.05176230
    1.31220    1.31522 0.04751680
    1.31522    1.31826 0.04764560
    1.31826    1.32130 0.04948580
    1.32130    1.32434 0.05428140
    1.32434    1.32739 0.04743080
    1.32739    1.33045 0.05144280
    1.33045    1.33352 0.04985740
    1.33352    1.33660 0.04815320
    1.33660    1.33968 0.04775250
    1.33968    1.34277 0.04830810
    1.34277    1.34586 0.05309400
    1.34586    1.34896 0.04866980
    1.34896    1.35207 0.05042240
    1.35207    1.35519 0.04762810
    1.35519    1.35831 0.05076380
    1.35831    1.36144 0.04670270
    1.36144    1.36458 0.05027630
    1.36458    1.36773 0.04867220
    1.36773    1.37088 0.05063120
    1.37088    1.37404 0.05041900
    1.37404    1.37721 0.05388780
    1.37721    1.38038 0.04978620
    1.38038    1.38357 0.05186330
    1.38357    1.38676 0.05040080
    1.38676    1.38995 0.05027170
    1.38995    1.39316 0.05387940
    1.39316    1.39637 0.05104630
    1.39637    1.39959 0.04872320
    1.39959    1.40281 0.05102400
    1.40281    1.40605 0.05498050
    1.40605    1.40929 0.05267400
    1.40929    1.41254 0.04933020
    1.41254    1.41579 0.04911900
    1.41579    1.41906 0.05040200
    1.41906    1.42233 0.05118370
    1.42233    1.42561 0.04958670
    1.42561    1.42889 0.05014890
    1.42889    1.43219 0.05364690
    1.43219    1.43549 0.04792350
    1.43549    1.43880 0.04953440
    1.43880    1.44212 0.05334560
    1.44212    1.44544 0.05074930
    1.44544    1.44877 0.05136750
    1.44877    1.45211 0.04959960
    1.45211    1.45546 0.05165650
    1.45546    1.45881 0.04873360
    1.45881    1.46218 0.04838440
    1.46218    1.46555 0.04897140
    1.46555    1.46893 0.04916670
    1.46893    1.47231 0.05145080
    1.47231    1.47571 0.05480240
    1.47571    1.47911 0.05651020
    1.47911    1.48252 0.05571530
    1.48252    1.48594 0.05130860
    1.48594    1.48936 0.05412510
    1.48936    1.49280 0.05347260
    1.49280    1.49624 0.05213650
    1.49624    1.49969 0.05286340
    1.49969    1.50314 0.05141130
    1.50314    1.50661 0.05105020
    1.50661    1.51008 0.05516270
    1.51008    1.51356 0.05427560
    1.51356    1.51705 0.05153360
    1.51705    1.52055 0.05312300
    1.52055    1.52405 0.05208280
    1.52405    1.52757 0.04967320
    1.52757    1.53109 0.04866920
    1.53109    1.53462 0.05603110
    1.53462    1.53816 0.05461060
    1.53816    1.54170 0.05070290
    1.54170    1.54525 0.05504690
    1.54525    1.54882 0.05371650
    1.54882    1.55239 0.05211600
    1.55239    1.55597 0.04997770
    1.55597    1.55955 0.05096630
    1.55955    1.56315 0.05310430
    1.56315    1.56675 0.05134490
    1.56675    1.57036 0.05315160
    1.57036    1.57398 0.05112240
    1.57398    1.57761 0.04972770
    1.57761    1.58125 0.05203480
    1.58125    1.58489 0.05083990
    1.58489    1.58855 0.05271590
    1.58855    1.59221 0.05327390
    1.59221    1.59588 0.05600570
    1.59588    1.59956 0.05141880
    1.59956    1.60325 0.05578970
    1.60325    1.60694 0.05610460
    1.60694    1.61065 0.05471370
    1.61065    1.61436 0.05557520
    1.61436    1.61808 0.05347350
    1.61808    1.62181 0.05463110
    1.62181    1.62555 0.05521820
    1.62555    1.62930 0.05301290
    1.62930    1.63305 0.05471560
    1.63305    1.63682 0.05331740
    1.63682    1.64059 0.05638240
    1.64059    1.64437 0.05565120
    1.64437    1.64816 0.05414280
    1.64816    1.65196 0.05453790
    1.65196    1.65577 0.05425560
    1.65577    1.65959 0.05641050
    1.65959    1.66341 0.06018830
    1.66341    1.66725 0.05944060
    1.66725    1.67109 0.05824590
    1.67109    1.67494 0.05779350
    1.67494    1.67880 0.05664640
    1.67880    1.68267 0.05835070
    1.68267    1.68655 0.05733280
    1.68655    1.69044 0.05545480
    1.69044    1.69434 0.05768610
    1.69434    1.69824 0.06161810
    1.69824    1.70216 0.05758390
    1.70216    1.70608 0.05599470
    1.70608    1.71002 0.05689850
    1.71002    1.71396 0.05750930
    1.71396    1.71791 0.05537940
    1.71791    1.72187 0.05603630
    1.72187    1.72584 0.05574860
    1.72584    1.72982 0.05479460
    1.72982    1.73380 0.05671850
    1.73380    1.73780 0.05633780
    1.73780    1.74181 0.05593780
    1.74181    1.74582 0.05607140
    1.74582    1.74985 0.05747630
    1.74985    1.75388 0.05329230
    1.75388    1.75792 0.05889200
    1.75792    1.76198 0.05922740
    1.76198    1.76604 0.05359810
    1.76604    1.77011 0.06121240
    1.77011    1.77419 0.06053150
    1.77419    1.77828 0.05416680
    1.77828    1.78238 0.05932180
    1.78238    1.78649 0.05770910
    1.78649    1.79061 0.06081880
    1.79061    1.79473 0.05878150
    1.79473    1.79887 0.06126270
    1.79887    1.80302 0.05718470
    1.80302    1.80717 0.06038430
    1.80717    1.81134 0.05918920
    1.81134    1.81551 0.05991420
    1.81551    1.81970 0.06095230
    1.81970    1.82390 0.06043240
    1.82390    1.82810 0.05836150
    1.82810    1.83231 0.06052820
    1.83231    1.83654 0.06187890
    1.83654    1.84077 0.06095510
    1.84077    1.84502 0.06011310
    1.84502    1.84927 0.06342260
    1.84927    1.85353 0.05941120
    1.85353    1.85780 0.06497170
    1.85780    1.86209 0.06316320
    1.86209    1.86638 0.06228300
    1.86638    1.87068 0.06293250
    1.87068    1.87500 0.06053930
    1.87500    1.87932 0.06069020
    1.87932    1.88365 0.06289560
    1.88365    1.88799 0.06657830
    1.88799    1.89234 0.06213680
    1.89234    1.89671 0.06035820
    1.89671    1.90108 0.06167340
    1.90108    1.90546 0.06419200
    1.90546    1.90985 0.06483830
    1.90985    1.91426 0.05558170
    1.91426    1.91867 0.06338100
    1.91867    1.92309 0.06207190
    1.92309    1.92752 0.06275380
    1.92752    1.93197 0.06165310
    1.93197    1.93642 0.06412270
    1.93642    1.94089 0.06048470
    1.94089    1.94536 0.06169730
    1.94536    1.94984 0.06599470
    1.94984    1.95434 0.06242720
    1.95434    1.95885 0.06411420
    1.95885    1.96336 0.06437210
    1.96336    1.96789 0.06472360
    1.96789    1.97242 0.06610620
    1.97242    1.97697 0.06135060
    1.97697    1.98153 0.06712180
    1.98153    1.98609 0.06276460
    1.98609    1.99067 0.06622900
    1.99067    1.99526 0.06148650
    1.99526    1.99986 0.06826710
    1.99986    2.00447 0.06831580
    2.00447    2.00909 0.06431780
    2.00909    2.01372 0.06440810
    2.01372    2.01837 0.06534920
    2.01837    2.02302 0.06912130
    2.02302    2.02768 0.06843340
    2.02768    2.03236 0.06997130
    2.03236    2.03704 0.06226710
    2.03704    2.04174 0.06640240
    2.04174    2.04644 0.07067010
    2.04644    2.05116 0.07373700
    2.05116    2.05589 0.07002880
    2.05589    2.06063 0.07084180
    2.06063    2.06538 0.06796890
    2.06538    2.07014 0.07212130
    2.07014    2.07491 0.07234820
    2.07491    2.07970 0.07294980
    2.07970    2.08449 0.07397130
    2.08449    2.08930 0.06796480
    2.08930    2.09411 0.06767550
    2.09411    2.09894 0.06798910
    2.09894    2.10378 0.06685460
    2.10378    2.10863 0.07413260
    2.10863    2.11349 0.07153420
    2.11349    2.11836 0.06734750
    2.11836    2.12325 0.07169570
    2.12325    2.12814 0.07106010
    2.12814    2.13304 0.07356150
    2.13304    2.13796 0.07374040
    2.13796    2.14289 0.07456480
    2.14289    2.14783 0.07449930
    2.14783    2.15278 0.07684220
    2.15278    2.15775 0.07002520
    2.15775    2.16272 0.07229010
    2.16272    2.16770 0.07499770
    2.16770    2.17270 0.07740320
    2.17270    2.17771 0.07218770
    2.17771    2.18273 0.07903470
    2.18273    2.18776 0.07922690
    2.18776    2.19281 0.07607430
    2.19281    2.19786 0.07615420
    2.19786    2.20293 0.07770780
    2.20293    2.20800 0.07522340
    2.20800    2.21310 0.07947670
    2.21310    2.21820 0.07834970
    2.21820    2.22331 0.07807250
    2.22331    2.22844 0.08135660
    2.22844    2.23357 0.08089020
    2.23357    2.23872 0.07738560
    2.23872    2.24388 0.07928000
    2.24388    2.24906 0.07854250
    2.24906    2.25424 0.08152500
    2.25424    2.25944 0.07860250
    2.25944    2.26464 0.08339960
    2.26464    2.26986 0.08384440
    2.26986    2.27510 0.08118270
    2.27510    2.28034 0.08173230
    2.28034    2.28560 0.08386200
    2.28560    2.29087 0.08395070
    2.29087    2.29615 0.08388720
    2.29615    2.30144 0.08245570
    2.30144    2.30675 0.08131330
    2.30675    2.31206 0.08300070
    2.31206    2.31740 0.08152810
    2.31740    2.32274 0.08128050
    2.32274    2.32809 0.08259570
    2.32809    2.33346 0.08369870
    2.33346    2.33884 0.08332540
    2.33884    2.34423 0.08382780
    2.34423    2.34963 0.08240020
    2.34963    2.35505 0.08674680
    2.35505    2.36048 0.08289320
    2.36048    2.36592 0.09034910
    2.36592    2.37137 0.08716530
    2.37137    2.37684 0.08639070
    2.37684    2.38232 0.09188810
    2.38232    2.38781 0.09104840
    2.38781    2.39332 0.08881330
    2.39332    2.39883 0.09065200
    2.39883    2.40436 0.08813100
    2.40436    2.40991 0.09169570
    2.40991    2.41546 0.09434740
    2.41546    2.42103 0.09193940
    2.42103    2.42661 0.09389880
    2.42661    2.43220 0.09516760
    2.43220    2.43781 0.09814130
    2.43781    2.44343 0.09826070
    2.44343    2.44906 0.09601120
    2.44906    2.45471 0.09790730
    2.45471    2.46037 0.10052800
    2.46037    2.46604 0.09934530
    2.46604    2.47172 0.09617620
    2.47172    2.47742 0.09520210
    2.47742    2.48313 0.09675600
    2.48313    2.48886 0.10205000
    2.48886    2.49459 0.10491300
    2.49459    2.50035 0.10134200
    2.50035    2.50611 0.10281800
    2.50611    2.51189 0.10587500
    2.51189    2.51768 0.10474800
    2.51768    2.52348 0.10810600
    2.52348    2.52930 0.10859900
    2.52930    2.53513 0.11080100
    2.53513    2.54097 0.10401900
    2.54097    2.54683 0.10539200
    2.54683    2.55270 0.10222100
    2.55270    2.55859 0.10425200
    2.55859    2.56448 0.11053900
    2.56448    2.57039 0.10528100
    2.57039    2.57632 0.11124200
    2.57632    2.58226 0.11350000
    2.58226    2.58821 0.11163400
    2.58821    2.59418 0.11028900
    2.59418    2.60016 0.11194100
    2.60016    2.60615 0.11387200
    2.60615    2.61216 0.11423100
    2.61216    2.61818 0.11869900
    2.61818    2.62422 0.11518700
    2.62422    2.63027 0.11393700
    2.63027    2.63633 0.11917200
    2.63633    2.64241 0.12131300
    2.64241    2.64850 0.12237700
    2.64850    2.65461 0.12423900
    2.65461    2.66073 0.12360000
    2.66073    2.66686 0.12073300
    2.66686    2.67301 0.11754800
    2.67301    2.67917 0.12689100
    2.67917    2.68534 0.12919500
    2.68534    2.69154 0.12898500
    2.69154    2.69774 0.12914700
    2.69774    2.70396 0.12990100
    2.70396    2.71019 0.13195200
    2.71019    2.71644 0.13900400
    2.71644    2.72270 0.13960600
    2.72270    2.72898 0.13250300
    2.72898    2.73527 0.13501200
    2.73527    2.74158 0.14317900
    2.74158    2.74790 0.14184700
    2.74790    2.75423 0.14039600
    2.75423    2.76058 0.14196500
    2.76058    2.76694 0.14554400
    2.76694    2.77332 0.14388700
    2.77332    2.77971 0.14525500
    2.77971    2.78612 0.14447600
    2.78612    2.79254 0.14981200
    2.79254    2.79898 0.14163100
    2.79898    2.80543 0.14692800
    2.80543    2.81190 0.14798100
    2.81190    2.81838 0.15203200
    2.81838    2.82488 0.14983600
    2.82488    2.83139 0.15042700
    2.83139    2.83792 0.15516400
    2.83792    2.84446 0.15738000
    2.84446    2.85102 0.15353100
    2.85102    2.85759 0.15098700
    2.85759    2.86418 0.16712100
    2.86418    2.87078 0.16107700
    2.87078    2.87740 0.16553000
    2.87740    2.88403 0.16143700
    2.88403    2.89068 0.17519400
    2.89068    2.89734 0.17185000
    2.89734    2.90402 0.16899000
    2.90402    2.91072 0.16710800
    2.91072    2.91743 0.17497400
    2.91743    2.92415 0.17589900
    2.92415    2.93089 0.18382000
    2.93089    2.93765 0.17990400
    2.93765    2.94442 0.18735600
    2.94442    2.95121 0.18474700
    2.95121    2.95801 0.18653600
    2.95801    2.96483 0.18983300
    2.96483    2.97167 0.19585100
    2.97167    2.97852 0.19340800
    2.97852    2.98538 0.19980800
    2.98538    2.99226 0.19956700
    2.99226    2.99916 0.20522300
    2.99916    3.00608 0.20336600
    3.00608    3.01301 0.20982500
    3.01301    3.01995 0.21554300
    3.01995    3.02691 0.21567800
    3.02691    3.03389 0.21698600
    3.03389    3.04089 0.22295400
    3.04089    3.04790 0.22377000
    3.04790    3.05492 0.22580100
    3.05492    3.06196 0.22857200
    3.06196    3.06902 0.23523700
    3.06902    3.07610 0.23386600
    3.07610    3.08319 0.23632500
    3.08319    3.09030 0.24192900
    3.09030    3.09742 0.25318200
    3.09742    3.10456 0.25060800
    3.10456    3.11172 0.24867700
    3.11172    3.11889 0.24373300
    3.11889    3.12608 0.24915200
    3.12608    3.13329 0.25264500
    3.13329    3.14051 0.27235500
    3.14051    3.14775 0.26115800
    3.14775    3.15500 0.26820200
    3.15500    3.16228 0.27316100
    3.16228    3.16957 0.27800100
    3.16957    3.17687 0.29131700
    3.17687    3.18420 0.28718200
    3.18420    3.19154 0.29124900
    3.19154    3.19890 0.29184300
    3.19890    3.20627 0.30811800
    3.20627    3.21366 0.30683200
    3.21366    3.22107 0.30888700
    3.22107    3.22850 0.31662700
    3.22850    3.23594 0.32394700
    3.23594    3.24340 0.33277500
    3.24340    3.25087 0.32842600
    3.25087    3.25837 0.34564900
    3.25837    3.26588 0.35789400
    3.26588    3.27341 0.35695600
    3.27341    3.28096 0.36795300
    3.28096    3.28852 0.36455300
    3.28852    3.29610 0.36846000
    3.29610    3.30370 0.40006700
    3.30370    3.31131 0.39252800
    3.31131    3.31894 0.41080300
    3.31894    3.32659 0.40986500
    3.32659    3.33427 0.40943900
    3.33427    3.34195 0.42885100
    3.34195    3.34966 0.42698300
    3.34966    3.35738 0.47433800
    3.35738    3.36512 0.45102800
    3.36512    3.37287 0.45419400
    3.37287    3.38065 0.47936100
    3.38065    3.38844 0.47626600
    3.38844    3.39625 0.49372500
    3.39625    3.40408 0.49738200
    3.40408    3.41193 0.50490900
    3.41193    3.41979 0.53515600
    3.41979    3.42768 0.54286800
    3.42768    3.43558 0.52435200
    3.43558    3.44350 0.55553700
    3.44350    3.45144 0.53775400
    3.45144    3.45939 0.57818800
    3.45939    3.46737 0.57160900
    3.46737    3.47536 0.58656000
    3.47536    3.48338 0.61215300
    3.48338    3.49140 0.62384600
    3.49140    3.49945 0.62514500
    3.49945    3.50752 0.65298000
    3.50752    3.51560 0.67863800
    3.51560    3.52371 0.67257300
    3.52371    3.53183 0.69131500
    3.53183    3.53998 0.71467500
    3.53998    3.54814 0.73109700
    3.54814    3.55631 0.76035300
    3.55631    3.56451 0.77414700
    3.56451    3.57273 0.80651200
    3.57273    3.58096 0.81246800
    3.58096    3.58922 0.83094500
    3.58922    3.59750 0.83184100
    3.59750    3.60579 0.84648300
    3.60579    3.61410 0.89772800
    3.61410    3.62243 0.88628800
    3.62243    3.63078 0.92565200
    3.63078    3.63915 0.92418800
    3.63915    3.64754 0.93730000
    3.64754    3.65595 0.95858900
    3.65595    3.66438 0.96411600
    3.66438    3.67282 0.97932400
    3.67282    3.68129 1.01001000
    3.68129    3.68978 0.96913900
    3.68978    3.69828 1.03452000
    3.69828    3.70681 1.02738000
    3.70681    3.71535 1.02982000
    3.71535    3.72392 1.02372000
    3.72392    3.73250 1.01353000
    3.73250    3.74111 1.02867000
    3.74111    3.74973 0.98586600
    3.74973    3.75838 1.03401000
    3.75838    3.76704 1.03539000
    3.76704    3.77572 1.03785000
    3.77572    3.78443 0.99974200
    3.78443    3.79315 0.98965200
    3.79315    3.80189 1.00700000
    3.80189    3.81066 0.99400800
    3.81066    3.81944 0.94058900
    3.81944    3.82825 1.02479000
    3.82825    3.83707 0.98353700
    3.83707    3.84592 0.97833400
    3.84592    3.85478 0.99955400
    3.85478    3.86367 0.97241600
    3.86367    3.87258 0.97348400
    3.87258    3.88151 0.98487300
    3.88151    3.89045 1.03341000
    3.89045    3.89942 1.00256000
    3.89942    3.90841 0.98794300
    3.90841    3.91742 0.98126100
    3.91742    3.92645 0.97469100
    3.92645    3.93550 1.00621000
    3.93550    3.94457 1.06155000
    3.94457    3.95367 1.01277000
    3.95367    3.96278 1.01036000
    3.96278    3.97192 1.05344000
    3.97192    3.98107 1.02590000
    3.98107    3.99025 0.98603000
    3.99025    3.99945 0.98892100
    3.99945    4.00867 1.01591000
    4.00867    4.01791 1.04707000
    4.01791    4.02717 0.96678800
    4.02717    4.03645 0.98792100
    4.03645    4.04576 1.02513000
    4.04576    4.05509 1.05822000
    4.05509    4.06444 1.00961000
    4.06444    4.07380 1.02308000
    4.07380    4.08319 1.00947000
    4.08319    4.09261 0.98471300
    4.09261    4.10204 0.99232600
    4.10204    4.11150 1.05459000
    4.11150    4.12098 0.97253600
    4.12098    4.13048 0.99580900
    4.13048    4.14000 0.96323900
    4.14000    4.14954 0.96558000
    4.14954    4.15911 0.97675700
    4.15911    4.16869 0.92935300
    4.16869    4.17831 0.90765700
    4.17831    4.18794 0.90980600
    4.18794    4.19759 0.88184100
    4.19759    4.20727 0.83258700
    4.20727    4.21696 0.82428900
    4.21696    4.22669 0.80656500
    4.22669    4.23643 0.79380700
    4.23643    4.24620 0.78539000
    4.24620    4.25599 0.73731900
    4.25599    4.26580 0.72273100
    4.26580    4.27563 0.68415200
    4.27563    4.28548 0.68890200
    4.28548    4.29536 0.65660400
    4.29536    4.30527 0.64157300
    4.30527    4.31519 0.63115500
    4.31519    4.32514 0.59806300
    4.32514    4.33511 0.60280600
    4.33511    4.34510 0.58341400
    4.34510    4.35512 0.57047000
    4.35512    4.36516 0.51566100
    4.36516    4.37522 0.54021100
    4.37522    4.38531 0.51742800
    4.38531    4.39542 0.46738900
    4.39542    4.40555 0.45254800
    4.40555    4.41570 0.43980100
    4.41570    4.42588 0.44692500
    4.42588    4.43609 0.41757300
    4.43609    4.44631 0.42183600
    4.44631    4.45656 0.41091100
    4.45656    4.46684 0.38782700
    4.46684    4.47713 0.36880500
    4.47713    4.48745 0.36555800
    4.48745    4.49780 0.37714400
    4.49780    4.50817 0.34672600
    4.50817    4.51856 0.33332600
    4.51856    4.52898 0.33239200
    4.52898    4.53942 0.31480900
    4.53942    4.54988 0.31751800
    4.54988    4.56037 0.31089300
    4.56037    4.57088 0.30895400
    4.57088    4.58142 0.29793600
    4.58142    4.59198 0.29014600
    4.59198    4.60257 0.28483900
    4.60257    4.61318 0.27392600
    4.61318    4.62381 0.26410400
    4.62381    4.63447 0.23001600
    4.63447    4.64516 0.24158300
    4.64516    4.65586 0.23930100
    4.65586    4.66660 0.22427800
    4.66660    4.67735 0.22513100
    4.67735    4.68813 0.21923200
    4.68813    4.69894 0.21105600
    4.69894    4.70977 0.21059700
    4.70977    4.72063 0.20211300
    4.72063    4.73151 0.19526300
    4.73151    4.74242 0.19451800
    4.74242    4.75335 0.18635200
    4.75335    4.76431 0.19024100
    4.76431    4.77529 0.18102500
    4.77529    4.78630 0.17588200
    4.78630    4.79734 0.17268600
    4.79734    4.80840 0.16872500
    4.80840    4.81948 0.16513700
    4.81948    4.83059 0.16423100
    4.83059    4.84172 0.16174000
    4.84172    4.85288 0.15968500
    4.85288    4.86408 0.15436300
    4.86408    4.87529 0.14822300
    4.87529    4.88653 0.14646900
    4.88653    4.89779 0.15208900
    4.89779    4.90908 0.14191100
    4.90908    4.92039 0.13619000
    4.92039    4.93174 0.13988300
    4.93174    4.94311 0.14056400
    4.94311    4.95450 0.13352800
    4.95450    4.96592 0.12190800
    4.96592    4.97737 0.12232300
    4.97737    4.98884 0.12534900
    4.98884    5.00034 0.12372200
    5.00034    5.01188 0.12365500
    5.01188    5.02343 0.11932800
    5.02343    5.03501 0.11333900
    5.03501    5.04661 0.11072000
    5.04661    5.05825 0.10877900
    5.05825    5.06991 0.11078000
    5.06991    5.08159 0.10546000
    5.08159    5.09331 0.10738400
    5.09331    5.10505 0.10068800
    5.10505    5.11682 0.09632550
    5.11682    5.12861 0.10048200
    5.12861    5.14044 0.09137110
    5.14044    5.15229 0.09213200
    5.15229    5.16417 0.09276920
    5.16417    5.17607 0.09108840
    5.17607    5.18800 0.08734950
    5.18800    5.19996 0.09193140
    5.19996    5.21195 0.08488460
    5.21195    5.22396 0.08630280
    5.22396    5.23600 0.08222580
    5.23600    5.24808 0.07967020
    5.24808    5.26017 0.07875530
    5.26017    5.27230 0.07811690
    5.27230    5.28445 0.07394780
    5.28445    5.29663 0.07604660
    5.29663    5.30884 0.07224420
    5.30884    5.32109 0.07147960
    5.32109    5.33335 0.07537550
    5.33335    5.34565 0.07324120
    5.34565    5.35797 0.06758490
    5.35797    5.37032 0.07313290
    5.37032    5.38270 0.06998850
    5.38270    5.39510 0.06833900
    5.39510    5.40755 0.06591510
    5.40755    5.42001 0.06489980
    5.42001    5.43251 0.06547840
    5.43251    5.44503 0.06434460
    5.44503    5.45758 0.06409790
    5.45758    5.47016 0.06543360
    5.47016    5.48277 0.05885870
    5.48277    5.49541 0.05994040
    5.49541    5.50808 0.06054880
    5.50808    5.52078 0.05561330
    5.52078    5.53350 0.05777880
    5.53350    5.54626 0.05410670
    5.54626    5.55904 0.05597150
    5.55904    5.57186 0.05538560
    5.57186    5.58470 0.05786000
    5.58470    5.59758 0.05203940
    5.59758    5.61048 0.04952920
    5.61048    5.62341 0.05302840
    5.62341    5.63638 0.05338370
    5.63638    5.64937 0.04565630
    5.64937    5.66240 0.04917660
    5.66240    5.67545 0.04404280
    5.67545    5.68853 0.04660660
    5.68853    5.70164 0.04445970
    5.70164    5.71479 0.04468090
    5.71479    5.72796 0.04332650
    5.72796    5.74117 0.04458440
    5.74117    5.75440 0.04400910
    5.75440    5.76767 0.04300310
    5.76767    5.78096 0.04563580
    5.78096    5.79429 0.04125320
    5.79429    5.80764 0.04304670
    5.80764    5.82103 0.04047930
    5.82103    5.83446 0.03974450
    5.83446    5.84790 0.04055740
    5.84790    5.86138 0.04223770
    5.86138    5.87489 0.04072470
    5.87489    5.88844 0.04124860
    5.88844    5.90201 0.03892390
    5.90201    5.91562 0.04066260
    5.91562    5.92926 0.03924960
    5.92926    5.94292 0.03980360
    5.94292    5.95662 0.03971590
    5.95662    5.97035 0.04175570
    5.97035    5.98412 0.04125720
    5.98412    5.99791 0.04067130
    5.99791    6.01174 0.03940450
    6.01174    6.02560 0.03918150
    6.02560    6.03949 0.03825800
    6.03949    6.05341 0.03648690
    6.05341    6.06736 0.03472140
    6.06736    6.08135 0.03477950
    6.08135    6.09537 0.03408120
    6.09537    6.10942 0.03390630
    6.10942    6.12351 0.03195520
    6.12351    6.13762 0.03373590
    6.13762    6.15177 0.03171290
    6.15177    6.16595 0.03157850
    6.16595    6.18016 0.03146150
    6.18016    6.19442 0.03255100
    6.19442    6.20869 0.03066530
    6.20869    6.22301 0.02958820
    6.22301    6.23735 0.02815850
    6.23735    6.25173 0.02567440
    6.25173    6.26614 0.02693640
    6.26614    6.28058 0.02912830
    6.28058    6.29507 0.02866030
    6.29507    6.30958 0.02728700
    6.30958    6.32412 0.02718470
    6.32412    6.33870 0.02667270
    6.33870    6.35331 0.02505950
    6.35331    6.36795 0.02529860
    6.36795    6.38264 0.02453350
    6.38264    6.39735 0.02731630
    6.39735    6.41210 0.02367760
    6.41210    6.42688 0.02417480
    6.42688    6.44169 0.02314350
    6.44169    6.45654 0.02587630
    6.45654    6.47142 0.02615650
    6.47142    6.48635 0.02246030
    6.48635    6.50130 0.02438500
    6.50130    6.51629 0.02394650
    6.51629    6.53131 0.02159440
    6.53131    6.54636 0.02613120
    6.54636    6.56145 0.02226870
    6.56145    6.57658 0.02172320
    6.57658    6.59174 0.02205450
    6.59174    6.60694 0.02175060
    6.60694    6.62217 0.02118170
    6.62217    6.63743 0.02026460
    6.63743    6.65273 0.02032770
    6.65273    6.66807 0.02042790
    6.66807    6.68344 0.01958630
    6.68344    6.69885 0.02264040
    6.69885    6.71429 0.02016970
    6.71429    6.72977 0.02193070
    6.72977    6.74528 0.02048250
    6.74528    6.76083 0.01899050
    6.76083    6.77641 0.01958870
    6.77641    6.79204 0.02032300
    6.79204    6.80770 0.01968780
    6.80770    6.82339 0.01731100
    6.82339    6.83912 0.01859600
    6.83912    6.85488 0.01786540
    6.85488    6.87068 0.01725480
    6.87068    6.88653 0.01962320
    6.88653    6.90240 0.01641030
    6.90240    6.91831 0.01675280
    6.91831    6.93426 0.01575090
    6.93426    6.95024 0.01726210
    6.95024    6.96626 0.01543530
    6.96626    6.98232 0.01847220
    6.98232    6.99842 0.01902550
    12.0226    12.0504 0.00823340
    12.0504    12.0781 0.00922679
    12.0781    12.1060 0.00801010
    12.1060    12.1339 0.00796300
    12.1339    12.1619 0.00974785
    12.1619    12.1899 0.01098790
    12.1899    12.2180 0.00941559
    12.2180    12.2462 0.00870652
    12.2462    12.2744 0.01179930
    12.2744    12.3027 0.01178340
    12.3027    12.3310 0.00856521
    12.3310    12.3595 0.01063760
    12.3595    12.3880 0.00947607
    12.3880    12.4165 0.00879353
    12.4165    12.4452 0.01104590
    12.4452    12.4738 0.01184230
    12.4738    12.5026 0.01013250
    12.5026    12.5314 0.01062590
    12.5314    12.5603 0.00935806
    12.5603    12.5892 0.01164350
    12.5892    12.6183 0.01213410
    12.6183    12.6474 0.01184950
    12.6474    12.6765 0.01178860
    12.6765    12.7057 0.01171680
    12.7057    12.7350 0.01265800
    12.7350    12.7644 0.01264450
    12.7644    12.7938 0.01185580
    12.7938    12.8233 0.01574970
    12.8233    12.8529 0.01331130
    12.8529    12.8825 0.01347670
    12.8825    12.9122 0.01348280
    12.9122    12.9420 0.01409070
    12.9420    12.9718 0.01339980
    12.9718    13.0017 0.01581850
    13.0017    13.0317 0.01548240
    13.0317    13.0617 0.01732700
    13.0617    13.0918 0.01494010
    13.0918    13.1220 0.01789280
    13.1220    13.1523 0.01813450
    13.1523    13.1826 0.01828180
    13.1826    13.2130 0.01982190
    13.2130    13.2434 0.02003440
    13.2434    13.2739 0.02358130
    13.2739    13.3046 0.02124960
    13.3046    13.3352 0.02381820
    13.3352    13.3659 0.02406110
    13.3659    13.3968 0.02769770
    13.3968    13.4277 0.02849700
    13.4277    13.4586 0.02822900
    13.4586    13.4896 0.03249630
    13.4896    13.5207 0.03476100
    13.5207    13.5519 0.04140120
    13.5519    13.5831 0.04351700
    13.5831    13.6145 0.04366670
    13.6145    13.6458 0.04861780
    13.6458    13.6773 0.05096990
    13.6773    13.7088 0.06064300
    13.7088    13.7404 0.07107850
    13.7404    13.7721 0.07917300
    13.7721    13.8038 0.08912410
    13.8038    13.8357 0.10746000
    13.8357    13.8676 0.12185400
    13.8676    13.8995 0.15375800
    13.8995    13.9316 0.17776400
    13.9316    13.9637 0.21157700
    13.9637    13.9959 0.26520300
    13.9959    14.0281 0.31579700
    14.0281    14.0605 0.37557500
    14.0605    14.0929 0.47848300
    14.0929    14.1254 0.57159800
    14.1254    14.1579 0.70571100
    14.1579    14.1906 0.82018900
    14.1906    14.2233 0.83243500
    14.2233    14.2561 0.91149200
    14.2561    14.2889 0.94804500
    14.2889    14.3219 0.97071500
    14.3219    14.3549 0.89986500
    14.3549    14.3880 0.85214700
    14.3880    14.4212 0.75981300
    14.4212    14.4544 0.66941400
    14.4544    14.4877 0.55181000
    14.4877    14.5211 0.42869600
    14.5211    14.5546 0.34058900
    14.5546    14.5881 0.27202000
    14.5881    14.6218 0.20156900
    14.6218    14.6555 0.16704100
    14.6555    14.6893 0.14161900
    14.6893    14.7231 0.12452700
    14.7231    14.7571 0.10076400
    14.7571    14.7911 0.08666700
    14.7911    14.8252 0.07545990
    14.8252    14.8594 0.06941210
    14.8594    14.8936 0.05776440
    14.8936    14.9279 0.05258040
    14.9279    14.9624 0.04754730
    14.9624    14.9969 0.04214010
    14.9969    15.0314 0.03965720
    15.0314    15.0661 0.03449080
    15.0661    15.1008 0.03548540
    15.1008    15.1356 0.03444530
    15.1356    15.1705 0.02908710
    15.1705    15.2055 0.02672940
    15.2055    15.2405 0.02437560
    15.2405    15.2757 0.02299710
    15.2757    15.3109 0.02244500
    15.3109    15.3462 0.02133250
    15.3462    15.3816 0.02082490
    15.3816    15.4170 0.01861000
    15.4170    15.4525 0.01802500
    15.4525    15.4882 0.01879120
    15.4882    15.5239 0.01645990
    15.5239    15.5597 0.01808610
    15.5597    15.5955 0.01654110
    15.5955    15.6315 0.01728090
    15.6315    15.6675 0.01563160
    15.6675    15.7036 0.01382280
    15.7036    15.7398 0.01560170
    15.7398    15.7761 0.01339010
    15.7761    15.8125 0.01414060
    15.8125    15.8489 0.01504990
    15.8489    15.8855 0.01530120
    15.8855    15.9221 0.01357900
    15.9221    15.9588 0.01396590
    15.9588    15.9956 0.01346740
    15.9956    16.0324 0.01440230
    16.0324    16.0694 0.01262620
    16.0694    16.1065 0.01351950
    16.1065    16.1436 0.01494440
    16.1436    16.1808 0.01397440
    16.1808    16.2181 0.01512830
    16.2181    16.2555 0.01550550
    16.2555    16.2930 0.01492040
    16.2930    16.3305 0.01527030
    16.3305    16.3682 0.01519660
    16.3682    16.4059 0.01689340
    16.4059    16.4437 0.01795450
    16.4437    16.4816 0.01838850
    16.4816    16.5196 0.01876330
    16.5196    16.5577 0.02040570
    16.5577    16.5959 0.02238430
    16.5959    16.6341 0.02323110
    16.6341    16.6725 0.02496890
    16.6725    16.7109 0.02667300
    16.7109    16.7494 0.03248680
    16.7494    16.7880 0.03284590
    16.7880    16.8267 0.03864010
    16.8267    16.8655 0.04541350
    16.8655    16.9044 0.05413300
    16.9044    16.9434 0.06891950
    16.9434    16.9824 0.08292050
    16.9824    17.0216 0.10599700
    17.0216    17.0608 0.14368600
    17.0608    17.1002 0.19604800
    17.1002    17.1396 0.25614900
    17.1396    17.1791 0.32689500
    17.1791    17.2187 0.45858200
    17.2187    17.2584 0.54595700
    17.2584    17.2982 0.67316600
    17.2982    17.3381 0.75508600
    17.3381    17.3780 0.80269600
    17.3780    17.4181 0.82305000
    17.4181    17.4582 0.72520000
    17.4582    17.4985 0.60979300
    17.4985    17.5388 0.51268100
    17.5388    17.5792 0.39175800
    17.5792    17.6198 0.28078500
    17.6198    17.6604 0.18911800
    17.6604    17.7011 0.13564000
    17.7011    17.7419 0.09977230
    17.7419    17.7828 0.07902680
    17.7828    17.8238 0.06298700
    17.8238    17.8649 0.05359650
    17.8649    17.9061 0.04612720
    17.9061    17.9473 0.03945020
    17.9473    17.9887 0.03384880
    17.9887    18.0302 0.02748080
    18.0302    18.0717 0.02520970
    18.0717    18.1134 0.02299270
    18.1134    18.1552 0.02060360
    18.1552    18.1970 0.01857740
    18.1970    18.2390 0.01728560
    18.2390    18.2810 0.01698100
    18.2810    18.3231 0.01567280
    18.3231    18.3654 0.01463130
    18.3654    18.4077 0.01405710
    18.4077    18.4502 0.01254220
    18.4502    18.4927 0.01076050
    18.4927    18.5353 0.01024080
    18.5353    18.5781 0.01034200
    18.5781    18.6209 0.00932825
    18.6209    18.6638 0.00930354
    18.6638    18.7068 0.00870250
    18.7068    18.7500 0.00797665
    18.7500    18.7932 0.00766226
    18.7932    18.8365 0.00765656
    18.8365    18.8799 0.00856591
    18.8799    18.9234 0.00992297
    18.9234    18.9671 0.00700379
    18.9671    19.0108 0.00723252
    19.0108    19.0546 0.00904949
    19.0546    19.0985 0.00880909
    19.0985    19.1426 0.00489268
    19.1426    19.1867 0.00770729
    19.1867    19.2309 0.00575012
    19.2309    19.2753 0.00714712
    19.2753    19.3197 0.00763315
    19.3197    19.3642 0.00655414
    19.3642    19.4089 0.00723408
    19.4089    19.4536 0.00640769
    19.4536    19.4984 0.00683118
    19.4984    19.5434 0.00545773
    19.5434    19.5885 0.00650807
    19.5885    19.6336 0.00539946
    19.6336    19.6789 0.00567373
    19.6789    19.7242 0.00751996
    19.7242    19.7697 0.00522134
    19.7697    19.8153 0.00560208
    19.8153    19.8610 0.00532290
    19.8610    19.9067 0.00638796
    19.9067    19.9526 0.00578995
    25.0035    25.0611 0.02012670
    25.0611    25.1189 0.02130710
    25.1189    25.1768 0.03219690
    25.1768    25.2348 0.02621170
    25.2348    25.2930 0.01750810
    25.2930    25.3513 0.02376050
    25.3513    25.4097 0.01935490
    25.4097    25.4683 0.02297510
    25.4683    25.5270 0.01752160
    25.5270    25.5859 0.01653680
    25.5859    25.6448 0.02001750
    25.6448    25.7040 0.02383030
    25.7040    25.7632 0.01999520
    25.7632    25.8226 0.02105810
    25.8226    25.8821 0.01507860
    25.8821    25.9418 0.02835080
    25.9418    26.0016 0.02216060
    26.0016    26.0615 0.02792760
    26.0615    26.1216 0.02542080
    26.1216    26.1818 0.02738910
    26.1818    26.2422 0.03787460
    26.2422    26.3027 0.03048390
    26.3027    26.3633 0.02309980
    26.3633    26.4241 0.02336360
    26.4241    26.4850 0.02976490
    26.4850    26.5461 0.02686620
    26.5461    26.6073 0.02362520
    26.6073    26.6686 0.03341370
    26.6686    26.7301 0.01694910
    26.7301    26.7917 0.02204260
    26.7917    26.8534 0.02157850
    26.8534    26.9154 0.01464690
    26.9154    26.9774 0.02328020
    26.9774    27.0396 0.02816820
    27.0396    27.1019 0.03025080
    27.1019    27.1644 0.02706780
    27.1644    27.2270 0.01925200
    27.2270    27.2898 0.02236300
    27.2898    27.3527 0.02962700
    27.3527    27.4158 0.03171950
    27.4158    27.4790 0.02401290
    27.4790    27.5423 0.03663670
    27.5423    27.6058 0.04403410
    27.6058    27.6694 0.03667120
    27.6694    27.7332 0.04174210
    27.7332    27.7971 0.02808470
    27.7971    27.8612 0.03276300
    27.8612    27.9254 0.04016500
    27.9254    27.9898 0.04381510
    27.9898    28.0543 0.03651170
    28.0543    28.1190 0.05344240
    28.1190    28.1838 0.07293190
    28.1838    28.2488 0.09603700
    28.2488    28.3139 0.12605800
    28.3139    28.3792 0.18392500
    28.3792    28.4446 0.26098700
    28.4446    28.5102 0.33557800
    28.5102    28.5759 0.40533600
    28.5759    28.6418 0.44686400
    28.6418    28.7078 0.43711100
    28.7078    28.7740 0.32903900
    28.7740    28.8403 0.23980000
    28.8403    28.9068 0.13994900
    28.9068    28.9734 0.08259820
    28.9734    29.0403 0.04949240
    29.0403    29.1072 0.04261850
    29.1072    29.1743 0.02905670
    29.1743    29.2415 0.03095150
    29.2415    29.3089 0.03190980
    29.3089    29.3765 0.02380620
    29.3765    29.4442 0.02308290
    29.4442    29.5121 0.02598480
    29.5121    29.5801 0.02118590
    29.5801    29.6483 0.01594800
    29.6483    29.7167 0.01874290
    29.7167    29.7852 0.02451200
    29.7852    29.8538 0.01985580
    29.8538    29.9227 0.02167490
    29.9227    29.9916 0.02303820
    29.9916    30.0608 0.02603810
    30.0608    30.1301 0.02210350
    30.1301    30.1995 0.02427570
    30.1995    30.2691 0.02105020
    30.2691    30.3389 0.01211140
    30.3389    30.4089 0.01309320
    30.4089    30.4790 0.02246690
    30.4790    30.5492 0.02345280
    30.5492    30.6196 0.02135440
    30.6196    30.6902 0.01627290
    30.6902    30.7610 0.02446280
    30.7610    30.8319 0.02287290
    30.8319    30.9030 0.01882410
    30.9030    30.9742 0.02280740
    30.9742    31.0456 0.02497590
    31.0456    31.1172 0.01937450
    31.1172    31.1889 0.01913540
    31.1889    31.2608 0.02389840
    31.2608    31.3329 0.02175040
    31.3329    31.4051 0.01598450
    31.4051    31.4775 0.02331360
    31.4775    31.5501 0.02754140
    31.5501    31.6228 0.02362960
    31.6228    31.6957 0.02579820
    31.6957    31.7688 0.02383440
    31.7688    31.8420 0.02188500
    31.8420    31.9154 0.02982770
    31.9154    31.9890 0.02769940
    33.0370    33.1131 0.01163840
    33.1131    33.1894 0.01328110
    33.1894    33.2660 0.01297090
    33.2660    33.3427 0.01622420
    33.3427    33.4195 0.01782170
    33.4195    33.4966 0.01883700
    33.4966    33.5738 0.02171140
    33.5738    33.6511 0.02615230
    33.6511    33.7288 0.03263750
    33.7288    33.8065 0.03847770
    33.8065    33.8844 0.04897930
    33.8844    33.9625 0.06407000
    33.9625    34.0408 0.08498330
    34.0408    34.1193 0.11818800
    34.1193    34.1979 0.17069900
    34.1979    34.2768 0.25220000
    34.2768    34.3558 0.36321000
    34.3558    34.4350 0.49202400
    34.4350    34.5144 0.65069900
    34.5144    34.5939 0.84440500
    34.5939    34.6737 0.95573500
    34.6737    34.7536 0.96430300
    34.7536    34.8338 0.90139600
    34.8338    34.9141 0.69801900
    34.9141    34.9945 0.48798200
    34.9945    35.0752 0.31984400
    35.0752    35.1560 0.20999100
    35.1560    35.2371 0.13322600
    35.2371    35.3183 0.10112000
    35.3183    35.3998 0.07319630
    35.3998    35.4813 0.06231150
    35.4813    35.5631 0.05111440
    35.5631    35.6451 0.04180210
    35.6451    35.7273 0.03803820
    35.7273    35.8096 0.03659960
    35.8096    35.8922 0.03890880
    35.8922    35.9749 0.03309620
    35.9749    36.0579 0.02786550
    36.0579    36.1410 0.02208000
    36.1410    36.2243 0.02079350
    36.2243    36.3078 0.01681200
    36.3078    36.3915 0.01507550
    36.3915    36.4754 0.01254970
    36.4754    36.5595 0.01393230
    36.5595    36.6438 0.01453250
    36.6438    36.7282 0.01398100
    36.7282    36.8129 0.01794510
    36.8129    36.8978 0.02116640
    36.8978    36.9828 0.02781220
    36.9828    37.0681 0.03884750
    37.0681    37.1535 0.05432150
    37.1535    37.2392 0.07974120
    37.2392    37.3250 0.10117000
    37.3250    37.4110 0.12991300
    37.4110    37.4973 0.14480900
    37.4973    37.5838 0.13422300
    37.5838    37.6704 0.09661870
    37.6704    37.7572 0.05388590
    37.7572    37.8443 0.02849200
    37.8443    37.9315 0.01816130
    37.9315    38.0189 0.01269390
    38.0189    38.1066 0.01063650
    38.1066    38.1945 0.00942556
    38.1945    38.2825 0.00947557
    38.2825    38.3707 0.00906041
    38.3707    38.4592 0.00841021
    38.4592    38.5478 0.01031310
    38.5478    38.6367 0.01051620
    38.6367    38.7258 0.01216160
    38.7258    38.8151 0.01577490
    38.8151    38.9045 0.02107300
    38.9045    38.9942 0.02792780
    38.9942    39.0841 0.02937790
    39.0841    39.1742 0.03247080
    39.1742    39.2645 0.02512550
    39.2645    39.3550 0.01954090
    39.3550    39.4458 0.01219400
    39.4458    39.5367 0.00964878
    39.5367    39.6278 0.00697528
    39.6278    39.7192 0.00775343
    39.7192    39.8107 0.00612892
    39.8107    39.9025 0.00665464
    39.9025    39.9945 0.00471229
    39.9945    40.0867 0.00523316
    40.0867    40.1791 0.00514450
    40.1791    40.2717 0.00492266
    40.2717    40.3645 0.00522100
    40.3645    40.4576 0.00501395
    40.4576    40.5509 0.00585889
    40.5509    40.6443 0.00417214
    40.6443    40.7380 0.00391717
    40.7380    40.8319 0.00577751
    40.8319    40.9261 0.00640394
    40.9261    41.0204 0.00478813
    41.0204    41.1150 0.00435112
    41.1150    41.2098 0.00566120
    41.2098    41.3048 0.00555072
    41.3048    41.4000 0.00540283
    41.4000    41.4954 0.00455275
    41.4954    41.5911 0.00394598
    41.5911    41.6870 0.00521639
    41.6870    41.7831 0.00449039
    41.7831    41.8794 0.00529802
    41.8794    41.9759 0.00553902
    41.9759    42.0727 0.00531084
    42.0727    42.1697 0.00575548
    42.1697    42.2668 0.00487972
    42.2668    42.3643 0.00460214
    42.3643    42.4620 0.00586818
    42.4620    42.5599 0.00641176
    42.5599    42.6580 0.00528383
    42.6580    42.7563 0.00749965
    42.7563    42.8549 0.00697625
    42.8549    42.9536 0.00633228
    42.9536    43.0527 0.00777393
    43.0527    43.1519 0.00897609
    43.1519    43.2514 0.00889895
    43.2514    43.3511 0.00963309
    43.3511    43.4510 0.01128700
    43.4510    43.5512 0.01465320
    43.5512    43.6516 0.01706950
    43.6516    43.7522 0.02266360
    43.7522    43.8531 0.03051920
    43.8531    43.9542 0.04256290
    43.9542    44.0555 0.05699920
    44.0555    44.1570 0.08719710
    44.1570    44.2588 0.13248400
    44.2588    44.3609 0.19602600
    44.3609    44.4632 0.29119200
    44.4632    44.5656 0.39713600
    44.5656    44.6684 0.48544200
    44.6684    44.7713 0.54768300
    44.7713    44.8745 0.45633800
    44.8745    44.9780 0.34182800
    44.9780    45.0817 0.20586400
    45.0817    45.1856 0.10623200
    45.1856    45.2898 0.05766110
    45.2898    45.3942 0.03689000
    45.3942    45.4988 0.02687000
    45.4988    45.6037 0.01929340
    45.6037    45.7089 0.01560400
    45.7089    45.8142 0.01401350
    45.8142    45.9198 0.01204410
    46.0257    46.1318 0.00703540
    46.1318    46.2381 0.00514514
    46.2381    46.3447 0.00633560
    46.3447    46.4516 0.00550214
    46.4516    46.5586 0.00573781
    46.5586    46.6660 0.00591002
    46.6660    46.7735 0.00580605
    46.7735    46.8813 0.00538972
    46.8813    46.9894 0.00535344
    46.9894    47.0978 0.00506929
    47.0978    47.2063 0.00465959
    47.2063    47.3151 0.00403955
    47.3151    47.4242 0.00498963
    47.4242    47.5335 0.00291052
    47.5335    47.6431 0.00406857
    47.6431    47.7529 0.00540511
    47.7529    47.8630 0.00380792
    47.8630    47.9734 0.00476423
    47.9734    48.0840 0.00465880
    48.0840    48.1948 0.00423223
    48.1948    48.3059 0.00403039
    48.3059    48.4172 0.00435537
    48.4172    48.5289 0.00554346
    48.5289    48.6408 0.00504547
    48.6408    48.7529 0.00538286
    48.7529    48.8652 0.00704693
    48.8652    48.9779 0.00777437
    48.9779    49.0908 0.01020650
    49.0908    49.2039 0.01197070
    49.2039    49.3174 0.01543900
    49.3174    49.4311 0.01850970
    49.4311    49.5450 0.02686870
    49.5450    49.6592 0.03487820
    49.6592    49.7737 0.05421520
    49.7737    49.8884 0.07967290
    49.8884    50.0035 0.11463300
    50.0035    50.1188 0.17020900
    50.1188    50.2343 0.25091600
    50.2343    50.3501 0.35855700
    50.3501    50.4661 0.40977600
    50.4661    50.5825 0.43661100
    50.5825    50.6991 0.34208700
    50.6991    50.8160 0.22285300
    50.8160    50.9331 0.11150100
    50.9331    51.0505 0.05342340
    51.0505    51.1682 0.02893030
    51.1682    51.2861 0.02024960
    51.2861    51.4044 0.01565340
    51.4044    51.5229 0.01187280
    51.5229    51.6417 0.00894306
    51.6417    51.7607 0.00785023
    51.7607    51.8800 0.00698880
    51.8800    51.9996 0.00558184
    51.9996    52.1195 0.00488064
    52.1195    52.2396 0.00469184
    52.2396    52.3601 0.00441253
    52.3601    52.4808 0.00386081
    52.4808    52.6017 0.00325540
    52.6017    52.7230 0.00327362
    52.7230    52.8445 0.00296035
    52.8445    52.9663 0.00357707
    52.9663    53.0884 0.00367460
    53.0884    53.2109 0.00393608
    53.2109    53.3335 0.00314632
    53.3335    53.4565 0.00351302
    53.4565    53.5797 0.00401496
    53.5797    53.7032 0.00347456
    53.7032    53.8270 0.00251945
    53.8270    53.9511 0.00309974
    53.9511    54.0755 0.00253651
    54.0755    54.2001 0.00288291
    54.2001    54.3251 0.00320703
    54.3251    54.4503 0.00294099
    54.4503    54.5758 0.00323337
    54.5758    54.7016 0.00360612
    54.7016    54.8277 0.00286203
    54.8277    54.9541 0.00279761
    54.9541    55.0808 0.00328966
    55.0808    55.2078 0.00338825
    55.2078    55.3350 0.00344736
    55.3350    55.4626 0.00346526
    55.4626    55.5905 0.00340700
    55.5905    55.7186 0.00327312
    55.7186    55.8470 0.00392315
    55.8470    55.9758 0.00356795
    55.9758    56.1048 0.00357979
    56.1048    56.2341 0.00406869
    56.2341    56.3638 0.00384602
    56.3638    56.4937 0.00387682
    56.4937    56.6240 0.00483497
    56.6240    56.7545 0.00543725
    56.7545    56.8853 0.00520094
    56.8853    57.0164 0.00546082
    57.0164    57.1479 0.00706751
    57.1479    57.2796 0.00781701
    57.2796    57.4117 0.00979556
    57.4117    57.5440 0.01235570
    57.5440    57.6767 0.01643550
    57.6767    57.8096 0.02052030
    57.8096    57.9429 0.03072580
    57.9429    58.0764 0.04376040
    58.0764    58.2104 0.06506400
    58.2104    58.3446 0.09604690
    58.3446    58.4790 0.14419500
    58.4790    58.6138 0.22775600
    58.6138    58.7489 0.31384700
    58.7489    58.8844 0.43278100
    58.8844    59.0201 0.50724200
    59.0201    59.1562 0.46010000
    59.1562    59.2926 0.35190000
    59.2926    59.4292 0.20224900
    59.4292    59.5662 0.08888770
    59.5662    59.7035 0.04587440
    59.7035    59.8411 0.02744840
    59.8411    59.9792 0.02089090
    59.9792    60.1174 0.01729270
    60.1174    60.2560 0.01355880
    60.2560    60.3949 0.01202160
    60.3949    60.5341 0.00940413
    60.5341    60.6736 0.00814472
    60.6736    60.8135 0.00809598
    60.8135    60.9537 0.00751931
    60.9537    61.0942 0.00658519
    61.0942    61.2351 0.00710752
    61.2351    61.3762 0.00795117
    61.3762    61.5177 0.00724571
    61.5177    61.6595 0.00861919
    61.6595    61.8017 0.00982201
    61.8017    61.9441 0.01068240
    61.9441    62.0869 0.01363340
    62.0869    62.2300 0.01860830
    62.2300    62.3735 0.02466830
    62.3735    62.5173 0.03712800
    62.5173    62.6614 0.05236710
    62.6614    62.8059 0.06910560
    62.8059    62.9506 0.08144330
    62.9506    63.0958 0.07905030
    63.0958    63.2412 0.05642590
    63.2412    63.3870 0.03690410
    63.3870    63.5331 0.02284380
    63.5331    63.6795 0.02238220
    63.6795    63.8264 0.02477050
    63.8264    63.9735 0.02768860
    63.9735    64.1210 0.03169430
    64.1210    64.2688 0.03879770
    64.2688    64.4169 0.04834800
    64.4169    64.5654 0.06416320
    64.5654    64.7143 0.08557490
    64.7143    64.8635 0.11037300
    64.8635    65.0130 0.15746200
    65.0130    65.1629 0.21499000
    65.1629    65.3131 0.30951200
    65.3131    65.4636 0.40083200
    65.4636    65.6145 0.51039900
    65.6145    65.7658 0.52844200
    65.7658    65.9174 0.47920700
    65.9174    66.0694 0.37080400
    66.0694    66.2217 0.24724100
    66.2217    66.3743 0.14267100
    66.3743    66.5273 0.08207920
    66.5273    66.6807 0.05072350
    66.6807    66.8344 0.04140620
    66.8344    66.9885 0.04464500
    66.9885    67.1429 0.04247170
    67.1429    67.2977 0.03414710
    67.2977    67.4528 0.02605510
    67.4528    67.6083 0.01899580
    67.6083    67.7642 0.01562750
    67.7642    67.9204 0.01277880
    67.9204    68.0770 0.01124720
    68.0770    68.2339 0.00914970
    68.2339    68.3912 0.00938190
    68.3912    68.5488 0.00767122
    68.5488    68.7069 0.00676139
    68.7069    68.8653 0.00626241
    68.8653    69.0240 0.00551474
    69.0240    69.1831 0.00513678
    69.1831    69.3426 0.00550620
    69.3426    69.5024 0.00513361
    69.5024    69.6626 0.00462078
    69.6626    69.8233 0.00434354
    69.8233    69.9843 0.00447766
    69.9843    70.1456 0.00452033
    70.1456    70.3073 0.00334874
    70.3073    70.4693 0.00402878
    70.4693    70.6318 0.00320406
    70.6318    70.7946 0.00395369
    70.7946    70.9578 0.00301720
    70.9578    71.1214 0.00352431
    71.1214    71.2853 0.00307999
    71.2853    71.4497 0.00352865
    71.4497    71.6143 0.00363892
    71.6143    71.7794 0.00264162
    71.7794    71.9449 0.00298110
    71.9449    72.1108 0.00308934
    72.1108    72.2770 0.00293028
    72.2770    72.4436 0.00288161
    72.4436    72.6106 0.00273026
    72.6106    72.7780 0.00257527
    72.7780    72.9457 0.00257564
    72.9457    73.1140 0.00233003
    73.1140    73.2825 0.00231997
    73.2825    73.4514 0.00268505
    73.4514    73.6207 0.00340156
    73.6207    73.7904 0.00301047
    73.7904    73.9605 0.00255422
    73.9605    74.1311 0.00279073
    74.1311    74.3020 0.00279723
    74.3020    74.4732 0.00205694
    74.4732    74.6449 0.00203918
    74.6449    74.8170 0.00210312
    74.8170    74.9894 0.00280061
    78.1628    78.3430 0.00431540
    78.3430    78.5236 0.00441459
    78.5236    78.7046 0.00482050
    78.7046    78.8861 0.00450710
    78.8861    79.0679 0.00380517
    79.0679    79.2502 0.00303346
    79.2502    79.4329 0.00349159
    79.4329    79.6159 0.00357836
    79.6159    79.7995 0.00390522
    79.7995    79.9835 0.00403725
    79.9835    80.1679 0.00382714
    80.1679    80.3527 0.00411004
    80.3527    80.5379 0.00448770
    80.5379    80.7235 0.00463232
    80.7235    80.9096 0.00578267
    80.9096    81.0961 0.00682440
    81.0961    81.2831 0.00777780
    81.2831    81.4705 0.01195880
    81.4705    81.6583 0.01519780
    81.6583    81.8465 0.02126400
    81.8465    82.0352 0.03406250
    82.0352    82.2243 0.04939040
    82.2243    82.4139 0.07664820
    82.4139    82.6039 0.11863400
    82.6039    82.7943 0.19921500
    82.7943    82.9851 0.31090200
    82.9851    83.1764 0.42794300
    83.1764    83.3681 0.39422500
    83.3681    83.5603 0.23474600
    83.5603    83.7530 0.08555180
    83.7530    83.9460 0.03245340
    83.9460    84.1395 0.01636960
    84.1395    84.3335 0.01290240
    84.3335    84.5279 0.00823186
    84.5279    84.7227 0.00814273
    84.7227    84.9180 0.00668704
    84.9180    85.1139 0.00791552
    85.1139    85.3101 0.00804263
    85.3101    85.5067 0.00643970
    85.5067    85.7038 0.00575549
    85.7038    85.9014 0.00478570
    85.9014    86.0994 0.00422177
    86.0994    86.2979 0.00386547
    86.2979    86.4968 0.00356548
    86.4968    86.6962 0.00320778
    86.6962    86.8961 0.00311903
    86.8961    87.0964 0.00369307
    87.0964    87.2971 0.00378521
    87.2971    87.4984 0.00362769
    87.4984    87.7001 0.00396743
    87.7001    87.9023 0.00516634
    87.9023    88.1049 0.00375153
    88.1049    88.3080 0.00488150
    88.3080    88.5116 0.00486847
    88.5116    88.7156 0.00377022
    88.7156    88.9202 0.00394041
    88.9202    89.1252 0.00303672
    89.1252    89.3306 0.00697432
    89.3306    89.5365 0.00768891
    89.5365    89.7429 0.01811410
    89.7429    89.9498 0.01396210
    89.9498    90.1571 0.01446420
    90.1571    90.3650 0.01294530
    90.3650    90.5733 0.01124660
    90.5733    90.7821 0.01011810
    90.7821    90.9913 0.01217940
    90.9913    91.2011 0.01476990
    91.2011    91.4113 0.01837730
    91.4113    91.6221 0.02359730
    91.6221    91.8333 0.03320710
    91.8333    92.0450 0.04273870
    92.0450    92.2572 0.06357770
    92.2572    92.4698 0.09410780
    92.4698    92.6830 0.13949400
    92.6830    92.8966 0.21842400
    92.8966    93.1109 0.32307100
    93.1109    93.3255 0.47180300
    93.3255    93.5406 0.64771200
    93.5406    93.7562 0.66598600
    93.7562    93.9723 0.55178800
    93.9723    94.1889 0.35046800
    94.1889    94.4061 0.17272100
    94.4061    94.6238 0.09064000
    94.6238    94.8419 0.07364520
    94.8419    95.0605 0.07524200
    95.0605    95.2796 0.09074050
    95.2796    95.4993 0.08592310
    95.4993    95.7194 0.06816420
    95.7194    95.9401 0.03500280
    95.9401    96.1613 0.01725510
    96.1613    96.3829 0.01264880
    96.3829    96.6051 0.01011380
    96.6051    96.8278 0.00817542
    96.8278    97.0510 0.00935651
    97.0510    97.2747 0.00719729
    97.2747    97.4990 0.00627248
    97.4990    97.7238 0.00689972
    97.7238    97.9490 0.00433758
    97.9490    98.1748 0.00544706
    98.1748    98.4011 0.00555884
    98.4011    98.6279 0.00626880
    98.6279    98.8554 0.00792351
    98.8554    99.0833 0.00882127
    99.0833    99.3117 0.00898284
    99.3117    99.5406 0.01045980
    99.5406    99.7700 0.00894510
    99.7700    100.000 0.00866345
    100.000    100.231 0.00933187
    100.231    100.462 0.01024010
    100.462    100.693 0.01169030
ENDDATA           1639
ENDSUBENT         1655
SUBENT        32878003   20250829   20251103   20251103       3220
BIB                  3          6
REACTION  1(65-TB-159(N,0),,EN)
          2(69-TM-169(N,0),,J)
          3(65-TB-159(N,EL),,WID,,RM)
          4(69-TM-169(N,G),,WID,,RM)
ERR-ANALYS (DATA-ERR) No information on source of uncertainty
STATUS     (TABLE,,Ren Jie+,J,CST,56,805,2022) Table 2
ENDBIB               6
NOCOMMON             0          0
DATA                 7         16
DATA      1DATA-ERR  1DATA      2DATA      3DATA-ERR  3DATA      4
DATA-ERR  4
EV         EV         NO-DIM     MILLI-EV   MILLI-EV   MILLI-EV
MILLI-EV
       3.90       0.03         1.       7.45       0.52     105.70
        7.4
      14.32       0.12         0.       9.01       0.63      98.80
       6.92
      17.40       0.14         0.       6.24       0.44      81.40
       5.70
      28.60       0.24         1.       0.55       0.04      93.70
       6.56
      34.72       0.29         1.       5.87       0.41      86.00
       6.02
      37.48       0.31         1.       0.24       0.02     123.96
       8.68
      39.08       0.32         1.       0.05       0.01     138.80
       9.72
      44.73       0.37         1.       2.37       0.17      99.00
       6.93
      50.49       0.42         1.       2.80       0.20      89.00
       6.23
      59.07       0.49         1.       6.80       0.48      86.00
       6.02
      62.97       0.52         1.       0.45       0.03      78.00
       5.46
      65.75       0.55         0.     113.00       7.91      83.00
       5.81
      83.18       0.70         1.       7.53       0.53      85.00
       5.95
      93.70       0.78         1.      32.00       2.24     119.12
       8.34
      95.40       0.80         0.       3.10       0.22      71.00
       4.97
     101.50       0.85         1.       0.57       0.04     118.22
       8.28
ENDDATA             36
ENDSUBENT           47
SUBENT        32878004   20250829   20251103   20251103       3220
BIB                  4          5
REACTION   (69-TM-169(N,G)69-TM-170,,SIG,,,DERIV)
ANALYSIS   Cross sections derived from the resonance parameters
STATUS     (TABLE,,Ren Jie+,J,CST,56,805,2022) Presented by author
           (DEP,32878003) Resonance parameters
HISTORY    (20230213R) The data received from Ren Jie
ENDBIB               5
NOCOMMON             0          0
DATA                 3       2021
EN-MIN     EN-MAX     DATA
EV         EV         B
    1.00000    1.00231    27.2418
    1.00231    1.00462    27.2474
    1.00462    1.00693    27.2531
    1.00693    1.00925    27.2589
    1.00925    1.01158    27.2649
    1.01158    1.01391     27.271
    1.01391    1.01625    27.2773
    1.01625    1.01859    27.2836
    1.01859    1.02094    27.2901
    1.02094    1.02329    27.2967
    1.02329    1.02565    27.3035
    1.02565    1.02802    27.3104
    1.02802    1.03039    27.3175
    1.03039    1.03276    27.3246
    1.03276    1.03514    27.3319
    1.03514    1.03753    27.3393
    1.03753    1.03992    27.3469
    1.03992    1.04232    27.3546
    1.04232    1.04472    27.3624
    1.04472    1.04713    27.3704
    1.04713    1.04954    27.3785
    1.04954    1.05196    27.3868
    1.05196    1.05439    27.3952
    1.05439    1.05682    27.4037
    1.05682    1.05925    27.4124
    1.05925    1.06170    27.4212
    1.06170    1.06414    27.4301
    1.06414    1.06660    27.4393
    1.06660    1.06906    27.4485
    1.06906    1.07152    27.4579
    1.07152    1.07399    27.4675
    1.07399    1.07647    27.4772
    1.07647    1.07895     27.487
    1.07895    1.08143    27.4969
    1.08143    1.08393    27.5071
    1.08393    1.08643    27.5174
    1.08643    1.08893    27.5278
    1.08893    1.09144    27.5384
    1.09144    1.09396    27.5491
    1.09396    1.09648      27.56
    1.09648    1.09901    27.5711
    1.09901    1.10154    27.5823
    1.10154    1.10408    27.5936
    1.10408    1.10662    27.6051
    1.10662    1.10918    27.6168
    1.10918    1.11173    27.6286
    1.11173    1.11429    27.6406
    1.11429    1.11686    27.6527
    1.11686    1.11944    27.6651
    1.11944    1.12202    27.6775
    1.12202    1.12461    27.6902
    1.12461    1.12720     27.703
    1.12720    1.12980    27.7159
    1.12980    1.13240     27.729
    1.13240    1.13501    27.7423
    1.13501    1.13763    27.7558
    1.13763    1.14025    27.7694
    1.14025    1.14288    27.7832
    1.14288    1.14551    27.7972
    1.14551    1.14815    27.8113
    1.14815    1.15080    27.8256
    1.15080    1.15345    27.8401
    1.15345    1.15611    27.8548
    1.15611    1.15878    27.8696
    1.15878    1.16145    27.8846
    1.16145    1.16413    27.8999
    1.16413    1.16681    27.9152
    1.16681    1.16950    27.9307
    1.16950    1.17220    27.9465
    1.17220    1.17490    27.9624
    1.17490    1.17761    27.9785
    1.17761    1.18032    27.9948
    1.18032    1.18304    28.0112
    1.18304    1.18577    28.0279
    1.18577    1.18850    28.0447
    1.18850    1.19124    28.0617
    1.19124    1.19399     28.079
    1.19399    1.19674    28.0964
    1.19674    1.19950     28.114
    1.19950    1.20226    28.1317
    1.20226    1.20504    28.1498
    1.20504    1.20781    28.1679
    1.20781    1.21060    28.1863
    1.21060    1.21339    28.2049
    1.21339    1.21619    28.2237
    1.21619    1.21899    28.2426
    1.21899    1.22180    28.2618
    1.22180    1.22462    28.2812
    1.22462    1.22744    28.3008
    1.22744    1.23027    28.3206
    1.23027    1.23311    28.3406
    1.23311    1.23595    28.3608
    1.23595    1.23880    28.3812
    1.23880    1.24165    28.4018
    1.24165    1.24452    28.4227
    1.24452    1.24738    28.4437
    1.24738    1.25026     28.465
    1.25026    1.25314    28.4865
    1.25314    1.25603    28.5082
    1.25603    1.25893    28.5302
    1.25893    1.26183    28.5523
    1.26183    1.26474    28.5747
    1.26474    1.26765    28.5973
    1.26765    1.27057    28.6201
    1.27057    1.27350    28.6431
    1.27350    1.27644    28.6664
    1.27644    1.27938    28.6899
    1.27938    1.28233    28.7137
    1.28233    1.28529    28.7377
    1.28529    1.28825    28.7619
    1.28825    1.29122    28.7863
    1.29122    1.29420     28.811
    1.29420    1.29718    28.8359
    1.29718    1.30017    28.8611
    1.30017    1.30317    28.8865
    1.30317    1.30617    28.9121
    1.30617    1.30918     28.938
    1.30918    1.31220    28.9642
    1.31220    1.31522    28.9905
    1.31522    1.31826    29.0173
    1.31826    1.32130    29.0442
    1.32130    1.32434    29.0713
    1.32434    1.32739    29.0987
    1.32739    1.33045    29.1264
    1.33045    1.33352    29.1543
    1.33352    1.33660    29.1826
    1.33660    1.33968     29.211
    1.33968    1.34277    29.2398
    1.34277    1.34586    29.2687
    1.34586    1.34896     29.298
    1.34896    1.35207    29.3275
    1.35207    1.35519    29.3574
    1.35519    1.35831    29.3874
    1.35831    1.36144    29.4178
    1.36144    1.36458    29.4485
    1.36458    1.36773    29.4795
    1.36773    1.37088    29.5107
    1.37088    1.37404    29.5422
    1.37404    1.37721     29.574
    1.37721    1.38038     29.606
    1.38038    1.38357    29.6385
    1.38357    1.38676    29.6712
    1.38676    1.38995    29.7041
    1.38995    1.39316    29.7374
    1.39316    1.39637     29.771
    1.39637    1.39959    29.8049
    1.39959    1.40281     29.839
    1.40281    1.40605    29.8736
    1.40605    1.40929    29.9084
    1.40929    1.41254    29.9435
    1.41254    1.41579    29.9789
    1.41579    1.41906    30.0147
    1.41906    1.42233    30.0508
    1.42233    1.42561    30.0872
    1.42561    1.42889    30.1239
    1.42889    1.43219     30.161
    1.43219    1.43549    30.1984
    1.43549    1.43880    30.2362
    1.43880    1.44212    30.2743
    1.44212    1.44544    30.3126
    1.44544    1.44877    30.3513
    1.44877    1.45211    30.3904
    1.45211    1.45546    30.4299
    1.45546    1.45881    30.4697
    1.45881    1.46218    30.5099
    1.46218    1.46555    30.5504
    1.46555    1.46893    30.5913
    1.46893    1.47231    30.6324
    1.47231    1.47571    30.6741
    1.47571    1.47911     30.716
    1.47911    1.48252    30.7584
    1.48252    1.48594    30.8011
    1.48594    1.48936    30.8441
    1.48936    1.49280    30.8877
    1.49280    1.49624    30.9315
    1.49624    1.49969    30.9758
    1.49969    1.50314    31.0203
    1.50314    1.50661    31.0654
    1.50661    1.51008    31.1108
    1.51008    1.51356    31.1566
    1.51356    1.51705    31.2029
    1.51705    1.52055    31.2495
    1.52055    1.52405    31.2965
    1.52405    1.52757    31.3441
    1.52757    1.53109    31.3919
    1.53109    1.53462    31.4402
    1.53462    1.53816     31.489
    1.53816    1.54170    31.5381
    1.54170    1.54525    31.5876
    1.54525    1.54882    31.6377
    1.54882    1.55239    31.6882
    1.55239    1.55597    31.7391
    1.55597    1.55955    31.7904
    1.55955    1.56315    31.8423
    1.56315    1.56675    31.8945
    1.56675    1.57036    31.9472
    1.57036    1.57398    32.0004
    1.57398    1.57761     32.054
    1.57761    1.58125    32.1082
    1.58125    1.58489    32.1628
    1.58489    1.58855     32.218
    1.58855    1.59221    32.2735
    1.59221    1.59588    32.3296
    1.59588    1.59956    32.3861
    1.59956    1.60325    32.4433
    1.60325    1.60694    32.5007
    1.60694    1.61065    32.5589
    1.61065    1.61436    32.6174
    1.61436    1.61808    32.6765
    1.61808    1.62181    32.7361
    1.62181    1.62555    32.7963
    1.62555    1.62930    32.8571
    1.62930    1.63305    32.9182
    1.63305    1.63682    32.9801
    1.63682    1.64059    33.0423
    1.64059    1.64437    33.1051
    1.64437    1.64816    33.1686
    1.64816    1.65196    33.2326
    1.65196    1.65577    33.2972
    1.65577    1.65959    33.3624
    1.65959    1.66341     33.428
    1.66341    1.66725    33.4944
    1.66725    1.67109    33.5612
    1.67109    1.67494    33.6287
    1.67494    1.67880    33.6968
    1.67880    1.68267    33.7655
    1.68267    1.68655    33.8348
    1.68655    1.69044    33.9048
    1.69044    1.69434    33.9754
    1.69434    1.69824    34.0465
    1.69824    1.70216    34.1185
    1.70216    1.70608    34.1909
    1.70608    1.71002    34.2642
    1.71002    1.71396    34.3379
    1.71396    1.71791    34.4124
    1.71791    1.72187    34.4875
    1.72187    1.72584    34.5634
    1.72584    1.72982    34.6399
    1.72982    1.73380     34.717
    1.73380    1.73780    34.7949
    1.73780    1.74181    34.8736
    1.74181    1.74582    34.9529
    1.74582    1.74985     35.033
    1.74985    1.75388    35.1137
    1.75388    1.75792    35.1952
    1.75792    1.76198    35.2776
    1.76198    1.76604    35.3606
    1.76604    1.77011    35.4444
    1.77011    1.77419    35.5289
    1.77419    1.77828    35.6143
    1.77828    1.78238    35.7004
    1.78238    1.78649    35.7874
    1.78649    1.79061    35.8751
    1.79061    1.79473    35.9635
    1.79473    1.79887    36.0529
    1.79887    1.80302    36.1432
    1.80302    1.80717     36.234
    1.80717    1.81134     36.326
    1.81134    1.81551    36.4186
    1.81551    1.81970    36.5123
    1.81970    1.82390     36.607
    1.82390    1.82810    36.7022
    1.82810    1.83231    36.7984
    1.83231    1.83654    36.8957
    1.83654    1.84077    36.9937
    1.84077    1.84502    37.0929
    1.84502    1.84927    37.1927
    1.84927    1.85353    37.2935
    1.85353    1.85780    37.3953
    1.85780    1.86209    37.4984
    1.86209    1.86638    37.6021
    1.86638    1.87068    37.7068
    1.87068    1.87500    37.8128
    1.87500    1.87932    37.9196
    1.87932    1.88365    38.0274
    1.88365    1.88799    38.1362
    1.88799    1.89234    38.2461
    1.89234    1.89671    38.3573
    1.89671    1.90108    38.4693
    1.90108    1.90546    38.5824
    1.90546    1.90985    38.6966
    1.90985    1.91426    38.8122
    1.91426    1.91867    38.9286
    1.91867    1.92309    39.0462
    1.92309    1.92752    39.1649
    1.92752    1.93197    39.2851
    1.93197    1.93642    39.4061
    1.93642    1.94089    39.5287
    1.94089    1.94536    39.6521
    1.94536    1.94984    39.7768
    1.94984    1.95434     39.903
    1.95434    1.95885    40.0305
    1.95885    1.96336    40.1588
    1.96336    1.96789    40.2889
    1.96789    1.97242    40.4198
    1.97242    1.97697    40.5524
    1.97697    1.98153    40.6863
    1.98153    1.98609    40.8213
    1.98609    1.99067    40.9579
    1.99067    1.99526    41.0959
    1.99526    1.99986    41.2353
    1.99986    2.00447     41.376
    2.00447    2.00909    41.5183
    2.00909    2.01372    41.6619
    2.01372    2.01837    41.8074
    2.01837    2.02302    41.9539
    2.02302    2.02768     42.102
    2.02768    2.03236     42.252
    2.03236    2.03704    42.4031
    2.03704    2.04174    42.5562
    2.04174    2.04644    42.7104
    2.04644    2.05116    42.8666
    2.05116    2.05589    43.0245
    2.05589    2.06063    43.1839
    2.06063    2.06538    43.3451
    2.06538    2.07014    43.5079
    2.07014    2.07491    43.6724
    2.07491    2.07970     43.839
    2.07970    2.08449    44.0069
    2.08449    2.08930    44.1771
    2.08930    2.09411    44.3486
    2.09411    2.09894    44.5224
    2.09894    2.10378     44.698
    2.10378    2.10863    44.8754
    2.10863    2.11349    45.0548
    2.11349    2.11836     45.236
    2.11836    2.12325    45.4197
    2.12325    2.12814    45.6049
    2.12814    2.13304     45.792
    2.13304    2.13796    45.9817
    2.13796    2.14289    46.1734
    2.14289    2.14783    46.3671
    2.14783    2.15278     46.563
    2.15278    2.15775    46.7615
    2.15775    2.16272    46.9617
    2.16272    2.16770    47.1641
    2.16770    2.17270    47.3692
    2.17270    2.17771    47.5766
    2.17771    2.18273    47.7863
    2.18273    2.18776    47.9983
    2.18776    2.19281    48.2132
    2.19281    2.19786    48.4299
    2.19786    2.20293    48.6497
    2.20293    2.20800    48.8713
    2.20800    2.21310    49.0965
    2.21310    2.21820    49.3238
    2.21820    2.22331    49.5536
    2.22331    2.22844    49.7866
    2.22844    2.23357    50.0218
    2.23357    2.23872    50.2602
    2.23872    2.24388    50.5013
    2.24388    2.24906    50.7457
    2.24906    2.25424    50.9924
    2.25424    2.25944    51.2427
    2.25944    2.26464    51.4952
    2.26464    2.26986    51.7513
    2.26986    2.27510     52.011
    2.27510    2.28034    52.2731
    2.28034    2.28560     52.539
    2.28560    2.29087     52.808
    2.29087    2.29615    53.0803
    2.29615    2.30144    53.3558
    2.30144    2.30675    53.6353
    2.30675    2.31206    53.9174
    2.31206    2.31740    54.2044
    2.31740    2.32274    54.4941
    2.32274    2.32809    54.7874
    2.32809    2.33346     55.085
    2.33346    2.33884    55.3862
    2.33884    2.34423    55.6911
    2.34423    2.34963    55.9999
    2.34963    2.35505    56.3132
    2.35505    2.36048    56.6303
    2.36048    2.36592    56.9516
    2.36592    2.37137    57.2768
    2.37137    2.37684    57.6069
    2.37684    2.38232    57.9412
    2.38232    2.38781    58.2797
    2.38781    2.39332    58.6234
    2.39332    2.39883    58.9708
    2.39883    2.40436    59.3234
    2.40436    2.40991    59.6814
    2.40991    2.41546    60.0432
    2.41546    2.42103    60.4106
    2.42103    2.42661    60.7829
    2.42661    2.43220    61.1601
    2.43220    2.43781    61.5431
    2.43781    2.44343    61.9313
    2.44343    2.44906    62.3246
    2.44906    2.45471    62.7241
    2.45471    2.46037     63.129
    2.46037    2.46604    63.5395
    2.46604    2.47172    63.9556
    2.47172    2.47742    64.3783
    2.47742    2.48313    64.8068
    2.48313    2.48886    65.2422
    2.48886    2.49459    65.6827
    2.49459    2.50035    66.1314
    2.50035    2.50611    66.5853
    2.50611    2.51189    67.0467
    2.51189    2.51768    67.5147
    2.51768    2.52348    67.9893
    2.52348    2.52930    68.4718
    2.52930    2.53513    68.9613
    2.53513    2.54097    69.4579
    2.54097    2.54683    69.9627
    2.54683    2.55270     70.475
    2.55270    2.55859    70.9959
    2.55859    2.56448    71.5236
    2.56448    2.57039    72.0602
    2.57039    2.57632    72.6058
    2.57632    2.58226    73.1598
    2.58226    2.58821    73.7222
    2.58821    2.59418    74.2943
    2.59418    2.60016    74.8752
    2.60016    2.60615    75.4651
    2.60615    2.61216    76.0654
    2.61216    2.61818     76.675
    2.61818    2.62422    77.2954
    2.62422    2.63027    77.9257
    2.63027    2.63633     78.566
    2.63633    2.64241    79.2178
    2.64241    2.64850    79.8801
    2.64850    2.65461    80.5545
    2.65461    2.66073    81.2398
    2.66073    2.66686    81.9365
    2.66686    2.67301     82.646
    2.67301    2.67917    83.3673
    2.67917    2.68534    84.1006
    2.68534    2.69154    84.8491
    2.69154    2.69774    85.6088
    2.69774    2.70396     86.383
    2.70396    2.71019    87.1704
    2.71019    2.71644     87.973
    2.71644    2.72270    88.7895
    2.72270    2.72898    89.6219
    2.72898    2.73527    90.4688
    2.73527    2.74158    91.3324
    2.74158    2.74790    92.2115
    2.74790    2.75423    93.1064
    2.75423    2.76058    94.0192
    2.76058    2.76694    94.9486
    2.76694    2.77332    95.8969
    2.77332    2.77971    96.8626
    2.77971    2.78612    97.8482
    2.78612    2.79254    98.8521
    2.79254    2.79898     99.877
    2.79898    2.80543    100.921
    2.80543    2.81190    101.988
    2.81190    2.81838    103.074
    2.81838    2.82488    104.185
    2.82488    2.83139    105.316
    2.83139    2.83792    106.473
    2.83792    2.84446    107.652
    2.84446    2.85102    108.857
    2.85102    2.85759    110.086
    2.85759    2.86418    111.343
    2.86418    2.87078    112.625
    2.87078    2.87740    113.937
    2.87740    2.88403    115.275
    2.88403    2.89068    116.645
    2.89068    2.89734    118.043
    2.89734    2.90402    119.474
    2.90402    2.91072    120.938
    2.91072    2.91743    122.434
    2.91743    2.92415    123.962
    2.92415    2.93089    125.528
    2.93089    2.93765    127.131
    2.93765    2.94442     128.77
    2.94442    2.95121    130.449
    2.95121    2.95801    132.166
    2.95801    2.96483    133.926
    2.96483    2.97167    135.731
    2.97167    2.97852    137.577
    2.97852    2.98538    139.468
    2.98538    2.99226    141.407
    2.99226    2.99916    143.397
    2.99916    3.00608    145.438
    3.00608    3.01301     147.53
    3.01301    3.01995    149.673
    3.01995    3.02691    151.875
    3.02691    3.03389    154.136
    3.03389    3.04089    156.458
    3.04089    3.04790    158.841
    3.04790    3.05492    161.286
    3.05492    3.06196      163.8
    3.06196    3.06902    166.385
    3.06902    3.07610    169.044
    3.07610    3.08319    171.775
    3.08319    3.09030    174.586
    3.09030    3.09742    177.475
    3.09742    3.10456    180.451
    3.10456    3.11172    183.515
    3.11172    3.11889    186.668
    3.11889    3.12608    189.918
    3.12608    3.13329    193.269
    3.13329    3.14051    196.719
    3.14051    3.14775    200.278
    3.14775    3.15500    203.946
    3.15500    3.16228    207.739
    3.16228    3.16957    211.649
    3.16957    3.17687    215.683
    3.17687    3.18420    219.858
    3.18420    3.19154    224.168
    3.19154    3.19890    228.627
    3.19890    3.20627    233.232
    3.20627    3.21366       238.
    3.21366    3.22107    242.936
    3.22107    3.22850    248.051
    3.22850    3.23594    253.344
    3.23594    3.24340    258.832
    3.24340    3.25087    264.516
    3.25087    3.25837    270.425
    3.25837    3.26588    276.551
    3.26588    3.27341    282.915
    3.27341    3.28096     289.53
    3.28096    3.28852    296.399
    3.28852    3.29610    303.546
    3.29610    3.30370    310.987
    3.30370    3.31131    318.727
    3.31131    3.31894    326.793
    3.31894    3.32659    335.205
    3.32659    3.33427    343.997
    3.33427    3.34195    353.149
    3.34195    3.34966    362.728
    3.34966    3.35738    372.729
    3.35738    3.36512    383.194
    3.36512    3.37287    394.134
    3.37287    3.38065    405.617
    3.38065    3.38844     417.64
    3.38844    3.39625    430.258
    3.39625    3.40408    443.512
    3.40408    3.41193    457.447
    3.41193    3.41979    472.086
    3.41979    3.42768    487.528
    3.42768    3.43558    503.781
    3.43558    3.44350    520.932
    3.44350    3.45144     539.05
    3.45144    3.45939    558.178
    3.45939    3.46737    578.458
    3.46737    3.47536    599.914
    3.47536    3.48338     622.72
    3.48338    3.49140    646.872
    3.49140    3.49945    672.604
    3.49945    3.50752    700.012
    3.50752    3.51560    729.201
    3.51560    3.52371    760.432
    3.52371    3.53183     793.79
    3.53183    3.53998    829.593
    3.53998    3.54814    867.971
    3.54814    3.55631    909.179
    3.55631    3.56451    953.636
    3.56451    3.57273    1001.62
    3.57273    3.58096    1053.45
    3.58096    3.58922    1109.71
    3.58922    3.59750    1170.84
    3.59750    3.60579    1237.32
    3.60579    3.61410    1309.91
    3.61410    3.62243    1389.39
    3.62243    3.63078    1476.65
    3.63078    3.63915    1572.76
    3.63915    3.64754    1678.95
    3.64754    3.65595    1796.68
    3.65595    3.66438     1927.7
    3.66438    3.67282    2073.86
    3.67282    3.68129    2238.04
    3.68129    3.68978    2423.04
    3.68978    3.69828    2632.14
    3.69828    3.70681    2870.35
    3.70681    3.71535    3142.26
    3.71535    3.72392    3455.23
    3.72392    3.73250    3816.21
    3.73250    3.74111    4235.93
    3.74111    3.74973    4724.68
    3.74973    3.75838    5297.61
    3.75838    3.76704    5968.83
    3.76704    3.77572    6756.55
    3.77572    3.78443    7680.41
    3.78443    3.79315    8755.22
    3.79315    3.80189    9995.85
    3.80189    3.81066    11410.7
    3.81066    3.81944    12989.8
    3.81944    3.82825    14715.2
    3.82825    3.83707    16537.7
    3.83707    3.84592    18395.3
    3.84592    3.85478    20193.3
    3.85478    3.86367     21831.
    3.86367    3.87258    23193.9
    3.87258    3.88151    24177.7
    3.88151    3.89045    24699.9
    3.89045    3.89942    24714.8
    3.89942    3.90841    24217.2
    3.90841    3.91742    23246.5
    3.91742    3.92645     21880.
    3.92645    3.93550    20220.7
    3.93550    3.94457    18382.6
    3.94457    3.95367    16473.4
    3.95367    3.96278    14593.8
    3.96278    3.97192    12811.7
    3.97192    3.98107    11180.8
    3.98107    3.99025    9722.38
    3.99025    3.99945    8446.06
    3.99945    4.00867    7345.37
    4.00867    4.01791    6405.66
    4.01791    4.02717    5608.13
    4.02717    4.03645    4933.02
    4.03645    4.04576    4360.69
    4.04576    4.05509    3875.05
    4.05509    4.06444    3461.31
    4.06444    4.07380    3107.62
    4.07380    4.08319    2802.91
    4.08319    4.09261    2539.02
    4.09261    4.10204    2309.82
    4.10204    4.11150    2109.16
    4.11150    4.12098    1932.85
    4.12098    4.13048    1777.17
    4.13048    4.14000    1639.08
    4.14000    4.14954    1516.08
    4.14954    4.15911    1405.93
    4.15911    4.16869    1307.19
    4.16869    4.17831      1218.
    4.17831    4.18794     1137.5
    4.18794    4.19759    1064.51
    4.19759    4.20727    998.047
    4.20727    4.21696    937.524
    4.21696    4.22669     882.05
    4.22669    4.23643    831.281
    4.23643    4.24620    784.581
    4.24620    4.25599    741.591
    4.25599    4.26580    701.926
    4.26580    4.27563    665.257
    4.27563    4.28548    631.295
    4.28548    4.29536    599.747
    4.29536    4.30527    570.392
    4.30527    4.31519    543.099
    4.31519    4.32514    517.617
    4.32514    4.33511    493.824
    4.33511    4.34510    471.575
    4.34510    4.35512    450.716
    4.35512    4.36516    431.158
    4.36516    4.37522    412.798
    4.37522    4.38531    395.519
    4.38531    4.39542    379.261
    4.39542    4.40555    363.943
    4.40555    4.41570    349.496
    4.41570    4.42588    335.843
    4.42588    4.43609    322.926
    4.43609    4.44631    310.721
    4.44631    4.45656    299.153
    4.45656    4.46684    288.178
    4.46684    4.47713    277.781
    4.47713    4.48745      267.9
    4.48745    4.49780    258.503
    4.49780    4.50817    249.569
    4.50817    4.51856    241.069
    4.51856    4.52898    232.966
    4.52898    4.53942    225.245
    4.53942    4.54988    217.883
    4.54988    4.56037    210.851
    4.56037    4.57088    204.138
    4.57088    4.58142    197.717
    4.58142    4.59198    191.579
    4.59198    4.60257    185.702
    4.60257    4.61318    180.077
    4.61318    4.62381    174.691
    4.62381    4.63447    169.525
    4.63447    4.64516    164.567
    4.64516    4.65586    159.818
    4.65586    4.66660     155.25
    4.66660    4.67735    150.869
    4.67735    4.68813    146.657
    4.68813    4.69894    142.605
    4.69894    4.70977     138.71
    4.70977    4.72063    134.959
    4.72063    4.73151     131.35
    4.73151    4.74242    127.872
    4.74242    4.75335    124.522
    4.75335    4.76431    121.292
    4.76431    4.77529    118.178
    4.77529    4.78630    115.173
    4.78630    4.79734    112.272
    4.79734    4.80840    109.473
    4.80840    4.81948    106.771
    4.81948    4.83059    104.159
    4.83059    4.84172    101.636
    4.84172    4.85288    99.1956
    4.85288    4.86408    96.8323
    4.86408    4.87529    94.5499
    4.87529    4.88653      92.34
    4.88653    4.89779    90.2021
    4.89779    4.90908    88.1308
    4.90908    4.92039     86.126
    4.92039    4.93174    84.1807
    4.93174    4.94311    82.2966
    4.94311    4.95450    80.4712
    4.95450    4.96592    78.7003
    4.96592    4.97737    76.9819
    4.97737    4.98884    75.3158
    4.98884    5.00034    73.6983
    5.00034    5.01188    72.1259
    5.01188    5.02343    70.6019
    5.02343    5.03501    69.1209
    5.03501    5.04661    67.6833
    5.04661    5.05825    66.2845
    5.05825    5.06991    64.9259
    5.06991    5.08159    63.6061
    5.08159    5.09331     62.321
    5.09331    5.10505    61.0721
    5.10505    5.11682    59.8567
    5.11682    5.12861    58.6751
    5.12861    5.14044    57.5236
    5.14044    5.15229    56.4036
    5.15229    5.16417    55.3128
    5.16417    5.17607    54.2513
    5.17607    5.18800    53.2172
    5.18800    5.19996    52.2095
    5.19996    5.21195    51.2274
    5.21195    5.22396    50.2711
    5.22396    5.23600    49.3387
    5.23600    5.24808    48.4285
    5.24808    5.26017    47.5427
    5.26017    5.27230    46.6776
    5.27230    5.28445    45.8345
    5.28445    5.29663    45.0118
    5.29663    5.30884     44.209
    5.30884    5.32109    43.4246
    5.32109    5.33335    42.6603
    5.33335    5.34565    41.9132
    5.34565    5.35797    41.1845
    5.35797    5.37032    40.4727
    5.37032    5.38270    39.7773
    5.38270    5.39510    39.0987
    5.39510    5.40755    38.4342
    5.40755    5.42001    37.7862
    5.42001    5.43251    37.1522
    5.43251    5.44503     36.533
    5.44503    5.45758    35.9277
    5.45758    5.47016    35.3358
    5.47016    5.48277     34.757
    5.48277    5.49541    34.1908
    5.49541    5.50808    33.6371
    5.50808    5.52078    33.0954
    5.52078    5.53350    32.5658
    5.53350    5.54626    32.0472
    5.54626    5.55904    31.5401
    5.55904    5.57186    31.0432
    5.57186    5.58470    30.5574
    5.58470    5.59758    30.0813
    5.59758    5.61048    29.6156
    5.61048    5.62341    29.1596
    5.62341    5.63638    28.7126
    5.63638    5.64937    28.2752
    5.64937    5.66240    27.8463
    5.66240    5.67545    27.4266
    5.67545    5.68853    27.0153
    5.68853    5.70164    26.6124
    5.70164    5.71479    26.2172
    5.71479    5.72796    25.8302
    5.72796    5.74117    25.4506
    5.74117    5.75440    25.0788
    5.75440    5.76767     24.714
    5.76767    5.78096    24.3566
    5.78096    5.79429    24.0059
    5.79429    5.80764    23.6623
    5.80764    5.82103     23.325
    5.82103    5.83446    22.9939
    5.83446    5.84790    22.6698
    5.84790    5.86138    22.3515
    5.86138    5.87489    22.0392
    5.87489    5.88844    21.7326
    5.88844    5.90201     21.432
    5.90201    5.91562    21.1367
    5.91562    5.92926     20.847
    5.92926    5.94292    20.5628
    5.94292    5.95662    20.2837
    5.95662    5.97035    20.0097
    5.97035    5.98412    19.7404
    5.98412    5.99791    19.4764
    5.99791    6.01174    19.2168
    6.01174    6.02560     18.962
    6.02560    6.03949    18.7117
    6.03949    6.05341     18.466
    6.05341    6.06736    18.2246
    6.06736    6.08135    17.9873
    6.08135    6.09537    17.7542
    6.09537    6.10942    17.5252
    6.10942    6.12351       17.3
    6.12351    6.13762     17.079
    6.13762    6.15177    16.8616
    6.15177    6.16595     16.648
    6.16595    6.18016    16.4381
    6.18016    6.19442    16.2315
    6.19442    6.20869    16.0287
    6.20869    6.22301    15.8291
    6.22301    6.23735    15.6331
    6.23735    6.25173    15.4402
    6.25173    6.26614    15.2506
    6.26614    6.28058    15.0641
    6.28058    6.29507    14.8805
    6.29507    6.30958    14.7001
    6.30958    6.32412    14.5228
    6.32412    6.33870    14.3482
    6.33870    6.35331    14.1765
    6.35331    6.36795    14.0076
    6.36795    6.38264    13.8413
    6.38264    6.39735    13.6778
    6.39735    6.41210    13.5168
    6.41210    6.42688    13.3585
    6.42688    6.44169    13.2027
    6.44169    6.45654    13.0493
    6.45654    6.47142    12.8984
    6.47142    6.48635    12.7496
    6.48635    6.50130    12.6034
    6.50130    6.51629    12.4594
    6.51629    6.53131    12.3177
    6.53131    6.54636    12.1782
    6.54636    6.56145    12.0408
    6.56145    6.57658    11.9055
    6.57658    6.59174    11.7723
    6.59174    6.60694     11.641
    6.60694    6.62217    11.5119
    6.62217    6.63743    11.3847
    6.63743    6.65273    11.2594
    6.65273    6.66807    11.1359
    6.66807    6.68344    11.0144
    6.68344    6.69885    10.8946
    6.69885    6.71429    10.7767
    6.71429    6.72977    10.6605
    6.72977    6.74528     10.546
    6.74528    6.76083    10.4332
    6.76083    6.77641    10.3221
    6.77641    6.79204    10.2125
    6.79204    6.80770    10.1046
    6.80770    6.82339     9.9983
    6.82339    6.83912     9.8935
    6.83912    6.85488    9.79027
    6.85488    6.87068    9.68851
    6.87068    6.88653    9.58811
    6.88653    6.90240    9.48927
    6.90240    6.91831    9.39182
    6.91831    6.93426    9.29573
    6.93426    6.95024    9.20106
    6.95024    6.96626    9.10771
    6.96626    6.98232    9.01566
    6.98232    6.99842    8.92489
    6.99842    7.01456    8.83537
    7.01456    7.03073    8.74716
    7.03073    7.04693    8.66022
    7.04693    7.06317    8.57448
    7.06317    7.07946    8.48985
    7.07946    7.09578    8.40645
    7.09578    7.11214    8.32418
    7.11214    7.12853    8.24309
    7.12853    7.14496     8.1631
    7.14496    7.16143     8.0842
    7.16143    7.17794    8.00636
    7.17794    7.19449    7.92958
    7.19449    7.21108    7.85384
    7.21108    7.22770    7.77916
    7.22770    7.24436    7.70548
    7.24436    7.26106     7.6328
    7.26106    7.27780    7.56108
    7.27780    7.29457    7.49038
    7.29457    7.31140    7.42051
    7.31140    7.32825    7.35168
    7.32825    7.34514    7.28375
    7.34514    7.36207    7.21672
    7.36207    7.37904    7.15058
    7.37904    7.39605    7.08531
    7.39605    7.41310    7.02091
    7.41310    7.43020     6.9573
    7.43020    7.44732    6.89462
    7.44732    7.46449    6.83272
    7.46449    7.48170    6.77162
    7.48170    7.49894    6.71137
    7.49894    7.51623    6.65186
    7.51623    7.53355    6.59317
    7.53355    7.55093    6.53516
    7.55093    7.56833    6.47799
    7.56833    7.58578    6.42151
    7.58578    7.60326    6.36581
    7.60326    7.62079    6.31079
    7.62079    7.63836    6.25649
    7.63836    7.65597    6.20288
    7.65597    7.67362    6.14997
    7.67362    7.69131    6.09773
    7.69131    7.70904    6.04617
    7.70904    7.72681    5.99527
    7.72681    7.74462    5.94502
    7.74462    7.76247    5.89542
    7.76247    7.78037    5.84643
    7.78037    7.79831    5.79806
    7.79831    7.81628    5.75034
    7.81628    7.83430     5.7032
    7.83430    7.85236    5.65666
    7.85236    7.87046    5.61071
    7.87046    7.88861    5.56533
    7.88861    7.90679    5.52055
    7.90679    7.92502    5.47631
    7.92502    7.94328    5.43266
    7.94328    7.96159    5.38954
    7.96159    7.97995    5.34695
    7.97995    7.99834    5.30492
    7.99834    8.01679    5.26338
    8.01679    8.03526    5.22241
    8.03526    8.05379    5.18192
    8.05379    8.07235    5.14196
    8.07235    8.09096    5.10249
    8.09096    8.10961    5.06353
    8.10961    8.12831    5.02503
    8.12831    8.14705    4.98702
    8.14705    8.16583     4.9495
    8.16583    8.18465    4.91245
    8.18465    8.20352    4.87586
    8.20352    8.22243    4.83973
    8.22243    8.24138    4.80406
    8.24138    8.26038    4.76882
    8.26038    8.27943    4.73402
    8.27943    8.29851    4.69968
    8.29851    8.31764    4.66576
    8.31764    8.33681    4.63227
    8.33681    8.35603    4.59919
    8.35603    8.37529    4.56654
    8.37529    8.39461    4.53427
    8.39461    8.41395    4.50245
    8.41395    8.43335      4.471
    8.43335    8.45279    4.43996
    8.45279    8.47227    4.40932
    8.47227    8.49180    4.37906
    8.49180    8.51139    4.34916
    8.51139    8.53101    4.31967
    8.53101    8.55067    4.29055
    8.55067    8.57038    4.26181
    8.57038    8.59014    4.23342
    8.59014    8.60994     4.2054
    8.60994    8.62978    4.17775
    8.62978    8.64968    4.15044
    8.64968    8.66962    4.12349
    8.66962    8.68961    4.09688
    8.68961    8.70964    4.07062
    8.70964    8.72971    4.04472
    8.72971    8.74984    4.01913
    8.74984    8.77001    3.99389
    8.77001    8.79023    3.96898
    8.79023    8.81049     3.9444
    8.81049    8.83080    3.92015
    8.83080    8.85116    3.89621
    8.85116    8.87156     3.8726
    8.87156    8.89201    3.84931
    8.89201    8.91251    3.82632
    8.91251    8.93306    3.80364
    8.93306    8.95365    3.78129
    8.95365    8.97429    3.75923
    8.97429    8.99498    3.73747
    8.99498    9.01571    3.71603
    9.01571    9.03650    3.69487
    9.03650    9.05733    3.67401
    9.05733    9.07821    3.65345
    9.07821    9.09914    3.63318
    9.09914    9.12011     3.6132
    9.12011    9.14113    3.59352
    9.14113    9.16220    3.57411
    9.16220    9.18333    3.55498
    9.18333    9.20450    3.53614
    9.20450    9.22572    3.51758
    9.22572    9.24698    3.49931
    9.24698    9.26830     3.4813
    9.26830    9.28966    3.46358
    9.28966    9.31108    3.44612
    9.31108    9.33255    3.42893
    9.33255    9.35406    3.41203
    9.35406    9.37562    3.39539
    9.37562    9.39723    3.37902
    9.39723    9.41890    3.36291
    9.41890    9.44061    3.34708
    9.44061    9.46238     3.3315
    9.46238    9.48419    3.31619
    9.48419    9.50605    3.30115
    9.50605    9.52796    3.28638
    9.52796    9.54993    3.27185
    9.54993    9.57194     3.2576
    9.57194    9.59400    3.24361
    9.59400    9.61613    3.22986
    9.61613    9.63829    3.21639
    9.63829    9.66051    3.20317
    9.66051    9.68278    3.19021
    9.68278    9.70510    3.17752
    9.70510    9.72747    3.16508
    9.72747    9.74990     3.1529
    9.74990    9.77238    3.14097
    9.77238    9.79490    3.12931
    9.79490    9.81748    3.11791
    9.81748    9.84011    3.10677
    9.84011    9.86279    3.09589
    9.86279    9.88553    3.08526
    9.88553    9.90833     3.0749
    9.90833    9.93117     3.0648
    9.93117    9.95406    3.05496
    9.95406    9.97700    3.04539
    9.97700    10.0000    3.03608
    10.0000    10.0230    3.02704
    10.0230    10.0462    3.01826
    10.0462    10.0693    3.00976
    10.0693    10.0925    3.00152
    10.0925    10.1158    2.99355
    10.1158    10.1391    2.98586
    10.1391    10.1625    2.97844
    10.1625    10.1859     2.9713
    10.1859    10.2094    2.96444
    10.2094    10.2329    2.95786
    10.2329    10.2565    2.95156
    10.2565    10.2802    2.94555
    10.2802    10.3039    2.93982
    10.3039    10.3276    2.93439
    10.3276    10.3514    2.92925
    10.3514    10.3753    2.92441
    10.3753    10.3992    2.91987
    10.3992    10.4232    2.91564
    10.4232    10.4472    2.91171
    10.4472    10.4713     2.9081
    10.4713    10.4954     2.9048
    10.4954    10.5196    2.90182
    10.5196    10.5439    2.89918
    10.5439    10.5682    2.89685
    10.5682    10.5925    2.89487
    10.5925    10.6170    2.89322
    10.6170    10.6414    2.89192
    10.6414    10.6660    2.89098
    10.6660    10.6906    2.89039
    10.6906    10.7152    2.89016
    10.7152    10.7399    2.89031
    10.7399    10.7646    2.89083
    10.7646    10.7895    2.89174
    10.7895    10.8143    2.89304
    10.8143    10.8393    2.89475
    10.8393    10.8643    2.89686
    10.8643    10.8893    2.89939
    10.8893    10.9144    2.90235
    10.9144    10.9396    2.90575
    10.9396    10.9648    2.90959
    10.9648    10.9901     2.9139
    10.9901    11.0154    2.91867
    11.0154    11.0408    2.92393
    11.0408    11.0662    2.92968
    11.0662    11.0917    2.93593
    11.0917    11.1173    2.94271
    11.1173    11.1429    2.95002
    11.1429    11.1686    2.95789
    11.1686    11.1944    2.96632
    11.1944    11.2202    2.97533
    11.2202    11.2461    2.98493
    11.2461    11.2720    2.99516
    11.2720    11.2980    3.00602
    11.2980    11.3240    3.01754
    11.3240    11.3501    3.02974
    11.3501    11.3763    3.04264
    11.3763    11.4025    3.05625
    11.4025    11.4288    3.07062
    11.4288    11.4551    3.08576
    11.4551    11.4815    3.10169
    11.4815    11.5080    3.11846
    11.5080    11.5345     3.1361
    11.5345    11.5611    3.15462
    11.5611    11.5878    3.17407
    11.5878    11.6145    3.19447
    11.6145    11.6413    3.21587
    11.6413    11.6681    3.23831
    11.6681    11.6950    3.26184
    11.6950    11.7220    3.28648
    11.7220    11.7490     3.3123
    11.7490    11.7761    3.33933
    11.7761    11.8032    3.36764
    11.8032    11.8304    3.39727
    11.8304    11.8577    3.42829
    11.8577    11.8850    3.46079
    11.8850    11.9124    3.49479
    11.9124    11.9399    3.53036
    11.9399    11.9674    3.56762
    11.9674    11.9950     3.6066
    11.9950    12.0226    3.64742
    12.0226    12.0504     3.6902
    12.0504    12.0782    3.73498
    12.0782    12.1060    3.78187
    12.1060    12.1339    3.83099
    12.1339    12.1619    3.88249
    12.1619    12.1899    3.93646
    12.1899    12.2180    3.99306
    12.2180    12.2462    4.05247
    12.2462    12.2744    4.11478
    12.2744    12.3027    4.18018
    12.3027    12.3310    4.24888
    12.3310    12.3595    4.32104
    12.3595    12.3880    4.39692
    12.3880    12.4165    4.47674
    12.4165    12.4451    4.56076
    12.4451    12.4738    4.64921
    12.4738    12.5026    4.74239
    12.5026    12.5314    4.84065
    12.5314    12.5603    4.94435
    12.5603    12.5892    5.05381
    12.5892    12.6183    5.16955
    12.6183    12.6474    5.29192
    12.6474    12.6765    5.42142
    12.6765    12.7057    5.55865
    12.7057    12.7350    5.70419
    12.7350    12.7644    5.85872
    12.7644    12.7938    6.02289
    12.7938    12.8233    6.19764
    12.8233    12.8529    6.38371
    12.8529    12.8825    6.58219
    12.8825    12.9122    6.79406
    12.9122    12.9420    7.02073
    12.9420    12.9718    7.26338
    12.9718    13.0017    7.52386
    13.0017    13.0317    7.80337
    13.0317    13.0617    8.10428
    13.0617    13.0918    8.42867
    13.0918    13.1220    8.77904
    13.1220    13.1523    9.15824
    13.1523    13.1826    9.56932
    13.1826    13.2130    10.0167
    13.2130    13.2434    10.5036
    13.2434    13.2739    11.0358
    13.2739    13.3046    11.6186
    13.3046    13.3352    12.2587
    13.3352    13.3659    12.9643
    13.3659    13.3968     13.745
    13.3968    13.4277    14.6107
    13.4277    13.4586    15.5751
    13.4586    13.4896    16.6537
    13.4896    13.5207    17.8662
    13.5207    13.5519    19.2347
    13.5519    13.5831    20.7887
    13.5831    13.6145    22.5648
    13.6145    13.6458    24.6046
    13.6458    13.6773    26.9657
    13.6773    13.7088    29.7217
    13.7088    13.7404    32.9661
    13.7404    13.7721    36.8239
    13.7721    13.8038    41.4655
    13.8038    13.8357    47.1243
    13.8357    13.8676    54.1272
    13.8676    13.8995    62.9473
    13.8995    13.9316    74.3088
    13.9316    13.9637    89.3353
    13.9637    13.9959      109.9
    13.9959    14.0282    139.296
    14.0282    14.0605    183.487
    14.0605    14.0929    253.584
    14.0929    14.1254    368.669
    14.1254    14.1579    555.532
    14.1579    14.1906    851.675
    14.1906    14.2233    1215.62
    14.2233    14.2561    1634.53
    14.2561    14.2889    1957.95
    14.2889    14.3219    2069.97
    14.3219    14.3549    1920.72
    14.3549    14.3880     1574.2
    14.3880    14.4212    1167.83
    14.4212    14.4544    805.255
    14.4544    14.4877     511.67
    14.4877    14.5211    337.701
    14.5211    14.5546    231.774
    14.5546    14.5881    167.556
    14.5881    14.6218    127.037
    14.6218    14.6555    100.039
    14.6555    14.6893    81.0776
    14.6893    14.7231    67.2134
    14.7231    14.7571    56.7296
    14.7571    14.7911    48.5945
    14.7911    14.8252    42.1497
    14.8252    14.8593    36.9522
    14.8593    14.8936    32.6955
    14.8936    14.9279    29.1697
    14.9279    14.9624    26.2145
    14.9624    14.9969     23.714
    14.9969    15.0314    21.5801
    15.0314    15.0661    19.7455
    15.0661    15.1008    18.1576
    15.1008    15.1356    16.7746
    15.1356    15.1705    15.5646
    15.1705    15.2055    14.5007
    15.2055    15.2405    13.5612
    15.2405    15.2757    12.7286
    15.2757    15.3109    11.9885
    15.3109    15.3462    11.3287
    15.3462    15.3816     10.739
    15.3816    15.4170    10.2118
    15.4170    15.4526    9.73919
    15.4526    15.4882    9.31552
    15.4882    15.5239    8.93565
    15.5239    15.5596    8.59529
    15.5596    15.5955    8.29043
    15.5955    15.6315    8.01856
    15.6315    15.6675    7.77655
    15.6675    15.7036    7.56241
    15.7036    15.7398    7.37412
    15.7398    15.7761    7.21021
    15.7761    15.8125    7.06934
    15.8125    15.8489    6.95056
    15.8489    15.8855    6.85318
    15.8855    15.9221    6.77663
    15.9221    15.9588    6.72067
    15.9588    15.9956    6.68525
    15.9956    16.0325     6.6706
    16.0325    16.0694    6.67717
    16.0694    16.1065    6.70569
    16.1065    16.1436    6.75719
    16.1436    16.1808    6.83305
    16.1808    16.2181    6.93504
    16.2181    16.2555    7.06537
    16.2555    16.2930    7.22674
    16.2930    16.3305    7.42265
    16.3305    16.3682    7.65706
    16.3682    16.4059    7.93522
    16.4059    16.4437    8.26344
    16.4437    16.4816    8.64938
    16.4816    16.5196    9.10304
    16.5196    16.5577    9.63649
    16.5577    16.5959     10.265
    16.5959    16.6341    11.0083
    16.6341    16.6725    11.8922
    16.6725    16.7109    12.9499
    16.7109    16.7494    14.2264
    16.7494    16.7880    15.7822
    16.7880    16.8268    17.7026
    16.8268    16.8655    20.1064
    16.8655    16.9044    23.1706
    16.9044    16.9434    27.1623
    16.9434    16.9824    32.5134
    16.9824    17.0216    39.9506
    17.0216    17.0608    50.8315
    17.0608    17.1002     67.921
    17.1002    17.1396     97.229
    17.1396    17.1791    151.588
    17.1791    17.2187    253.761
    17.2187    17.2584    448.721
    17.2584    17.2982    704.604
    17.2982    17.3380    986.988
    17.3380    17.3780    1188.29
    17.3780    17.4181    1196.29
    17.4181    17.4582    1006.05
    17.4582    17.4985     724.59
    17.4985    17.5388    461.528
    17.5388    17.5792    258.913
    17.5792    17.6198    152.334
    17.6198    17.6604    96.0185
    17.6604    17.7011     65.993
    17.7011    17.7419    48.6767
    17.7419    17.7828     37.733
    17.7828    17.8238    30.2874
    17.8238    17.8649    24.9451
    17.8649    17.9061     20.968
    17.9061    17.9473    17.9163
    17.9473    17.9887    15.5183
    17.9887    18.0302    13.5972
    18.0302    18.0717     12.033
    18.0717    18.1134    10.7411
    18.1134    18.1552    9.66068
    18.1552    18.1970    8.74815
    18.1970    18.2390     7.9698
    18.2390    18.2810    7.29986
    18.2810    18.3231    6.71934
    18.3231    18.3654    6.21237
    18.3654    18.4077    5.76688
    18.4077    18.4502    5.37335
    18.4502    18.4927    5.02398
    18.4927    18.5353    4.71203
    18.5353    18.5781    4.43234
    18.5781    18.6209    4.18059
    18.6209    18.6638    3.95304
    18.6638    18.7068    3.74651
    18.7068    18.7500    3.55859
    18.7500    18.7932    3.38709
    18.7932    18.8365    3.22995
    18.8365    18.8799    3.08567
    18.8799    18.9234    2.95285
    18.9234    18.9671    2.83022
    18.9671    19.0108    2.71666
    19.0108    19.0546    2.61145
    19.0546    19.0985    2.51366
    19.0985    19.1426    2.42261
    19.1426    19.1867    2.33765
    19.1867    19.2309    2.25824
    19.2309    19.2753    2.18387
    19.2753    19.3197    2.11415
    19.3197    19.3642    2.04864
    19.3642    19.4089    1.98703
    19.4089    19.4536    1.92898
    19.4536    19.4984    1.87422
    19.4984    19.5434    1.82248
    19.5434    19.5885    1.77352
    19.5885    19.6336    1.72718
    19.6336    19.6789    1.68324
    19.6789    19.7242    1.64154
    19.7242    19.7697     1.6019
    19.7697    19.8153    1.56421
    19.8153    19.8610     1.5283
    19.8610    19.9067    1.49409
    19.9067    19.9526    1.46146
    19.9526    19.9986    1.43031
    19.9986    20.0447    1.40053
    20.0447    20.0909    1.37205
    20.0909    20.1372    1.34479
    20.1372    20.1837    1.31867
    20.1837    20.2302    1.29364
    20.2302    20.2768    1.26963
    20.2768    20.3236    1.24659
    20.3236    20.3704    1.22444
    20.3704    20.4174    1.20316
    20.4174    20.4645    1.18268
    20.4645    20.5116    1.16298
    20.5116    20.5589    1.14401
    20.5589    20.6063    1.12574
    20.6063    20.6538    1.10812
    20.6538    20.7014    1.09112
    20.7014    20.7491    1.07472
    20.7491    20.7970    1.05888
    20.7970    20.8449    1.04359
    20.8449    20.8930    1.02882
    20.8930    20.9411    1.01453
    20.9411    20.9894    1.00071
    20.9894    21.0378   0.987348
    21.0378    21.0863   0.974407
    21.0863    21.1349   0.961875
    21.1349    21.1836   0.949741
    21.1836    21.2325   0.937983
    21.2325    21.2814   0.926588
    21.2814    21.3304   0.915538
    21.3304    21.3796   0.904822
    21.3796    21.4289   0.894422
    21.4289    21.4783   0.884334
    21.4783    21.5278   0.874543
    21.5278    21.5774   0.865038
    21.5774    21.6272   0.855806
    21.6272    21.6770   0.846841
    21.6770    21.7270   0.838131
    21.7270    21.7771   0.829664
    21.7771    21.8273    0.82144
    21.8273    21.8776   0.813446
    21.8776    21.9280   0.805675
    21.9280    21.9786   0.798119
    21.9786    22.0293   0.790773
    22.0293    22.0801   0.783626
    22.0801    22.1310   0.776679
    22.1310    22.1820   0.769922
    22.1820    22.2331   0.763351
    22.2331    22.2843   0.756959
    22.2843    22.3357   0.750741
    22.3357    22.3872   0.744694
    22.3872    22.4388   0.738809
    22.4388    22.4906    0.73309
    22.4906    22.5424   0.727528
    22.5424    22.5944   0.722119
    22.5944    22.6464   0.716861
    22.6464    22.6986   0.711749
    22.6986    22.7510   0.706779
    22.7510    22.8034   0.701949
    22.8034    22.8560   0.697258
    22.8560    22.9087   0.692703
    22.9087    22.9615    0.68828
    22.9615    23.0144   0.683987
    23.0144    23.0675   0.679822
    23.0675    23.1207   0.675781
    23.1207    23.1740   0.671866
    23.1740    23.2274   0.668074
    23.2274    23.2809   0.664402
    23.2809    23.3346    0.66085
    23.3346    23.3884   0.657417
    23.3884    23.4423     0.6541
    23.4423    23.4963   0.650898
    23.4963    23.5505   0.647813
    23.5505    23.6048   0.644843
    23.6048    23.6592   0.641987
    23.6592    23.7137   0.639245
    23.7137    23.7684   0.636617
    23.7684    23.8232   0.634101
    23.8232    23.8781     0.6317
    23.8781    23.9332   0.629413
    23.9332    23.9883   0.627241
    23.9883    24.0436   0.625185
    24.0436    24.0990   0.623245
    24.0990    24.1546   0.621422
    24.1546    24.2103   0.619716
    24.2103    24.2661   0.618132
    24.2661    24.3221    0.61667
    24.3221    24.3781   0.615331
    24.3781    24.4343   0.614118
    24.4343    24.4906   0.613034
    24.4906    24.5471   0.612081
    24.5471    24.6037   0.611263
    24.6037    24.6604   0.610583
    24.6604    24.7172   0.610046
    24.7172    24.7742   0.609654
    24.7742    24.8313   0.609414
    24.8313    24.8886    0.60933
    24.8886    24.9460   0.609409
    24.9460    25.0035   0.609656
    25.0035    25.0611   0.610078
    25.0611    25.1189   0.610684
    25.1189    25.1768   0.611481
    25.1768    25.2348   0.612479
    25.2348    25.2930   0.613689
    25.2930    25.3513   0.615122
    25.3513    25.4097   0.616789
    25.4097    25.4683   0.618705
    25.4683    25.5270   0.620885
    25.5270    25.5859   0.623346
    25.5859    25.6448   0.626106
    25.6448    25.7040   0.629189
    25.7040    25.7632   0.632613
    25.7632    25.8226   0.636406
    25.8226    25.8821   0.640598
    25.8821    25.9418    0.64522
    25.9418    26.0016   0.650307
    26.0016    26.0615   0.655902
    26.0615    26.1216   0.662053
    26.1216    26.1818   0.668806
    26.1818    26.2422   0.676224
    26.2422    26.3027   0.684371
    26.3027    26.3633   0.693328
    26.3633    26.4241   0.703181
    26.4241    26.4850   0.714039
    26.4850    26.5461   0.726006
    26.5461    26.6073   0.739226
    26.6073    26.6686   0.753858
    26.6686    26.7301   0.770092
    26.7301    26.7917   0.788143
    26.7917    26.8534    0.80828
    26.8534    26.9154   0.830826
    26.9154    26.9774   0.856133
    26.9774    27.0396   0.884671
    27.0396    27.1019   0.917002
    27.1019    27.1644   0.953809
    27.1644    27.2270   0.995953
    27.2270    27.2898    1.04453
    27.2898    27.3527    1.10086
    27.3527    27.4157    1.16673
    27.4157    27.4790    1.24445
    27.4790    27.5423    1.33704
    27.5423    27.6058    1.44866
    27.6058    27.6694    1.58495
    27.6694    27.7332    1.75405
    27.7332    27.7971    1.96745
    27.7971    27.8612    2.24264
    27.8612    27.9255    2.60701
    27.9255    27.9898    3.10512
    27.9898    28.0543    3.81576
    28.0543    28.1190    4.89054
    28.1190    28.1838    6.67155
    28.1838    28.2488    10.0781
    28.2488    28.3139    17.8135
    28.3139    28.3792    36.3667
    28.3792    28.4446    78.0574
    28.4446    28.5102    129.898
    28.5102    28.5759    168.892
    28.5759    28.6418    161.547
    28.6418    28.7078    114.238
    28.7078    28.7740     64.171
    28.7740    28.8403    29.0252
    28.8403    28.9068    14.5546
    28.9068    28.9734    8.59384
    28.9734    29.0403    5.86808
    29.0403    29.1072    4.38581
    29.1072    29.1743    3.46893
    29.1743    29.2415    2.85547
    29.2415    29.3089    2.42329
    29.3089    29.3765     2.1071
    29.3765    29.4442    1.86887
    29.4442    29.5121    1.68551
    29.5121    29.5801    1.54167
    29.5801    29.6483    1.42723
    29.6483    29.7167     1.3351
    29.7167    29.7852    1.26033
    29.7852    29.8538    1.19921
    29.8538    29.9227    1.14906
    29.9227    29.9916    1.10789
    29.9916    30.0608    1.07412
    30.0608    30.1301    1.04653
    30.1301    30.1995    1.02422
    30.1995    30.2691    1.00642
    30.2691    30.3389   0.992563
    30.3389    30.4089   0.982191
    30.4089    30.4790   0.974926
    30.4790    30.5492   0.970476
    30.5492    30.6196   0.968611
    30.6196    30.6902   0.969151
    30.6902    30.7610   0.971959
    30.7610    30.8319   0.976937
    30.8319    30.9030    0.98401
    30.9030    30.9742   0.993142
    30.9742    31.0456    1.00431
    31.0456    31.1172    1.01754
    31.1172    31.1889    1.03285
    31.1889    31.2608    1.05029
    31.2608    31.3329    1.06997
    31.3329    31.4051    1.09194
    31.4051    31.4775    1.11637
    31.4775    31.5500    1.14337
    31.5500    31.6228    1.17316
    31.6228    31.6957    1.20592
    31.6957    31.7688    1.24194
    31.7688    31.8420    1.28145
    31.8420    31.9154    1.32481
    31.9154    31.9890    1.37241
    31.9890    32.0627    1.42469
    32.0627    32.1366    1.48216
    32.1366    32.2107    1.54545
    32.2107    32.2850    1.61529
    32.2850    32.3594    1.69244
    32.3594    32.4340    1.77791
    32.4340    32.5087    1.87284
    32.5087    32.5837     1.9786
    32.5837    32.6588    2.09683
    32.6588    32.7341    2.22959
    32.7341    32.8096    2.37906
    32.8096    32.8852    2.54828
    32.8852    32.9610    2.74076
    32.9610    33.0370    2.96099
    33.0370    33.1131    3.21447
    33.1131    33.1894    3.50828
    33.1894    33.2660    3.85163
    33.2660    33.3427    4.25589
    33.3427    33.4195    4.73679
    33.4195    33.4965    5.31506
    33.4965    33.5738    6.01927
    33.5738    33.6512     6.8893
    33.6512    33.7288    7.98332
    33.7288    33.8065    9.38471
    33.8065    33.8844    11.2252
    33.8844    33.9625    13.7144
    33.9625    34.0408    17.2091
    34.0408    34.1193    22.3669
    34.1193    34.1979    30.5482
    34.1979    34.2768    45.2099
    34.2768    34.3558    77.4183
    34.3558    34.4350    163.824
    34.4350    34.5144    415.548
    34.5144    34.5939    833.209
    34.5939    34.6737    1254.27
    34.6737    34.7536      1292.
    34.7536    34.8338    913.813
    34.8338    34.9141    468.466
    34.9141    34.9945    182.561
    34.9945    35.0752    82.9255
    35.0752    35.1560    46.7211
    35.1560    35.2371    30.8811
    35.2371    35.3183    22.2667
    35.3183    35.3998    16.9306
    35.3998    35.4813    13.3619
    35.4813    35.5631    10.8481
    35.5631    35.6451     9.0089
    35.6451    35.7273     7.6223
    35.7273    35.8096    6.55231
    35.8096    35.8922    5.71069
    35.8922    35.9749    5.03959
    35.9749    36.0579    4.49812
    36.0579    36.1410    4.05825
    36.1410    36.2243    3.70009
    36.2243    36.3078    3.40959
    36.3078    36.3915    3.17729
    36.3915    36.4754    2.99799
    36.4754    36.5595    2.86989
    36.5595    36.6438    2.79611
    36.6438    36.7282    2.78654
    36.7282    36.8129    2.86316
    36.8129    36.8978    3.07311
    36.8978    36.9828     3.5289
    36.9828    37.0681    4.54798
    37.0681    37.1535    7.11715
    37.1535    37.2392    14.5806
    37.2392    37.3250     28.107
    37.3250    37.4111     43.641
    37.4111    37.4973    48.6747
    37.4973    37.5838    37.4085
    37.5838    37.6704    21.3061
    37.6704    37.7572    10.4188
    37.7572    37.8443    5.18742
    37.8443    37.9315    3.36424
    37.9315    38.0189     2.5323
    38.0189    38.1066    2.07839
    38.1066    38.1945    1.80179
    38.1945    38.2825    1.62599
    38.2825    38.3707    1.51881
    38.3707    38.4592    1.46979
    38.4592    38.5478    1.48749
    38.5478    38.6367    1.61758
    38.6367    38.7258    2.01796
    38.7258    38.8151    3.12039
    38.8151    38.9045    5.76554
    38.9045    38.9942    8.82138
    38.9942    39.0841    10.2495
    39.0841    39.1742    8.42887
    39.1742    39.2645    5.23578
    39.2645    39.3550    2.87299
    39.3550    39.4457    1.67489
    39.4457    39.5367    1.24236
    39.5367    39.6278    1.04049
    39.6278    39.7191   0.927079
    39.7191    39.8107   0.854334
    39.8107    39.9025   0.803714
    39.9025    39.9945   0.766627
    39.9945    40.0867   0.738454
    40.0867    40.1791   0.716546
    40.1791    40.2717   0.699274
    40.2717    40.3645   0.685593
    40.3645    40.4576     0.6748
    40.4576    40.5509   0.666429
    40.5509    40.6444   0.660143
    40.6444    40.7380   0.655713
    40.7380    40.8319   0.652981
    40.8319    40.9261   0.651842
    40.9261    41.0204   0.652236
    41.0204    41.1150   0.654138
    41.1150    41.2098   0.657549
    41.2098    41.3048     0.6625
    41.3048    41.4000   0.669049
    41.4000    41.4954   0.677282
    41.4954    41.5911   0.687312
    41.5911    41.6870   0.699291
    41.6870    41.7831    0.71339
    41.7831    41.8794   0.729839
    41.8794    41.9759   0.748908
    41.9759    42.0727   0.770934
    42.0727    42.1696   0.796321
    42.1696    42.2668   0.825564
    42.2668    42.3643     0.8593
    42.3643    42.4620    0.89824
    42.4620    42.5599   0.943348
    42.5599    42.6580   0.995797
    42.6580    42.7563    1.05709
    42.7563    42.8548    1.12915
    42.8548    42.9536    1.21446
    42.9536    43.0527    1.31638
    43.0527    43.1519     1.4392
    43.1519    43.2514    1.58901
    43.2514    43.3511    1.77421
    43.3511    43.4510    2.00676
    43.4510    43.5512    2.30439
    43.5512    43.6516    2.69433
    43.6516    43.7522      3.219
    43.7522    43.8531    3.95045
    43.8531    43.9542     5.0174
    43.9542    44.0555     6.6739
    44.0555    44.1570    9.50803
    44.1570    44.2588     15.311
    44.2588    44.3609    31.0613
    44.3609    44.4631    88.1787
    44.4631    44.5656    211.455
    44.5656    44.6684    353.808
    44.6684    44.7713    371.034
    44.7713    44.8745    238.111
    44.8745    44.9780    104.818
    44.9780    45.0817    36.0124
    45.0817    45.1856    16.6584
    45.1856    45.2898    9.94448
    45.2898    45.3942    6.82945
    45.3942    45.4988    5.05987
    45.4988    45.6037    3.94136
    45.6037    45.7088    3.18597
    45.7088    45.8142    2.65178
    45.8142    45.9198     2.2601
    45.9198    46.0257    1.96473
    46.0257    46.1318    1.73705
    46.1318    46.2381     1.5584
    46.2381    46.3447    1.41629
    46.3447    46.4516    1.30195
    46.4516    46.5586    1.20935
    46.5586    46.6660    1.13398
    46.6660    46.7735    1.07255
    46.7735    46.8813     1.0226
    46.8813    46.9894   0.982332
    46.9894    47.0978   0.950327
    47.0978    47.2063   0.925603
    47.2063    47.3151   0.907381
    47.3151    47.4242    0.89513
    47.4242    47.5335   0.888511
    47.5335    47.6431   0.887352
    47.6431    47.7529   0.891641
    47.7529    47.8630   0.901536
    47.8630    47.9734    0.91735
    47.9734    48.0840   0.939605
    48.0840    48.1948   0.969056
    48.1948    48.3059    1.00674
    48.3059    48.4172    1.05408
    48.4172    48.5289    1.11303
    48.5289    48.6407     1.1861
    48.6407    48.7529    1.27691
    48.7529    48.8653    1.39037
    48.8653    48.9779    1.53346
    48.9779    49.0908    1.71631
    49.0908    49.2039    1.95401
    49.2039    49.3174    2.27009
    49.3174    49.4311      2.702
    49.4311    49.5450    3.31438
    49.5450    49.6592    4.22556
    49.6592    49.7737     5.6762
    49.7737    49.8884    8.25418
    49.8884    50.0035    14.0066
    50.0035    50.1188    32.4457
    50.1188    50.2343    107.775
    50.2343    50.3501    258.764
    50.3501    50.4661    388.071
    50.4661    50.5825    325.983
    50.5825    50.6991     162.57
    50.6991    50.8160    49.3176
    50.8160    50.9331    18.1854
    50.9331    51.0505     9.6178
    51.0505    51.1682      6.283
    51.1682    51.2861    4.52763
    51.2861    51.4044    3.46561
    51.4044    51.5228    2.77082
    51.5228    51.6417    2.29039
    51.6417    51.7607    1.94463
    51.7607    51.8800    1.68756
    51.8800    51.9996    1.49152
    51.9996    52.1195    1.33897
    52.1195    52.2396    1.21829
    52.2396    52.3601    1.12149
    52.3601    52.4808     1.0431
    52.4808    52.6018   0.979078
    52.6018    52.7230   0.926472
    52.7230    52.8445   0.883096
    52.8445    52.9663   0.847291
    52.9663    53.0884   0.817788
    53.0884    53.2109   0.793585
    53.2109    53.3335   0.773946
    53.3335    53.4565   0.758246
    53.4565    53.5797   0.746016
    53.5797    53.7032   0.736877
    53.7032    53.8270   0.730541
    53.8270    53.9511    0.72678
    53.9511    54.0755   0.725431
    54.0755    54.2001   0.726368
    54.2001    54.3250   0.729515
    54.3250    54.4503   0.734829
    54.4503    54.5758   0.742308
    54.5758    54.7016   0.751981
    54.7016    54.8277   0.763923
    54.8277    54.9541   0.778221
    54.9541    55.0808   0.795026
    55.0808    55.2078   0.814527
    55.2078    55.3350   0.836956
    55.3350    55.4626   0.862617
    55.4626    55.5905   0.891889
    55.5905    55.7186   0.925197
    55.7186    55.8471   0.963116
    55.8471    55.9758    1.00633
    55.9758    56.1048     1.0557
    56.1048    56.2341    1.11229
    56.2341    56.3638    1.17744
    56.3638    56.4937    1.25291
    56.4937    56.6240     1.3408
    56.6240    56.7545    1.44403
    56.7545    56.8853    1.56633
    56.8853    57.0164    1.71278
    57.0164    57.1479    1.89031
    57.1479    57.2796    2.10856
    57.2796    57.4117     2.3816
    57.4117    57.5440    2.72958
    57.5440    57.6767    3.18395
    57.6767    57.8096    3.79467
    57.8096    57.9429    4.64555
    57.9429    58.0764    5.88723
    58.0764    58.2104    7.81593
    58.2104    58.3445    11.0981
    58.3445    58.4790    17.7537
    58.4790    58.6138    37.1715
    58.6138    58.7489    132.165
    58.7489    58.8844     394.63
    58.8844    59.0201    694.877
    59.0201    59.1562    633.294
    59.1562    59.2926    307.985
    59.2926    59.4292    82.1684
    59.4292    59.5662    28.2785
    59.5662    59.7035    15.0086
    59.7035    59.8411    9.89844
    59.8411    59.9792    7.21034
    59.9792    60.1174    5.60631
    60.1174    60.2560    4.57649
    60.2560    60.3949    3.88282
    60.3949    60.5341    3.40043
    60.5341    60.6736    3.05899
    60.6736    60.8135     2.8163
    60.8135    60.9537    2.64605
    60.9537    61.0942    2.53165
    61.0942    61.2351    2.46226
    61.2351    61.3762    2.43125
    61.3762    61.5177    2.43518
    61.5177    61.6595    2.47348
    61.6595    61.8017    2.54891
    61.8017    61.9442    2.66902
    61.9442    62.0869    2.85093
    62.0869    62.2300    3.13532
    62.2300    62.3735    3.65482
    62.3735    62.5173    5.14296
    62.5173    62.6614    13.0211
    62.6614    62.8059    33.8184
    62.8059    62.9507    51.9671
    62.9507    63.0958    40.4299
    63.0958    63.2412    18.1899
    63.2412    63.3870    7.80998
    63.3870    63.5331    6.39723
    63.5331    63.6795    6.60524
    63.6795    63.8264    7.27708
    63.8264    63.9735    8.28421
    63.9735    64.1210    9.67125
    64.1210    64.2688    11.5632
    64.2688    64.4169    14.1871
    64.4169    64.5654    17.9446
    64.5654    64.7143    23.5848
    64.7143    64.8635    32.6256
    64.8635    65.0130    48.7359
    65.0130    65.1629    82.8679
    65.1629    65.3131    190.848
    65.3131    65.4636    485.883
    65.4636    65.6145    999.303
    65.6145    65.7658    1262.31
    65.7658    65.9174    888.191
    65.9174    66.0694    399.596
    66.0694    66.2217    143.901
    66.2217    66.3743    70.6325
    66.3743    66.5273    42.7081
    66.5273    66.6807    28.9474
    66.6807    66.8344    20.9932
    66.8344    66.9885    15.9479
    66.9885    67.1429    12.5408
    67.1429    67.2977    10.1294
    67.2977    67.4528    8.35891
    67.4528    67.6083    7.02007
    67.6083    67.7642    5.98228
    67.7642    67.9204    5.16242
    67.9204    68.0770    4.50295
    68.0770    68.2339     3.9647
    68.2339    68.3912    3.51966
    68.3912    68.5488    3.14749
    68.5488    68.7069    2.83301
    68.7069    68.8653    2.56515
    68.8653    69.0240    2.33506
    69.0240    69.1831    2.13599
    69.1831    69.3426    1.96262
    69.3426    69.5024    1.81075
    69.5024    69.6626    1.67699
    69.6626    69.8233    1.55853
    69.8233    69.9843    1.45327
    69.9843    70.1456     1.3593
    70.1456    70.3072    1.27508
    70.3072    70.4693    1.19933
    70.4693    70.6317    1.13098
    70.6317    70.7946    1.06912
    70.7946    70.9578    1.01295
    70.9578    71.1214   0.961882
    71.1214    71.2853   0.915299
    71.2853    71.4497   0.872728
    71.4497    71.6144   0.833745
    71.6144    71.7794   0.797987
    71.7794    71.9450   0.765112
    71.9450    72.1108    0.73488
    72.1108    72.2770   0.707024
    72.2770    72.4436   0.681335
    72.4436    72.6106    0.65762
    72.6106    72.7780   0.635712
    72.7780    72.9457   0.615464
    72.9457    73.1140   0.596734
    73.1140    73.2825   0.579427
    73.2825    73.4514   0.563425
    73.4514    73.6207    0.54864
    73.6207    73.7904    0.53499
    73.7904    73.9605   0.522401
    73.9605    74.1311   0.510805
    74.1311    74.3020   0.500157
    74.3020    74.4732   0.490401
    74.4732    74.6449   0.481493
    74.6449    74.8170   0.473398
    74.8170    74.9894   0.466081
    74.9894    75.1623   0.459519
    75.1623    75.3356   0.453685
    75.3356    75.5093   0.448571
    75.5093    75.6833   0.444161
    75.6833    75.8578   0.440448
    75.8578    76.0326   0.437432
    76.0326    76.2079   0.435117
    76.2079    76.3836   0.433511
    76.3836    76.5597   0.432632
    76.5597    76.7362   0.432501
    76.7362    76.9131   0.433149
    76.9131    77.0904   0.434614
    77.0904    77.2681   0.436944
    77.2681    77.4462   0.440199
    77.4462    77.6248   0.444453
    77.6248    77.8037   0.449791
    77.8037    77.9831   0.456323
    77.9831    78.1628   0.464177
    78.1628    78.3430   0.473513
    78.3430    78.5236   0.484522
    78.5236    78.7046    0.49744
    78.7046    78.8861   0.512565
    78.8861    79.0679    0.53024
    79.0679    79.2502   0.550924
    79.2502    79.4329   0.575179
    79.4329    79.6159   0.603724
    79.6159    79.7995    0.63749
    79.7995    79.9835   0.677712
    79.9835    80.1679   0.725955
    80.1679    80.3526   0.784406
    80.3526    80.5379    0.85605
    80.5379    80.7235   0.945072
    80.7235    80.9096    1.05753
    80.9096    81.0961    1.20241
    81.0961    81.2831    1.39371
    81.2831    81.4705    1.65354
    81.4705    81.6583     2.0199
    81.6583    81.8465     2.5615
    81.8465    82.0352    3.41423
    82.0352    82.2243    4.88262
    82.2243    82.4139    7.87048
    82.4139    82.6038    17.1337
    82.6038    82.7943     81.511
    82.7943    82.9851    302.537
    82.9851    83.1764    488.104
    83.1764    83.3681    306.081
    83.3681    83.5603     84.756
    83.5603    83.7530    17.4979
    83.7530    83.9460    7.86012
    83.9460    84.1395      4.849
    84.1395    84.3335    3.39045
    84.3335    84.5279    2.55436
    84.5279    84.7227    2.03113
    84.7227    84.9180    1.68349
    84.9180    85.1139    1.44228
    85.1139    85.3101    1.26987
    85.3101    85.5067    1.14394
    85.5067    85.7038    1.05079
    85.7038    85.9013   0.981627
    85.9013    86.0994   0.930601
    86.0994    86.2979   0.893714
    86.2979    86.4968   0.868249
    86.4968    86.6962   0.852255
    86.6962    86.8961   0.844389
    86.8961    87.0964   0.843735
    87.0964    87.2971   0.849697
    87.2971    87.4984    0.86194
    87.4984    87.7001   0.880352
    87.7001    87.9023   0.904984
    87.9023    88.1049   0.936098
    88.1049    88.3080   0.974134
    88.3080    88.5116    1.01973
    88.5116    88.7156    1.07376
    88.7156    88.9202     1.1374
    88.9202    89.1252    1.21205
    89.1252    89.3306    1.29964
    89.3306    89.5365    1.40259
    89.5365    89.7429    1.52405
    89.7429    89.9498     1.6681
    89.9498    90.1571    1.84011
    90.1571    90.3650     2.0474
    90.3650    90.5733    2.29951
    90.5733    90.7821    2.61008
    90.7821    90.9913    2.99815
    90.9913    91.2011    3.49162
    91.2011    91.4113    4.13202
    91.4113    91.6221    4.98474
    91.6221    91.8333    6.15436
    91.8333    92.0450    7.82256
    92.0450    92.2572    10.3231
    92.2572    92.4698    14.3279
    92.4698    92.6830    21.3681
    92.6830    92.8966     36.086
    92.8966    93.1109     83.102
    93.1109    93.3255    359.134
    93.3255    93.5406    1031.62
    93.5406    93.7562    1295.04
    93.7562    93.9723    648.177
    93.9723    94.1890    170.731
    94.1890    94.4061    50.5347
    94.4061    94.6238    26.8806
    94.6238    94.8419    18.6948
    94.8419    95.0605    27.2291
    95.0605    95.2796    58.2561
    95.2796    95.4993    59.0597
    95.4993    95.7194     23.758
    95.7194    95.9402    6.65055
    95.9402    96.1613    4.23249
    96.1613    96.3829    3.35253
    96.3829    96.6051    2.78523
    96.6051    96.8278    2.37255
    96.8278    97.0510     2.0568
    97.0510    97.2747    1.80742
    97.2747    97.4990    1.60603
    97.4990    97.7238    1.44097
    97.7238    97.9490    1.30405
    97.9490    98.1748    1.18952
    98.1748    98.4011    1.09327
    98.4011    98.6279    1.01233
    98.6279    98.8554   0.944558
    98.8554    99.0833   0.888722
    99.0833    99.3117   0.844242
    99.3117    99.5406   0.811551
    99.5406    99.7700   0.792579
    99.7700    100.000   0.792031
    100.000    100.231   0.820621
    100.231    100.462   0.904239
    100.462    100.693    1.12896
    100.693    100.925    2.11847
    100.925    101.158     9.8013
    101.158    101.391    25.5642
    101.391    101.625    24.5302
    101.625    101.859    8.73524
    101.859    102.094    1.85765
    102.094    102.329   0.956164
    102.329    102.565   0.710431
    102.565    102.802    0.59136
    102.802    103.039   0.521305
    103.039    103.276   0.475658
    103.276    103.514   0.443681
    103.514    103.753   0.420124
    103.753    103.992   0.402164
    103.992    104.232   0.388178
    104.232    104.472   0.377166
    104.472    104.713   0.368488
    104.713    104.954   0.361732
ENDDATA           2023
ENDSUBENT         2033
ENDENTRY             4
