ENTRY            F0729   20051123   20060315                  F023
SUBENT        F0729001   20051123   20060315                  F023
BIB                 10         22
TITLE       (p,a)reactions on 9Be and 10B for Ep=18-45 MeV.
AUTHOR     (H.J.Hauser,M.Walz,F.Weng,G.Staudt,P.K.Rath)
INSTITUTE  (2GERTUE)
REFERENCE  (J,NP/A,456,253,1986)
FACILITY   (ISOCY,2GERJUL)The proton beam with energies between
           22.5 and 45 MeV was obtained from the isochronous
           cyclotron JULIC of the KFA Julich.
           (CYCLO,2GERHAM)The experiment at 18 MeV was performed
           using the proton beam of the cyclotron at the
           University of Hamburg.
DETECTOR   (TELES,SIBAR)Counter telescopes consisting of 50 mu-m
            (dE) and 1000 mu-m (E) surface-barrier silicon
           detectors were used for detecting and measuring the
           energy of the outgoing alpha particles.
           (GELI)Detector served as proton monitor.
SAMPLE     The targets were self-supporting beryllium and enriched
           boron foils,respectively, with typical areal densities
           of 150 mu-g/cm2.
METHOD     (EDE)
           (BCINT)
ERR-ANALYS (ERR-DIG)Digitizing error
HISTORY    (20050824C)
ENDBIB              22
NOCOMMON             0          0
ENDSUBENT           25
SUBENT        F0729002   20051123   20060315                  F023
BIB                  3          4
REACTION   (4-BE-9(P,A)3-LI-6,PAR,DA)
ERR-ANALYS (ANG-ERR-D)Digitizing error
           (DATA-ERR)Error from the graphic bars
STATUS     (CURVE)Fig.3
ENDBIB               4
COMMON               2          3
ANG-ERR-D  ERR-DIG
ADEG       PER-CENT
 0.2        0.2
ENDCOMMON            3
DATA                 5        449
E-LVL      EN         ANG-CM     DATA-CM    DATA-ERR
MEV        MEV        ADEG       MU-B/SR    MU-B/SR
 0.0000     18.600     13.227     224.54     17.587
 0.0000     18.600     21.934     335.26     23.401
 0.0000     18.600     31.336     340.62     16.615
 0.0000     18.600     48.398     168.72     10.350
 0.0000     18.600     60.237     150.38     12.423
 0.0000     18.600     66.681     337.92     20.729
 0.0000     18.600     75.909     425.38     24.306
 0.0000     18.600     82.003     447.90     33.170
 0.0000     18.600     87.575     524.97     32.203
 0.0000     18.600     98.370     299.98     18.401
 0.0000     18.600     108.64     317.11     20.791
 0.0000     18.600     117.00     158.96     10.422
 0.0000     18.600     126.93     460.51     28.248
 0.0000     18.600     135.81     552.74     40.933
 0.0000     18.600     140.33     514.63     33.740
 0.0000     18.600     151.48     539.73     35.386
 0.0000     18.600     159.83     658.20     37.608
 0.0000     18.600     167.67     990.59     64.946
 0.0000     22.500     11.309     102.86     6.7399
 0.0000     22.500     17.404     190.98     9.3107
 0.0000     22.500     23.498     253.11     11.288
 0.0000     22.500     29.418     274.00     11.699
 0.0000     22.500     35.512     287.36     10.444
 0.0000     22.500     41.780     276.18     11.176
 0.0000     22.500     47.874     187.97     10.734
 0.0000     22.500     54.142     154.77     8.1902
 0.0000     22.500     59.887     129.47     5.2387
 0.0000     22.500     65.981     128.95     4.0279
 0.0000     22.500     71.553     179.23     7.2524
 0.0000     22.500     77.299     200.28     8.9326
 0.0000     22.500     82.697     215.96     7.5739
 0.0000     22.500     88.095     245.19     8.9114
 0.0000     22.500     93.318     264.38     9.6090
 0.0000     22.500     98.542     239.42     8.7018
 0.0000     22.500     103.76     200.28     6.2558
 0.0000     22.500     108.64     178.52     8.7029
 0.0000     22.500     113.69     150.52     5.8539
 0.0000     22.500     118.22     148.74     8.4938
 0.0000     22.500     122.92     173.63     8.4645
 0.0000     22.500     127.62     168.87     5.9224
 0.0000     22.500     131.80     199.48     6.9960
 0.0000     22.500     135.98     250.09     11.154
 0.0000     22.500     140.15     267.54     8.6260
 0.0000     22.500     144.51     270.74     8.4566
 0.0000     22.500     148.34     297.78     14.517
 0.0000     22.500     152.69     297.78     12.049
 0.0000     22.500     156.35     279.46     20.684
 0.0000     22.500     160.00     353.16     17.217
 0.0000     22.500     163.83     326.22     14.549
 0.0000     26.700     10.785     50.362     3.7273
 0.0000     26.700     17.750     55.172     3.8488
 0.0000     26.700     23.845     81.709     5.0092
 0.0000     26.700     29.765     124.91     6.6102
 0.0000     26.700     35.685     140.14     9.1824
 0.0000     26.700     41.779     147.55     7.8084
 0.0000     26.700     48.047     118.16     6.2530
 0.0000     26.700     54.315     96.902     6.3495
 0.0000     26.700     60.756     59.726     4.6753
 0.0000     26.700     67.198     40.169     2.4626
 0.0000     26.700     72.422     54.517     3.5722
 0.0000     26.700     77.646     80.101     5.5878
 0.0000     26.700     82.870     106.58     6.5339
 0.0000     26.700     88.790     135.75     8.3226
 0.0000     26.700     94.884     143.51     8.1948
 0.0000     26.700     99.933     132.04     9.2107
 0.0000     26.700     105.16     116.76     5.2073
 0.0000     26.700     109.86     93.130     4.9284
 0.0000     26.700     115.08     63.889     4.4569
 0.0000     26.700     120.13     57.857     4.2821
 0.0000     26.700     125.18     46.517     3.0480
 0.0000     26.700     129.53     58.087     3.8061
 0.0000     26.700     134.06     79.149     5.1862
 0.0000     26.700     137.54     84.671     5.9066
 0.0000     26.700     142.42     102.84     7.1738
 0.0000     26.700     145.73     112.21     7.8279
 0.0000     26.700     150.08     128.41     7.8726
 0.0000     26.700     154.08     145.22     8.2926
 0.0000     26.700     158.09     163.57     8.6560
 0.0000     26.700     161.40     187.18     11.476
 0.0000     26.700     164.01     187.18     12.265
 0.0000     26.700     168.01     190.93     8.8755
 0.0000     26.700     171.50     230.06     14.104
 0.0000     31.000     11.824     78.164     6.0863
 0.0000     31.000     18.266     60.240     5.2052
 0.0000     31.000     24.534     44.455     4.6096
 0.0000     31.000     30.454     62.913     5.7064
 0.0000     31.000     36.374     102.63     7.1215
 0.0000     31.000     42.468     99.047     7.2919
 0.0000     31.000     48.562     83.588     6.8649
 0.0000     31.000     54.830     74.548     6.1225
 0.0000     31.000     60.750     42.734     7.1104
 0.0000     31.000     66.844     25.888     2.0158
 0.0000     31.000     72.938     23.549     3.3816
 0.0000     31.000     78.161     39.180     2.5537
 0.0000     31.000     83.559     61.927     3.7766
 0.0000     31.000     88.260     90.810     4.7805
 0.0000     31.000     94.354     91.891     2.8558
 0.0000     31.000     99.055     93.722     4.1582
 0.0000     31.000     104.10     83.258     4.7295
 0.0000     31.000     109.50     69.710     4.5437
 0.0000     31.000     114.38     59.063     4.0984
 0.0000     31.000     118.90     46.610     3.2343
 0.0000     31.000     123.61     45.699     3.4683
 0.0000     31.000     128.13     44.806     3.0724
 0.0000     31.000     132.49     60.239     4.1801
 0.0000     31.000     136.84     64.930     4.2321
 0.0000     31.000     141.19     65.963     3.5456
 0.0000     31.000     145.02     76.938     5.0148
 0.0000     31.000     149.03     71.663     4.3851
 0.0000     31.000     153.03     75.733     4.6342
 0.0000     31.000     157.04     87.986     5.7349
 0.0000     31.000     160.87     88.684     6.1539
 0.0000     31.000     164.70     80.669     4.2467
 0.0000     31.000     168.18     80.669     5.5978
 0.0000     38.000     19.833     43.148     2.9941
 0.0000     38.000     25.753     27.733     1.9244
 0.0000     38.000     31.498     25.427     1.4444
 0.0000     38.000     38.115     37.581     2.6078
 0.0000     38.000     44.035     47.810     2.9156
 0.0000     38.000     50.477     43.147     3.5436
 0.0000     38.000     56.571     32.733     1.5140
 0.0000     38.000     62.143     24.346     1.7924
 0.0000     38.000     68.585     15.526     1.0773
 0.0000     38.000     74.679     11.871    0.50432
 0.0000     38.000     79.902     16.214    0.98882
 0.0000     38.000     86.170     25.831     1.0398
 0.0000     38.000     90.349     30.368     2.2357
 0.0000     38.000     96.791     35.561     1.8720
 0.0000     38.000     101.67     45.778     2.9838
 0.0000     38.000     107.24     38.330     1.8589
 0.0000     38.000     111.77     34.050     1.7028
 0.0000     38.000     116.47     33.649     1.6319
 0.0000     38.000     121.69     25.326     1.0759
 0.0000     38.000     126.74     23.683     1.5436
 0.0000     38.000     131.27     24.734    0.89428
 0.0000     38.000     134.57     22.766     1.4839
 0.0000     38.000     139.45     25.426     1.6573
 0.0000     38.000     143.98     30.368     1.9793
 0.0000     38.000     148.16     37.285     2.2738
 0.0000     38.000     151.81     40.667     2.4800
 0.0000     38.000     155.29     47.060     2.6733
 0.0000     38.000     158.60     49.930     3.2544
 0.0000     38.000     162.95     52.559     2.2328
 0.0000     38.000     165.22     58.468     3.3213
 0.0000     38.000     169.57     65.558     4.2730
 0.0000     38.000     172.71     75.268     5.2230
 0.0000     41.000     12.658     46.322     2.0786
 0.0000     41.000     18.742     25.055     1.9735
 0.0000     41.000     25.002     19.799     1.3053
 0.0000     41.000     31.089     19.253     1.6829
 0.0000     41.000     37.349     17.494     1.2280
 0.0000     41.000     43.262     17.012     1.1941
 0.0000     41.000     49.525     25.354     1.6716
 0.0000     41.000     55.437     22.226     1.7507
 0.0000     41.000     61.173     11.099     1.0185
 0.0000     41.000     67.258     7.5972    0.69384
 0.0000     41.000     72.998     8.7358    0.91646
 0.0000     41.000     78.563     9.2376    0.88797
 0.0000     41.000     83.956     13.124    0.95826
 0.0000     41.000     89.002     20.437     1.9645
 0.0000     41.000     94.916     23.500     1.3503
 0.0000     41.000     100.13     32.990     1.8955
 0.0000     41.000     105.18     31.699     1.9553
 0.0000     41.000     110.22     27.347     1.1745
 0.0000     41.000     115.09     23.127     1.0814
 0.0000     41.000     119.44     20.931     1.5588
 0.0000     41.000     124.13     15.210     1.4621
 0.0000     41.000     128.65     14.384     1.1950
 0.0000     41.000     132.83     14.673     1.3464
 0.0000     41.000     137.52     16.084     1.1148
 0.0000     41.000     141.70     21.869     1.6286
 0.0000     41.000     145.52     26.485     1.7462
 0.0000     41.000     149.70     26.804     1.7672
 0.0000     41.000     153.70     28.344     1.9895
 0.0000     41.000     157.35     29.146     2.0459
 0.0000     41.000     161.00     30.698     1.7638
 0.0000     45.000     15.957     45.028     1.8423
 0.0000     45.000     18.043     34.557     1.3583
 0.0000     45.000     24.824     25.376    0.93258
 0.0000     45.000     28.301     21.529    0.70186
 0.0000     45.000     31.083     18.046    0.63969
 0.0000     45.000     34.735     18.635    0.68482
 0.0000     45.000     39.779     18.191    0.66853
 0.0000     45.000     44.996     19.242    0.70712
 0.0000     45.000     49.692     19.241    0.70712
 0.0000     45.000     55.778     16.064    0.50717
 0.0000     45.000     62.038     13.520    0.49684
 0.0000     45.000     67.254     10.671    0.43661
 0.0000     45.000     72.471     8.6278    0.42533
 0.0000     45.000     75.079     7.9628    0.39255
 0.0000     45.000     77.862     8.1240    0.29856
 0.0000     45.000     80.819     8.9447    0.32871
 0.0000     45.000     85.167     9.7304    0.34492
 0.0000     45.000     87.950     11.608    0.62119
 0.0000     45.000     90.038     13.959    0.62954
 0.0000     45.000     94.388     19.316    0.79034
 0.0000     45.000     99.779     21.098    0.86323
 0.0000     45.000     104.82     22.495    0.82670
 0.0000     45.000     109.34     21.873    0.80381
 0.0000     45.000     112.65     18.115    0.57192
 0.0000     45.000     117.34     15.307    0.60168
 0.0000     45.000     124.82     11.937    0.53835
 0.0000     45.000     131.08     9.4600    0.26185
 0.0000     45.000     134.21     10.127    0.31973
 0.0000     45.000     137.86     14.240    0.52333
 0.0000     45.000     141.00     17.194    0.70349
 0.0000     45.000     145.17     20.594    0.92874
 0.0000     45.000     149.69     23.319     1.1496
 0.0000     45.000     157.35     27.597     1.1291
 0.0000     45.000     165.70     37.429     1.6880
 2.2000     22.500     12.983     958.86     30.501
 2.2000     22.500     19.801     886.65     21.070
 2.2000     22.500     25.595     653.36     20.783
 2.2000     22.500     32.072     558.66     21.445
 2.2000     22.500     38.209     594.76     18.919
 2.2000     22.500     44.345     590.12     18.771
 2.2000     22.500     50.141     684.75     16.272
 2.2000     22.500     56.278     776.11     18.443
 2.2000     22.500     62.073     752.18     23.926
 2.2000     22.500     67.868     723.30     28.873
 2.2000     22.500     73.323     690.10     16.399
 2.2000     22.500     78.777     623.32     19.827
 2.2000     22.500     84.231     599.39     19.066
 2.2000     22.500     90.027     613.62     14.582
 2.2000     22.500     95.141     628.20     25.077
 2.2000     22.500     105.37     554.23     22.124
 2.2000     22.500     110.14     613.60     19.518
 2.2000     22.500     114.91     567.39     13.483
 2.2000     22.500     119.69     524.66     20.944
 2.2000     22.500     124.12     599.34     19.065
 2.2000     22.500     128.55     604.05     19.215
 2.2000     22.500     132.64     613.58     19.518
 2.2000     22.500     136.73     740.39     23.552
 2.2000     22.500     141.16     740.39     23.551
 2.2000     22.500     144.91     794.43     31.713
 2.2000     22.500     149.01     839.17     26.694
 2.2000     31.000     12.990     825.20     26.503
 2.2000     31.000     19.466     611.11     14.662
 2.2000     31.000     25.600     408.38     23.229
 2.2000     31.000     31.735     307.26     14.921
 2.2000     31.000     37.872     329.90     13.297
 2.2000     31.000     44.009     332.51     10.680
 2.2000     31.000     50.145     324.72     10.429
 2.2000     31.000     56.281     307.24     14.920
 2.2000     31.000     62.073     135.05     4.2027
 2.2000     31.000     67.868     118.07     4.7592
 2.2000     31.000     73.665     191.21     4.5878
 2.2000     31.000     78.779     186.73     5.9974
 2.2000     31.000     84.233     183.80     5.9032
 2.2000     31.000     89.688     194.25     6.2389
 2.2000     31.000     94.802     234.82     5.6340
 2.2000     31.000     99.916     232.97     9.3903
 2.2000     31.000     105.03     215.26     5.1648
 2.2000     31.000     109.80     191.20     4.5874
 2.2000     31.000     114.57     171.17     8.3122
 2.2000     31.000     119.35     159.42     9.0677
 2.2000     31.000     124.12     152.03     6.1279
 2.2000     31.000     128.21     160.68     5.1606
 2.2000     31.000     132.30     191.19     9.2843
 2.2000     31.000     136.39     218.68     8.8142
 2.2000     31.000     140.48     215.25     8.6759
 2.2000     31.000     144.57     213.55     6.8587
 2.2000     31.000     148.66     173.88     8.4439
 2.2000     31.000     152.76     176.65     8.5784
 2.2000     31.000     156.51     220.40     10.703
 2.2000     31.000     160.26     227.48     14.847
 2.2000     38.000     19.137     503.35     24.741
 2.2000     38.000     25.612     374.42     21.558
 2.2000     38.000     31.747     289.87     16.690
 2.2000     38.000     38.223     235.45     13.556
 2.2000     38.000     44.358     205.51     11.833
 2.2000     38.000     50.835     186.70     9.1771
 2.2000     38.000     56.629     157.84     6.4391
 2.2000     38.000     62.084     165.59     8.1393
 2.2000     38.000     68.219     142.25     6.9918
 2.2000     38.000     75.035     95.361     3.8904
 2.2000     38.000     79.125     90.168     4.4320
 2.2000     38.000     83.898     90.890     5.2332
 2.2000     38.000     90.376     97.671     5.6236
 2.2000     38.000     94.808     113.70     7.5118
 2.2000     38.000     99.581     103.29     5.9472
 2.2000     38.000     105.03     89.441     5.1497
 2.2000     38.000     109.81     75.010     4.9558
 2.2000     38.000     114.58     64.952     3.7398
 2.2000     38.000     120.03     54.472     4.0652
 2.2000     38.000     125.15     61.414     3.5360
 2.2000     38.000     128.21     66.526     3.2700
 2.2000     38.000     132.65     72.642     4.5019
 2.2000     38.000     137.42     93.826     5.4022
 2.2000     38.000     141.85     91.600     4.2915
 2.2000     38.000     145.26     100.82     5.8052
 2.2000     38.000     149.35     112.77     6.4928
 2.2000     38.000     153.10     113.67     5.5873
 2.2000     38.000     157.19     114.58     6.2381
 2.2000     38.000     160.95     139.94     6.8785
 2.2000     38.000     164.36     168.20     9.6842
 2.2000     38.000     168.45     170.91     9.8403
 2.2000     41.000     12.974     286.32     11.535
 2.2000     41.000     19.451     262.48     8.4264
 2.2000     41.000     25.929     286.31     6.8662
 2.2000     41.000     31.723     212.06     6.8077
 2.2000     41.000     38.198     126.90     4.0738
 2.2000     41.000     43.992     81.532     3.2848
 2.2000     41.000     50.130     129.94     4.1714
 2.2000     41.000     56.265     99.332     4.0019
 2.2000     41.000     62.060     71.849     2.8947
 2.2000     41.000     67.855     64.836     2.6121
 2.2000     41.000     73.650     61.347     1.9694
 2.2000     41.000     78.763     57.137     2.3019
 2.2000     41.000     84.218     59.909     2.4136
 2.2000     41.000     90.014     65.865     2.1145
 2.2000     41.000     94.786     54.922     2.2127
 2.2000     41.000     99.899     51.558     2.0772
 2.2000     41.000     105.01     44.023     2.1368
 2.2000     41.000     109.78     36.708     1.7818
 2.2000     41.000     114.56     38.795     1.8831
 2.2000     41.000     118.99     40.040     1.9435
 2.2000     41.000     123.42     45.794     2.2228
 2.2000     41.000     127.85     39.412     2.2407
 2.2000     41.000     131.94     47.639     3.1078
 2.2000     41.000     136.38     44.721     2.1707
 2.2000     41.000     140.47     44.720     2.5425
 2.2000     41.000     144.90     46.891     1.8891
 2.2000     41.000     148.31     52.374     2.9777
 2.2000     41.000     152.74     63.306     2.0323
 2.2000     41.000     156.15     66.905     3.2475
 2.2000     41.000     160.24     79.603     3.8638
 2.2000     41.000     163.99     31.839     2.3460
 2.2000     41.000     167.40     34.456     2.5389
 2.2000     45.000     19.709     373.62     21.288
 2.2000     45.000     24.483     347.94     19.825
 2.2000     45.000     26.873     285.48     13.886
 2.2000     45.000     30.970     204.74     11.665
 2.2000     45.000     34.038     204.74     8.2663
 2.2000     45.000     39.837     169.33     9.6476
 2.2000     45.000     44.617     106.99     7.9006
 2.2000     45.000     49.734     88.483     6.5339
 2.2000     45.000     55.873     76.737     4.3722
 2.2000     45.000     62.011     69.787     3.3946
 2.2000     45.000     67.468     60.522     2.9439
 2.2000     45.000     71.904     48.110     2.7411
 2.2000     45.000     74.974     45.159     2.5730
 2.2000     45.000     77.701     45.160     2.1967
 2.2000     45.000     79.064     46.246     1.8671
 2.2000     45.000     83.839     40.746     2.3216
 2.2000     45.000     89.296     36.186     1.7602
 2.2000     45.000     93.046     34.509     1.9662
 2.2000     45.000     99.186     28.091     1.3664
 2.2000     45.000     104.65     20.307    0.98776
 2.2000     45.000     109.76     16.530     1.5039
 2.2000     45.000     114.53     23.419    0.94550
 2.2000     45.000     118.96     29.463     1.6787
 2.2000     45.000     123.05     30.172     1.7191
 2.2000     45.000     127.82     25.151     1.4330
 2.2000     45.000     135.67     19.680     1.1213
 2.2000     45.000     140.10     25.555     1.4561
 2.2000     45.000     144.19     29.704     1.9420
 2.2000     45.000     147.93     35.638     2.0305
 2.2000     45.000     156.11     55.084     2.6794
 2.2000     45.000     163.26     100.54     5.7283
 3.6000     22.500     13.369     56.663     10.465
 3.6000     22.500     19.920     58.020     11.260
 3.6000     22.500     26.299     70.104     8.1797
 3.6000     22.500     32.334     67.661     8.1931
 3.6000     22.500     38.885     70.104     10.688
 3.6000     22.500     45.093     47.831     9.2824
 3.6000     22.500     51.472     42.163     7.5907
 3.6000     22.500     57.506     55.123     9.1593
 3.6000     22.500     63.196     67.930     8.8283
 3.6000     22.500     69.058     69.830     14.212
 3.6000     22.500     75.092     103.57     8.9370
 3.6000     22.500     80.609     83.055     7.8810
 3.6000     22.500     86.471     111.18     13.463
 3.6000     22.500     91.816     96.475     7.9128
 3.6000     22.500     97.161     78.908     8.5151
 3.6000     22.500     102.16     58.946     8.9864
 3.6000     31.000     13.209     52.542     7.5944
 3.6000     31.000     19.588     34.355     6.3963
 3.6000     31.000     25.795     32.113     6.8971
 3.6000     31.000     32.519     38.395     7.3296
 3.6000     31.000     38.898     45.907     6.8444
 3.6000     31.000     45.105     35.605     6.9657
 3.6000     31.000     51.312     36.032     7.2206
 3.6000     31.000     57.174     25.608     3.3544
 3.6000     31.000     63.036     20.020     4.6893
 3.6000     31.000     68.553     13.784     3.7080
 3.6000     31.000     74.588     20.020     6.6255
 3.6000     31.000     80.277     35.889     3.7454
 3.6000     31.000     85.795     41.900     4.9272
 3.6000     31.000     91.657     48.147     4.3950
 3.6000     31.000     96.657     30.740     3.8888
 3.6000     31.000     101.66     36.319     4.2709
 3.6000     31.000     106.48     16.744     4.0867
 3.6000     31.000     111.83     14.572     3.7737
 3.6000     31.000     116.48     17.561     3.8567
 3.6000     31.000     121.66     28.733     5.3496
 3.6000     31.000     126.31     30.255     5.3491
 3.6000     31.000     130.79     27.180     5.1886
 3.6000     31.000     135.10     40.268     6.0037
 3.6000     31.000     139.24     48.146     6.7407
 3.6000     31.000     143.55     73.051     7.9447
 3.6000     31.000     147.52     57.337     8.5486
 3.6000     41.000     12.860     17.992     1.8796
 3.6000     41.000     19.067     14.174     2.3766
 3.6000     41.000     25.447     11.853     1.6612
 3.6000     41.000     32.171     14.006     2.1546
 3.6000     41.000     38.378     17.920     2.0301
 3.6000     41.000     44.585     10.732     1.7002
 3.6000     41.000     50.792     12.091     1.8599
 3.6000     41.000     56.826     8.0611     1.5024
 3.6000     41.000     62.344     4.1673     1.2500
 3.6000     41.000     74.240     8.1578     1.5977
 3.6000     41.000     79.929     11.482     1.5573
 3.6000     41.000     85.274     5.0835     1.2421
 3.6000     41.000     91.309     5.1241     1.3800
 3.6000     41.000     96.309     9.6783     1.4445
 3.6000     41.000     101.48     12.936     1.4655
 3.6000     41.000     106.31     9.0460     1.7287
 3.6000     41.000     111.48     13.407     1.6979
 3.6000     41.000     116.65     10.111     1.6018
 3.6000     41.000     121.14     7.7471     1.4439
 3.6000     41.000     130.27     2.7022     1.6170
 3.6000     41.000     134.59     2.3889     1.4144
 3.6000     41.000     138.90     3.6990     1.1833
 3.6000     41.000     143.03     10.151     1.4227
 3.6000     41.000     147.17     14.986     2.1683
 3.6000     41.000     159.24     9.1911     2.2598
 3.6000     41.000     163.03     9.0822     2.4918
 3.6000     45.000     20.107     5.6418    0.56662
 3.6000     45.000     40.453     11.845     1.5052
 3.6000     45.000     45.453     13.673     1.4937
 3.6000     45.000     50.798     11.473     1.4579
 3.6000     45.000     56.487     10.893     1.2868
 3.6000     45.000     67.865     4.4945    0.53092
 3.6000     45.000     79.244     3.5240    0.40060
 3.6000     45.000     88.382     5.3351    0.52543
 3.6000     45.000     94.246     9.6645     1.0131
 3.6000     45.000     99.763     11.336     1.2886
 3.6000     45.000     101.66     9.2496     1.0926
 3.6000     45.000     105.11     9.7030    0.84753
 3.6000     45.000     112.00     7.7302    0.81667
 3.6000     45.000     118.90     6.3835    0.61316
 3.6000     45.000     125.80     3.3861    0.41511
 3.6000     45.000     131.14     2.2816    0.25937
 3.6000     45.000     138.04     4.5121    0.51292
 3.6000     45.000     141.31     6.6696    0.75817
 3.6000     45.000     144.59     8.9588     1.0184
 3.6000     45.000     148.04     11.610     1.3714
 3.6000     45.000     157.00     14.171     1.5481
ENDDATA            451
ENDSUBENT          464
SUBENT        F0729003   20051123   20060315                  F023
BIB                  3          4
REACTION   (5-B-10(P,A)4-BE-7,PAR,DA)
ERR-ANALYS (ANG-ERR-D)Digitizing error
           (DATA-ERR)Error from the graphic bars
STATUS     (CURVE)Fig.4
ENDBIB               4
COMMON               2          3
ANG-ERR-D  ERR-DIG
ADEG       PER-CENT
 0.2        0.2
ENDCOMMON            3
DATA                 5        489
E-LVL      EN         ANG-CM     DATA-CM    DATA-ERR
MEV        MEV        ADEG       MU-B/SR    MU-B/SR
 0.0000     18.000     41.983     619.79     22.939
 0.0000     18.000     47.636     549.07     20.321
 0.0000     18.000     54.349     480.56     15.778
 0.0000     18.000     60.887     520.98     14.936
 0.0000     18.000     89.157     884.13     25.347
 0.0000     18.000     94.280     838.90     24.051
 0.0000     18.000     104.35     731.27     20.965
 0.0000     18.000     109.30     658.38     21.615
 0.0000     18.000     114.07     587.99     24.229
 0.0000     18.000     118.66     595.14     22.026
 0.0000     18.000     123.25     702.29     25.992
 0.0000     18.000     127.85     767.53     28.406
 0.0000     18.000     132.26     876.92     28.790
 0.0000     18.000     140.75     1077.4     35.373
 0.0000     18.000     144.81     1140.1     37.430
 0.0000     22.500     18.304     340.58     20.950
 0.0000     22.500     24.312     394.60     20.952
 0.0000     22.500     30.319     428.99     22.778
 0.0000     22.500     36.326     413.89     20.245
 0.0000     22.500     42.155     361.50     14.104
 0.0000     22.500     48.162     347.39     14.104
 0.0000     22.500     54.699     323.37     14.471
 0.0000     22.500     60.529     308.29     11.242
 0.0000     22.500     66.535     308.28     11.242
 0.0000     22.500     71.836     335.15     12.222
 0.0000     22.500     77.490     365.81     16.370
 0.0000     22.500     83.321     396.11     14.445
 0.0000     22.500     88.974     413.83     14.560
 0.0000     22.500     94.275     449.90     16.406
 0.0000     22.500     99.575     432.34     19.347
 0.0000     22.500     104.87     380.64     14.851
 0.0000     22.500     109.29     322.04     14.411
 0.0000     22.500     114.06     327.21     10.585
 0.0000     22.500     118.65     315.69     8.9181
 0.0000     22.500     123.42     341.84     9.6569
 0.0000     22.500     127.67     392.93     11.100
 0.0000     22.500     132.26     453.45     20.291
 0.0000     22.500     136.50     546.71     17.686
 0.0000     22.500     140.92     566.64     13.370
 0.0000     22.500     144.98     677.76     19.147
 0.0000     22.500     148.87     702.47     19.845
 0.0000     22.500     152.76     659.13     21.323
 0.0000     22.500     156.64     606.28     14.305
 0.0000     22.500     160.35     555.45     15.260
 0.0000     22.500     164.41     517.04     20.992
 0.0000     22.500     168.48     329.77     21.681
 0.0000     27.000     18.300     238.14     12.645
 0.0000     27.000     30.492     318.41     12.927
 0.0000     27.000     41.975     278.11     12.445
 0.0000     27.000     54.518     232.50     13.322
 0.0000     27.000     66.354     202.26     9.0511
 0.0000     27.000     77.662     219.01     12.549
 0.0000     27.000     88.793     270.43     16.635
 0.0000     27.000     99.748     315.83     23.455
 0.0000     27.000     104.69     303.51     18.670
 0.0000     27.000     109.29     262.99     12.864
 0.0000     27.000     118.65     173.85     7.0583
 0.0000     27.000     127.48     178.05     9.4540
 0.0000     27.000     136.14     241.89     8.5105
 0.0000     27.000     144.98     367.35     16.439
 0.0000     27.000     152.57     354.42     12.924
 0.0000     27.000     160.52     261.91     12.811
 0.0000     27.000     168.29     149.43     9.8246
 0.0000     31.000     11.724     213.72     11.369
 0.0000     31.000     25.680     290.51     7.0330
 0.0000     31.000     30.450     298.73     12.150
 0.0000     31.000     36.104     259.83     5.2314
 0.0000     31.000     42.288     241.84     7.8375
 0.0000     31.000     47.942     191.91     4.6460
 0.0000     31.000     54.126     150.48     4.2587
 0.0000     31.000     60.310     134.59     5.4742
 0.0000     31.000     66.317     119.42     4.3626
 0.0000     31.000     71.970     118.47     4.8186
 0.0000     31.000     77.800     121.34     5.4397
 0.0000     31.000     83.100     135.13     5.4962
 0.0000     31.000     88.754     138.40     9.1161
 0.0000     31.000     94.054     134.06     4.8975
 0.0000     31.000     99.355     117.07     6.3550
 0.0000     31.000     113.84     103.87     8.1737
 0.0000     31.000     122.85     115.22     7.1003
 0.0000     31.000     127.45     124.28     7.1341
 0.0000     31.000     132.04     131.42     5.1363
 0.0000     31.000     136.46     152.92     8.7776
 0.0000     31.000     140.70     180.79     9.6170
 0.0000     31.000     144.76     214.60     9.6205
 0.0000     31.000     148.82     207.86     9.7103
 0.0000     31.000     152.53     201.34     9.8664
 0.0000     31.000     156.24     202.14     9.4431
 0.0000     31.000     160.48     185.91     9.1104
 0.0000     31.000     164.19     109.84     6.3049
 0.0000     31.000     168.08     51.088     4.1031
 0.0000     36.000     18.262     198.66     5.6221
 0.0000     36.000     30.099     260.53     6.3071
 0.0000     36.000     36.106     217.74     6.1623
 0.0000     36.000     41.936     181.26     5.8742
 0.0000     36.000     60.135     94.641     3.8493
 0.0000     36.000     66.142     85.663     3.4842
 0.0000     36.000     83.103     68.251     3.3446
 0.0000     36.000     88.404     57.499     2.6861
 0.0000     36.000     93.881     55.917     3.6831
 0.0000     36.000     99.181     56.816     3.5014
 0.0000     36.000     104.30     56.365     2.5269
 0.0000     36.000     109.25     57.500     2.5778
 0.0000     36.000     113.67     56.366     2.9984
 0.0000     36.000     118.61     56.142     3.4598
 0.0000     36.000     123.03     53.948     2.8697
 0.0000     36.000     127.62     54.164     2.6542
 0.0000     36.000     131.69     58.659     3.6149
 0.0000     36.000     136.10     63.782     3.6612
 0.0000     36.000     140.70     65.850     4.3151
 0.0000     36.000     144.23     82.981     6.1738
 0.0000     36.000     148.65     102.10     6.7248
 0.0000     36.000     152.53     94.273     6.1777
 0.0000     36.000     156.42     101.29     7.9705
 0.0000     36.000     160.13     89.870     7.4593
 0.0000     36.000     164.20     76.318     6.0056
 0.0000     36.000     168.08     47.678     5.8437
 0.0000     41.000     17.934     178.24     5.7693
 0.0000     41.000     24.119     209.01     5.9078
 0.0000     41.000     30.479     211.52     5.9787
 0.0000     41.000     36.132     183.27     5.9321
 0.0000     41.000     41.961     146.05     5.9331
 0.0000     41.000     47.966     108.78     3.9689
 0.0000     41.000     53.972     79.417     3.5559
 0.0000     41.000     59.977     60.577     2.4608
 0.0000     41.000     65.984     53.756     1.7400
 0.0000     41.000     73.050     45.296     1.8400
 0.0000     41.000     79.763     41.995     1.5323
 0.0000     41.000     86.122     29.698     1.2064
 0.0000     41.000     93.894     25.528     1.0370
 0.0000     41.000     104.14     34.549     1.4035
 0.0000     41.000     116.51     38.012     1.2304
 0.0000     41.000     121.99     35.524     1.1498
 0.0000     41.000     127.46     30.779     1.6352
 0.0000     41.000     131.88     35.664     1.5969
 0.0000     41.000     136.30     34.822     1.2258
 0.0000     41.000     140.54     43.004     1.7469
 0.0000     41.000     144.78     50.832     2.2760
 0.0000     41.000     148.67     60.565     1.9604
 0.0000     41.000     152.55     65.064     1.8391
 0.0000     41.000     156.44     66.903     2.1655
 0.0000     41.000     160.33     58.199     2.8484
 0.0000     45.000     18.078     122.68     3.9819
 0.0000     45.000     24.083     175.73     4.2608
 0.0000     45.000     30.266     207.82     5.8904
 0.0000     45.000     35.921     161.60     4.5804
 0.0000     45.000     41.753     119.30     2.4058
 0.0000     45.000     47.762     77.206     2.5060
 0.0000     45.000     53.772     53.259     1.9487
 0.0000     45.000     59.780     41.580     1.3496
 0.0000     45.000     65.964     37.331     1.5207
 0.0000     45.000     72.856     30.212     1.1054
 0.0000     45.000     79.571     23.306    0.94941
 0.0000     45.000     88.406     17.765    0.87192
 0.0000     45.000     93.883     18.051    0.88598
 0.0000     45.000     104.13     19.166    0.94069
 0.0000     45.000     116.67     21.779    0.88721
 0.0000     45.000     122.15     20.844     1.0230
 0.0000     45.000     127.45     18.344    0.74727
 0.0000     45.000     131.87     19.633     1.1287
 0.0000     45.000     135.93     22.043     1.1744
 0.0000     45.000     140.70     26.488     1.0790
 0.0000     45.000     144.41     39.488     1.6086
 0.0000     45.000     148.47     46.327     2.0801
 0.0000     45.000     152.35     54.133     2.2052
 0.0000     45.000     156.07     52.432     2.1359
 0.0000     45.000     160.13     44.693     2.1936
0.43000     18.000     43.041     216.89     14.441
0.43000     18.000     48.985     191.42     12.745
0.43000     18.000     55.453     175.89     13.229
0.43000     18.000     60.697     157.76     7.8141
0.43000     18.000     88.670     250.71     14.547
0.43000     18.000     94.090     288.68     15.522
0.43000     18.000     104.23     320.55     15.877
0.43000     18.000     109.12     327.07     16.200
0.43000     18.000     114.02     320.54     17.235
0.43000     18.000     118.74     306.64     13.895
0.43000     18.000     123.46     306.64     19.101
0.43000     18.000     127.66     295.72     13.399
0.43000     18.000     132.38     282.89     12.819
0.43000     18.000     141.12     299.30     21.217
0.43000     18.000     145.14     317.94     19.806
0.43000     22.500     17.870     138.12     16.941
0.43000     22.500     24.164     136.48     13.115
0.43000     22.500     30.807     144.31     8.8994
0.43000     22.500     36.926     151.39     11.271
0.43000     22.500     43.044     146.63     10.289
0.43000     22.500     49.162     127.01     9.4560
0.43000     22.500     54.931     115.41     8.0987
0.43000     22.500     60.874     101.58     7.9988
0.43000     22.500     66.818     92.672     8.5011
0.43000     22.500     72.237     98.778     9.0613
0.43000     22.500     77.832     107.84     8.4917
0.43000     22.500     83.077     126.49     7.2659
0.43000     22.500     88.847     148.38     8.5228
0.43000     22.500     93.918     169.93     11.200
0.43000     22.500     98.988     180.41     10.363
0.43000     22.500     104.06     182.57     12.034
0.43000     22.500     108.78     165.90     9.5296
0.43000     22.500     113.85     158.15     6.4366
0.43000     22.500     118.22     138.64     5.6426
0.43000     22.500     122.94     123.49     6.0555
0.43000     22.500     127.66     125.47     7.7376
0.43000     22.500     136.40     138.63     9.1373
0.43000     22.500     140.77     144.85     8.3201
0.43000     22.500     144.96     144.27     7.2914
0.43000     22.500     149.34     155.63     10.258
0.43000     22.500     153.18     148.35     9.7780
0.43000     22.500     157.20     140.85     8.6860
0.43000     22.500     161.05     110.87     8.7303
0.43000     22.500     165.07     113.55     9.9229
0.43000     22.500     169.09     84.187     13.391
0.43000     27.000     17.850     60.482     6.6134
0.43000     27.000     30.613     86.967     6.8514
0.43000     27.000     43.025     85.930     7.1404
0.43000     27.000     54.912     66.825     7.9011
0.43000     27.000     66.624     44.299     6.2363
0.43000     27.000     77.638     48.558     8.4052
0.43000     27.000     88.478     84.564     10.377
0.43000     27.000     98.968     99.597     12.669
0.43000     27.000     103.86     108.74     12.372
0.43000     27.000     108.58     89.779     9.4202
0.43000     27.000     118.37     61.940     6.7728
0.43000     27.000     127.46     56.732     5.9527
0.43000     27.000     136.38     56.281     4.9204
0.43000     27.000     144.94     55.832     7.8598
0.43000     27.000     152.99     52.169     5.9359
0.43000     27.000     160.85     42.054     7.4767
0.43000     27.000     168.72     22.835     5.3793
0.43000     31.000     11.206     54.432     6.4358
0.43000     31.000     23.967     55.087     6.5132
0.43000     31.000     25.365     38.927     3.7425
0.43000     31.000     30.259     31.006     4.6483
0.43000     31.000     36.728     27.288     4.2165
0.43000     31.000     42.846     28.741     4.0460
0.43000     31.000     48.790     27.949     3.5550
0.43000     31.000     54.909     27.727     3.4023
0.43000     31.000     60.852     24.016     4.2697
0.43000     31.000     66.621     24.696     3.8159
0.43000     31.000     72.041     28.398     3.4846
0.43000     31.000     77.636     36.956     3.5530
0.43000     31.000     83.055     33.446     3.6572
0.43000     31.000     88.475     37.400     4.4221
0.43000     31.000     98.614     36.515     5.3070
0.43000     31.000     108.40     40.346     4.0558
0.43000     31.000     113.30     35.226     4.9589
0.43000     31.000     118.02     30.390     4.1400
0.43000     31.000     122.56     36.223     4.4449
0.43000     31.000     127.29     39.233     4.1166
0.43000     31.000     131.66     33.847     6.4977
0.43000     31.000     136.03     33.712     3.8358
0.43000     31.000     140.40     32.914     5.3903
0.43000     31.000     144.59     27.503     5.5426
0.43000     31.000     148.79     29.788     4.1934
0.43000     31.000     156.65     24.012     5.5384
0.43000     31.000     160.67     24.108     6.8921
0.43000     36.000     17.692     17.043     2.0913
0.43000     36.000     30.455     20.806     3.8954
0.43000     36.000     36.747     17.806     4.1070
0.43000     36.000     42.865     16.374     4.2651
0.43000     36.000     60.873     18.456     3.8080
0.43000     36.000     66.466     16.504     3.4053
0.43000     36.000     83.247     13.463     2.9736
0.43000     36.000     88.318     16.176     3.4941
0.43000     36.000     93.564     18.089     3.2159
0.43000     36.000     98.457     15.175     3.1311
0.43000     36.000     103.70     14.123     2.5108
0.43000     36.000     108.42     14.350     1.8899
0.43000     36.000     113.32     12.281     2.4162
0.43000     36.000     118.21     13.678     1.4352
0.43000     36.000     122.58     14.814     1.8178
0.43000     36.000     127.13     17.871     2.1130
0.43000     36.000     131.50     15.603     1.9846
0.43000     36.000     136.04     15.294     1.6048
0.43000     36.000     140.06     8.7120     2.7621
0.43000     36.000     148.45     8.0755     1.7836
0.43000     36.000     152.47     6.6941     1.8113
0.43000     36.000     156.50     11.292     2.8280
0.43000     36.000     160.51     8.6765     2.6148
0.43000     36.000     164.53     4.6738     1.7085
0.43000     36.000     168.73     5.3530     2.0726
0.43000     41.000     17.329     16.515     2.6189
0.43000     41.000     23.796     14.657     2.1896
0.43000     41.000     30.266     18.534     2.1838
0.43000     41.000     36.384     15.934     1.8774
0.43000     41.000     42.678     17.599     1.7631
0.43000     41.000     48.797     17.599     1.3064
0.43000     41.000     54.915     17.669     1.8475
0.43000     41.000     60.860     18.312     1.4377
0.43000     41.000     66.627     14.424     1.0092
0.43000     41.000     73.446     15.743     1.3716
0.43000     41.000     86.379     10.082     1.0542
0.43000     41.000     93.721     8.6332     1.0557
0.43000     41.000     103.33     6.6395     1.0223
0.43000     41.000     116.10     9.9617     1.1737
0.43000     41.000     121.69     10.490     1.0509
0.43000     41.000     126.94     10.041     1.2727
0.43000     41.000     131.31     8.8055     1.5599
0.43000     41.000     135.85     10.743     1.4584
0.43000     41.000     140.40     8.0035     1.3432
0.43000     41.000     144.42     7.6000     1.4898
0.43000     41.000     148.61     7.5999     1.6356
0.43000     41.000     152.46     7.3911     1.4841
0.43000     41.000     156.66     8.0670     1.6585
0.43000     41.000     160.67     5.4409     1.6618
0.43000     45.000     17.621     13.163     1.7870
0.43000     45.000     23.908     14.772     2.1394
0.43000     45.000     30.370     17.528     2.4588
0.43000     45.000     36.656     16.777     1.9767
0.43000     45.000     42.593     16.316     1.2111
0.43000     45.000     48.878     15.741     1.1685
0.43000     45.000     54.815     14.948     1.3023
0.43000     45.000     60.926     13.804     1.2027
0.43000     45.000     66.512     11.587     1.1102
0.43000     45.000     73.321     10.574     1.0131
0.43000     45.000     79.779     8.0355    0.94678
0.43000     45.000     88.158     5.6394    0.66447
0.43000     45.000     93.569     4.5673    0.78777
0.43000     45.000     103.52     5.3548    0.79996
0.43000     45.000     116.10     6.6113    0.83801
0.43000     45.000     121.69     7.3024     1.0576
0.43000     45.000     127.10     7.0735    0.92837
0.43000     45.000     131.29     6.7437    0.91549
0.43000     45.000     135.83     6.2526     1.1665
0.43000     45.000     140.37     6.4547     1.1435
0.43000     45.000     144.38     4.8858     1.4417
0.43000     45.000     148.75     6.7432     1.3863
0.43000     45.000     152.59     8.8376     1.7325
0.43000     45.000     156.61     6.9887     1.6403
0.43000     45.000     160.62     6.3522     1.2887
 4.5700     18.000     45.932     1688.4     55.968
 4.5700     18.000     51.731     1482.4     49.139
 4.5700     18.000     57.525     1355.6     50.658
 4.5700     18.000     91.904     1172.7     38.873
 4.5700     18.000     97.355     996.54     37.239
 4.5700     18.000     107.68     1227.5     40.689
 4.5700     18.000     112.77     1136.3     37.667
 4.5700     18.000     117.68     1193.6     39.565
 4.5700     18.000     122.05     1295.3     53.890
 4.5700     18.000     126.78     1371.7     45.468
 4.5700     18.000     131.68     1476.5     55.173
 4.5700     18.000     136.06     1615.4     46.757
 4.5700     18.000     144.63     1949.4     56.426
 4.5700     18.000     148.68     1711.3     42.373
 4.5700     22.500     21.540     1487.1     42.071
 4.5700     22.500     28.019     1696.5     41.056
 4.5700     22.500     33.990     1452.6     47.058
 4.5700     22.500     40.130     1374.0     38.871
 4.5700     22.500     45.757     1043.8     38.120
 4.5700     22.500     51.722     995.29     32.244
 4.5700     22.500     57.861     949.00     34.657
 4.5700     22.500     63.649     919.39     33.575
 4.5700     22.500     69.610     919.57     29.791
 4.5700     22.500     75.050     856.06     31.263
 4.5700     22.500     80.493     759.72     24.612
 4.5700     22.500     86.110     682.34     24.918
 4.5700     22.500     91.552     617.74     17.476
 4.5700     22.500     96.979     704.69     25.735
 4.5700     22.500     102.07     637.97     25.939
 4.5700     22.500     107.16     601.05     24.438
 4.5700     22.500     112.07     552.88     31.724
 4.5700     22.500     117.14     722.21     23.397
 4.5700     22.500     121.70     699.65     22.666
 4.5700     22.500     126.60     823.97     26.694
 4.5700     22.500     130.97     947.44     30.694
 4.5700     22.500     135.70     1133.7     32.073
 4.5700     22.500     140.25     1277.9     36.152
 4.5700     22.500     144.28     1288.3     36.446
 4.5700     22.500     148.83     1566.3     31.525
 4.5700     22.500     152.68     1591.7     38.520
 4.5700     22.500     156.72     1591.9     32.049
 4.5700     22.500     160.57     1604.8     32.300
 4.5700     22.500     164.26     1505.9     48.784
 4.5700     22.500     167.94     1506.1     36.447
 4.5700     22.500     171.64     1099.4     35.617
 4.5700     27.000     21.055     1066.8     30.224
 4.5700     27.000     32.994     820.07     26.606
 4.5700     27.000     45.448     751.44     24.380
 4.5700     27.000     57.542     807.73     29.541
 4.5700     27.000     68.778     641.05     23.445
 4.5700     27.000     79.846     453.16     18.452
 4.5700     27.000     90.727     383.36     22.030
 4.5700     27.000     101.41     451.68     35.583
 4.5700     27.000     106.49     532.07     28.335
 4.5700     27.000     111.57     551.62     22.461
 4.5700     27.000     121.05     479.86     17.550
 4.5700     27.000     130.51     517.82     21.085
 4.5700     27.000     139.61     707.14     25.862
 4.5700     27.000     148.01     877.46     32.091
 4.5700     27.000     155.73     826.68     26.821
 4.5700     27.000     163.63     690.96     25.270
 4.5700     27.000     171.00     596.24     21.806
 4.5700     31.000     14.776     1135.0     32.156
 4.5700     31.000     27.941     886.59     32.425
 4.5700     31.000     32.692     673.27     16.317
 4.5700     31.000     39.008     631.75     15.311
 4.5700     31.000     44.796     607.15     19.698
 4.5700     31.000     50.595     495.42     14.036
 4.5700     31.000     56.557     487.67     13.816
 4.5700     31.000     62.696     472.44     13.385
 4.5700     31.000     68.491     404.41     11.458
 4.5700     31.000     73.588     333.96     13.598
 4.5700     31.000     79.210     276.89     10.127
 4.5700     31.000     84.831     234.20     6.6353
 4.5700     31.000     89.914     239.92     6.7972
 4.5700     31.000     95.529     225.12     7.3036
 4.5700     31.000     100.79     214.62     10.529
 4.5700     31.000     115.85     283.93     12.743
 4.5700     31.000     125.50     284.02     12.747
 4.5700     31.000     130.05     318.92     12.986
 4.5700     31.000     134.60     326.70     12.782
 4.5700     31.000     139.33     403.72     18.119
 4.5700     31.000     147.90     493.02     18.031
 4.5700     31.000     151.59     439.18     15.495
 4.5700     36.000     20.282     917.65     22.266
 4.5700     36.000     32.226     731.15     14.754
 4.5700     36.000     38.037     552.91     17.960
 4.5700     36.000     43.837     475.15     13.477
 4.5700     36.000     61.585     307.64     8.7262
 4.5700     36.000     67.033     268.63     7.6197
 4.5700     36.000     83.565     154.27     5.0110
 4.5700     36.000     89.527     152.48     5.5831
 4.5700     36.000     94.775     174.01     6.3716
 4.5700     36.000     100.03     178.99     5.8140
 4.5700     36.000     105.29     176.20     5.7233
 4.5700     36.000     110.04     154.47     5.0174
 4.5700     36.000     114.61     143.78     5.8612
 4.5700     36.000     119.70     132.24     5.3908
 4.5700     36.000     124.61     124.08     6.6154
 4.5700     36.000     129.34     127.62     6.2685
 4.5700     36.000     133.90     125.63     5.4021
 4.5700     36.000     138.27     154.67     7.5970
 4.5700     36.000     142.80     210.44     11.220
 4.5700     36.000     147.16     275.09     12.361
 4.5700     36.000     150.86     223.52     10.979
 4.5700     36.000     154.89     234.55     12.505
 4.5700     36.000     158.91     266.59     11.979
 4.5700     36.000     162.59     252.13     14.506
 4.5700     36.000     166.27     258.29     13.771
 4.5700     36.000     170.29     303.11     14.888
 4.5700     41.000     19.665     714.72     14.412
 4.5700     41.000     25.279     670.60     19.008
 4.5700     41.000     31.774     587.92     11.855
 4.5700     41.000     37.571     481.60     11.677
 4.5700     41.000     43.545     379.07     10.744
 4.5700     41.000     49.520     294.81     8.3562
 4.5700     41.000     55.322     222.96     5.4061
 4.5700     41.000     61.294     184.84     5.2393
 4.5700     41.000     67.264     156.33     3.7905
 4.5700     41.000     74.107     144.36     4.0918
 4.5700     41.000     80.261     104.07     2.9498
 4.5700     41.000     87.104     94.959     3.0822
 4.5700     41.000     94.819     95.360     2.7029
 4.5700     41.000     104.81     96.923     2.3500
 4.5700     41.000     117.81     68.780     2.8018
 4.5700     41.000     123.24     74.509     2.4185
 4.5700     41.000     128.68     69.353     1.9658
 4.5700     41.000     133.40     76.034     2.7820
 4.5700     41.000     138.14     78.827     2.8842
 4.5700     41.000     142.34     90.660     2.9427
 4.5700     41.000     146.37     94.742     2.6854
 4.5700     41.000     150.57     102.22     2.4785
 4.5700     41.000     154.24     123.34     3.4959
 4.5700     41.000     158.27     134.14     4.3540
 4.5700     41.000     162.12     159.28     5.1701
 4.5700     45.000     19.517     533.58     10.721
 4.5700     45.000     31.785     573.43     13.854
 4.5700     45.000     37.415     425.56     10.282
 4.5700     45.000     43.045     314.57     7.6000
 4.5700     45.000     49.032     211.35     5.9692
 4.5700     45.000     55.015     149.54     4.2234
 4.5700     45.000     60.817     117.33     4.2778
 4.5700     45.000     66.786     103.74     3.7822
 4.5700     45.000     73.461     85.382     2.7615
 4.5700     45.000     79.960     70.834     2.8752
 4.5700     45.000     88.911     61.890     1.7480
 4.5700     45.000     93.995     62.147     1.7552
 4.5700     45.000     104.36     48.771     3.2058
 4.5700     45.000     117.00     33.301     2.7583
 4.5700     45.000     122.79     32.781     1.1952
 4.5700     45.000     128.39     41.960     1.7032
 4.5700     45.000     133.12     44.195     1.9772
 4.5700     45.000     137.32     44.732     2.0013
 4.5700     45.000     141.71     45.275     1.2787
 4.5700     45.000     145.90     57.491     2.0961
 4.5700     45.000     149.93     63.009     2.2972
 4.5700     45.000     153.94     85.609     2.7688
 4.5700     45.000     157.97     86.304     2.0851
 4.5700     45.000     161.82     104.48     2.9509
ENDDATA            491
ENDSUBENT          504
SUBENT        F0729004   20051123   20060315                  F023
BIB                  3          3
REACTION   (4-BE-9(P,A)3-LI-6,PAR,IPA)
ERR-ANALYS (EN-ERR-DIG)Digitizing error
STATUS     (CURVE)Fig.5
ENDBIB               3
COMMON               2          3
EN-ERR-DIG ERR-DIG
MEV        PER-CENT
 0.5        0.2
ENDCOMMON            3
DATA                 5         29
E-LVL      ANG-MIN    ANG-MAX    EN         DATA
MEV        ADEG       ADEG       MEV        MICRO-B
 0.0000     0.0000     90.000     18.289     1936.6
 0.0000     0.0000     90.000     22.152     1240.6
 0.0000     0.0000     90.000     30.645     376.52
 0.0000     0.0000     90.000     37.634     191.22
 0.0000     0.0000     90.000     40.261     102.14
 0.0000     0.0000     90.000     44.331     101.73
 0.0000     90.000     180.00     18.384     2405.2
 0.0000     90.000     180.00     22.178     1431.5
 0.0000     90.000     180.00     30.680     455.02
 0.0000     90.000     180.00     37.565     241.12
 0.0000     90.000     180.00     40.507     146.91
 0.0000     90.000     180.00     44.468     109.45
 2.1800     0.0000     90.000     22.179     4352.5
 2.1800     0.0000     90.000     30.532     1682.7
 2.1800     0.0000     90.000     37.608     1166.0
 2.1800     0.0000     90.000     40.433     712.32
 2.1800     0.0000     90.000     44.433     720.68
 2.1800     90.000     180.00     22.201     4070.4
 2.1800     90.000     180.00     30.652     1252.1
 2.1800     90.000     180.00     37.606     573.57
 2.1800     90.000     180.00     40.510     300.49
 2.1800     90.000     180.00     44.471     193.22
 3.5600     0.0000     90.000     22.323     445.67
 3.5600     0.0000     90.000     30.761     201.24
 3.5600     0.0000     90.000     40.453     59.227
 3.5600     0.0000     90.000     44.718     43.161
 3.5600     90.000     180.00     30.761     228.56
 3.5600     90.000     180.00     40.573     55.042
 3.5600     90.000     180.00     44.720     55.033
ENDDATA             31
ENDSUBENT           43
SUBENT        F0729005   20051123   20060315                  F023
BIB                  3          3
REACTION   (5-B-10(P,A)4-BE-7,PAR,IPA)
ERR-ANALYS (EN-ERR-DIG)Digitizing error
STATUS     (CURVE)Fig.5
ENDBIB               3
COMMON               2          3
EN-ERR-DIG ERR-DIG
MEV        PER-CENT
 0.5        0.2
ENDCOMMON            3
DATA                 5         42
E-LVL      ANG-MIN    ANG-MAX    EN         DATA
MEV        ADEG       ADEG       MEV        MICRO-B
 0.0000     0.0000     90.000     17.772     3999.2
 0.0000     0.0000     90.000     22.234     2204.4
 0.0000     0.0000     90.000     26.725     1531.2
 0.0000     0.0000     90.000     30.741     1106.1
 0.0000     0.0000     90.000     35.716     805.28
 0.0000     0.0000     90.000     40.919     588.58
 0.0000     0.0000     90.000     44.772     450.90
 0.0000     90.000     180.00     17.718     4980.7
 0.0000     90.000     180.00     22.189     2724.0
 0.0000     90.000     180.00     26.752     1630.3
 0.0000     90.000     180.00     30.680     853.99
 0.0000     90.000     180.00     35.752     400.85
 0.0000     90.000     180.00     40.756     244.65
 0.0000     90.000     180.00     44.639     160.85
0.43000     0.0000     90.000     17.778     1176.7
0.43000     0.0000     90.000     22.308     773.20
0.43000     0.0000     90.000     26.627     419.94
0.43000     0.0000     90.000     30.689     205.36
0.43000     0.0000     90.000     35.583     98.488
0.43000     0.0000     90.000     40.930     95.097
0.43000     0.0000     90.000     44.874     77.087
0.43000     90.000     180.00     17.796     1847.2
0.43000     90.000     180.00     22.219     931.82
0.43000     90.000     180.00     26.654     457.44
0.43000     90.000     180.00     30.750     212.67
0.43000     90.000     180.00     35.690     82.681
0.43000     90.000     180.00     40.929     51.653
0.43000     90.000     180.00     44.694     37.993
 4.5700     0.0000     90.000     17.795     8104.4
 4.5700     0.0000     90.000     22.285     6297.5
 4.5700     0.0000     90.000     26.706     4206.4
 4.5700     0.0000     90.000     30.811     3205.9
 4.5700     0.0000     90.000     35.868     2443.3
 4.5700     0.0000     90.000     41.051     1777.5
 4.5700     0.0000     90.000     44.962     1392.0
 4.5700     90.000     180.00     17.777     8623.4
 4.5700     90.000     180.00     22.307     5918.5
 4.5700     90.000     180.00     26.652     3643.9
 4.5700     90.000     180.00     30.841     2012.6
 4.5700     90.000     180.00     35.903     1107.3
 4.5700     90.000     180.00     41.091     595.19
 4.5700     90.000     180.00     44.736     337.79
ENDDATA             44
ENDSUBENT           56
ENDENTRY             5
