ENTRY            12664     840510
SUBENT        12664001     840510              20050926       0000
BIB                  9         15
INSTITUTE  (1USAANL)
REFERENCE  (J,BAP,12,1186(CB5),6712)
           (P,ANL-7210,5,6612)
AUTHOR     (S.A.COX)
TITLE      POLARIZATION OF NEUTRONS ELASTICALLY SCATTERED FROM
            SILICON AND MAGNESIUM.
INC-SOURCE (P-LI7)
DETECTOR   (SCIN) LIQUID SCINTILLATOR-PHOTOMULTIPLIER COMINATIONS
            WITH PULSE-SHAPE DISCRIMINATION AND SPACE CHARGE
            LIMITING.
CORRECTION CORRECTED FOR ANGULAR RESOLUTION AND MULTIPLE
            SCATTERING EFFECTS.
STATUS     ANGULAR DISTRIBUTION DATA RECEIVED IN PRIVATE COMM.,
            COX, 66/4.
HISTORY    (840509C) DATA MOVED FROM ENTRY 11519.
ENDBIB              15
NOCOMMON             0          0
ENDSUBENT           18
SUBENT        12664002     840510              20050926       0000
BIB                  2          2
REACTION   (12-MG-0(N,EL),,DA)
MONITOR    (6-C-0(N,EL),,SIG)
ENDBIB               2
COMMON               2          3
EN-RSL     ANG-RSL
KEV        ADEG
 5.         19.
ENDCOMMON            3
DATA                 3        264
EN         COS        DATA
MEV        NO-DIM     MB/SR
 5.910  -01 0.93970    1.213  +03
 5.910  -01 0.76600    9.023  +02
 5.910  -01 0.50000    5.674  +02
 5.910  -01 0.17370    2.639  +02
 5.910  -01-0.1737     1.123  +02
 5.910  -01-0.5000     7.980  +01
 5.910  -01-0.7660     1.398  +02
 5.910  -01-0.9397     3.889  +02
 6.120  -01 0.93970    1.059  +03
 6.120  -01 0.76600    8.097  +02
 6.120  -01 0.50000    5.412  +02
 6.120  -01 0.17370    2.469  +02
 6.120  -01-0.1737     6.190  +01
 6.120  -01-0.5000     7.230  +01
 6.120  -01-0.7660     1.449  +02
 6.120  -01-0.9397     1.831  +02
 6.340  -01 0.93970    8.779  +02
 6.340  -01 0.76600    6.928  +02
 6.340  -01 0.50000    4.131  +02
 6.340  -01 0.17370    2.003  +02
 6.340  -01-0.1737     6.649  +01
 6.340  -01-0.5000     3.299  +01
 6.340  -01-0.7660     8.470  +01
 6.340  -01-0.9397     5.730  +01
 6.440  -01 0.93970    7.694  +02
 6.440  -01 0.76600    5.447  +02
 6.440  -01 0.50000    3.537  +02
 6.440  -01 0.17370    1.851  +02
 6.440  -01-0.1737     8.880  +01
 6.440  -01-0.5000     7.249  +01
 6.440  -01-0.7660     7.580  +01
 6.440  -01-0.9397     1.176  +02
 6.550  -01 0.93970    5.739  +02
 6.550  -01 0.76600    4.298  +02
 6.550  -01 0.50000    2.369  +02
 6.550  -01 0.17370    1.356  +02
 6.550  -01-0.1737     7.470  +01
 6.550  -01-0.5000     1.018  +02
 6.550  -01-0.7660     2.118  +02
 6.550  -01-0.9397     1.659  +02
 6.660  -01 0.93970    5.166  +02
 6.660  -01 0.76600    4.337  +02
 6.660  -01 0.50000    2.917  +02
 6.660  -01 0.17370    2.062  +02
 6.660  -01-0.1737     1.984  +02
 6.660  -01-0.5000     2.428  +02
 6.660  -01-0.7660     3.063  +02
 6.660  -01-0.9397     3.161  +02
 6.770  -01 0.93970    7.851  +02
 6.770  -01 0.76600    6.792  +02
 6.770  -01 0.50000    5.159  +02
 6.770  -01 0.17370    3.284  +02
 6.770  -01-0.1737     2.176  +02
 6.770  -01-0.5000     2.014  +02
 6.770  -01-0.7660     2.322  +02
 6.770  -01-0.9397     3.032  +02
 6.870  -01 0.93970    8.867  +02
 6.870  -01 0.76600    7.134  +02
 6.870  -01 0.50000    5.604  +02
 6.870  -01 0.17370    3.389  +02
 6.870  -01-0.1737     1.831  +02
 6.870  -01-0.5000     1.737  +02
 6.870  -01-0.7660     1.667  +02
 6.870  -01-0.9397     1.436  +02
 6.980  -01 0.93970    9.113  +02
 6.980  -01 0.76600    6.964  +02
 6.980  -01 0.50000    5.124  +02
 6.980  -01 0.17370    3.439  +02
 6.980  -01-0.1737     1.947  +02
 6.980  -01-0.5000     1.343  +02
 6.980  -01-0.7660     1.309  +02
 6.980  -01-0.9397     1.023  +02
 7.090  -01 0.93970    8.787  +02
 7.090  -01 0.76600    6.369  +02
 7.090  -01 0.50000    4.868  +02
 7.090  -01 0.17370    3.139  +02
 7.090  -01-0.1737     1.624  +02
 7.090  -01-0.5000     1.149  +02
 7.090  -01-0.7660     9.780  +01
 7.090  -01-0.9397     1.031  +02
 7.200  -01 0.93970    8.054  +02
 7.200  -01 0.76600    6.819  +02
 7.200  -01 0.50000    4.838  +02
 7.200  -01 0.17370    2.844  +02
 7.200  -01-0.1737     1.689  +02
 7.200  -01-0.5000     1.289  +02
 7.200  -01-0.7660     1.049  +02
 7.200  -01-0.9397     8.449  +01
 7.410  -01 0.93970    8.409  +02
 7.410  -01 0.76600    7.177  +02
 7.410  -01 0.50000    4.604  +02
 7.410  -01 0.17370    2.638  +02
 7.410  -01-0.1737     1.484  +02
 7.410  -01-0.5000     9.849  +01
 7.410  -01-0.7660     1.264  +02
 7.410  -01-0.9397     1.172  +02
 7.620  -01 0.93970    7.486  +02
 7.620  -01 0.76600    5.833  +02
 7.620  -01 0.50000    4.464  +02
 7.620  -01 0.17370    2.629  +02
 7.620  -01-0.1737     1.224  +02
 7.620  -01-0.5000     8.110  +01
 7.620  -01-0.7660     7.049  +01
 7.620  -01-0.9397     1.143  +02
 7.840  -01 0.93970    6.584  +02
 7.840  -01 0.76600    5.859  +02
 7.840  -01 0.50000    4.411  +02
 7.840  -01 0.17370    2.652  +02
 7.840  -01-0.1737     1.283  +02
 7.840  -01-0.5000     7.580  +01
 7.840  -01-0.7660     9.310  +01
 7.840  -01-0.9397     1.258  +02
 7.940  -01 0.93970    7.059  +02
 7.940  -01 0.76600    5.416  +02
 7.940  -01 0.50000    4.132  +02
 7.940  -01 0.17370    2.494  +02
 7.940  -01-0.1737     1.343  +02
 7.940  -01-0.5000     1.122  +02
 7.940  -01-0.7660     1.034  +02
 7.940  -01-0.9397     1.329  +02
 8.050  -01 0.93970    6.884  +02
 8.050  -01 0.76600    5.564  +02
 8.050  -01 0.50000    4.504  +02
 8.050  -01 0.17370    2.893  +02
 8.050  -01-0.1737     1.438  +02
 8.050  -01-0.5000     1.076  +02
 8.050  -01-0.7660     1.222  +02
 8.050  -01-0.9397     1.466  +02
 8.160  -01 0.93970    7.164  +02
 8.160  -01 0.76600    5.783  +02
 8.160  -01 0.50000    4.339  +02
 8.160  -01 0.17370    2.932  +02
 8.160  -01-0.1737     1.644  +02
 8.160  -01-0.5000     8.790  +01
 8.160  -01-0.7660     9.710  +01
 8.160  -01-0.9397     1.681  +02
 8.260  -01 0.93970    5.449  +02
 8.260  -01 0.76600    5.424  +02
 8.260  -01 0.50000    4.121  +02
 8.260  -01 0.17370    2.691  +02
 8.260  -01-0.1737     1.597  +02
 8.260  -01-0.5000     1.024  +02
 8.260  -01-0.7660     1.326  +02
 8.260  -01-0.9397     1.764  +02
 8.350  -01 0.93970    6.444  +02
 8.350  -01 0.76600    5.267  +02
 8.350  -01 0.50000    4.466  +02
 8.350  -01 0.17370    2.929  +02
 8.350  -01-0.1737     1.456  +02
 8.350  -01-0.5000     1.246  +02
 8.350  -01-0.7660     1.804  +02
 8.350  -01-0.9397     2.653  +02
 8.390  -01 0.93970    6.477  +02
 8.390  -01 0.76600    5.479  +02
 8.390  -01 0.50000    4.636  +02
 8.390  -01 0.17370    3.063  +02
 8.390  -01-0.1737     1.673  +02
 8.390  -01-0.5000     1.557  +02
 8.390  -01-0.7660     2.308  +02
 8.390  -01-0.9397     3.499  +02
 8.430  -01 0.93970    9.664  +02
 8.430  -01 0.76600    7.644  +02
 8.430  -01 0.50000    5.393  +02
 8.430  -01 0.17370    3.262  +02
 8.430  -01-0.1737     1.639  +02
 8.430  -01-0.5000     2.059  +02
 8.430  -01-0.7660     4.021  +02
 8.430  -01-0.9397     4.789  +02
 8.470  -01 0.93970    1.213  +03
 8.470  -01 0.76600    9.749  +02
 8.470  -01 0.50000    5.981  +02
 8.470  -01 0.17370    2.334  +02
 8.470  -01-0.1737     1.087  +02
 8.470  -01-0.5000     2.249  +02
 8.470  -01-0.7660     4.254  +02
 8.470  -01-0.9397     6.293  +02
 8.510  -01 0.93970    1.514  +03
 8.510  -01 0.76600    1.210  +03
 8.510  -01 0.50000    7.144  +02
 8.510  -01 0.17370    2.291  +02
 8.510  -01-0.1737     6.440  +01
 8.510  -01-0.5000     2.223  +02
 8.510  -01-0.7660     4.423  +02
 8.510  -01-0.9397     5.927  +02
 8.550  -01 0.93970    1.303  +03
 8.550  -01 0.76600    9.792  +02
 8.550  -01 0.50000    5.116  +02
 8.550  -01 0.17370    1.466  +02
 8.550  -01-0.1737     8.490  +01
 8.550  -01-0.5000     1.896  +02
 8.550  -01-0.7660     2.717  +02
 8.550  -01-0.9397     3.572  +02
 8.590  -01 0.93970    1.310  +03
 8.590  -01 0.76600    9.074  +02
 8.590  -01 0.50000    5.012  +02
 8.590  -01 0.17370    1.783  +02
 8.590  -01-0.1737     9.630  +01
 8.590  -01-0.5000     1.634  +02
 8.590  -01-0.7660     2.006  +02
 8.590  -01-0.9397     2.999  +02
 8.640  -01 0.93970    1.204  +03
 8.640  -01 0.76600    7.758  +02
 8.640  -01 0.50000    4.404  +02
 8.640  -01 0.17370    2.136  +02
 8.640  -01-0.1737     1.044  +02
 8.640  -01-0.5000     1.329  +02
 8.640  -01-0.7660     1.834  +02
 8.640  -01-0.9397     1.789  +02
 8.680  -01 0.93970    1.053  +03
 8.680  -01 0.76600    6.951  +02
 8.680  -01 0.50000    4.309  +02
 8.680  -01 0.17370    1.817  +02
 8.680  -01-0.1737     9.549  +01
 8.680  -01-0.5000     1.217  +02
 8.680  -01-0.7660     7.890  +01
 8.680  -01-0.9397     1.454  +02
 8.720  -01 0.93970    1.013  +03
 8.720  -01 0.76600    6.809  +02
 8.720  -01 0.50000    4.087  +02
 8.720  -01 0.17370    2.056  +02
 8.720  -01-0.1737     1.006  +02
 8.720  -01-0.5000     1.001  +02
 8.720  -01-0.7660     1.154  +02
 8.720  -01-0.9397     1.242  +02
 8.760  -01 0.93970    9.843  +02
 8.760  -01 0.76600    6.108  +02
 8.760  -01 0.50000    3.774  +02
 8.760  -01 0.17370    2.123  +02
 8.760  -01-0.1737     1.137  +02
 8.760  -01-0.5000     9.220  +01
 8.760  -01-0.7660     7.110  +01
 8.760  -01-0.9397     8.870  +01
 8.800  -01 0.93970    8.479  +02
 8.800  -01 0.76600    6.103  +02
 8.800  -01 0.50000    3.656  +02
 8.800  -01 0.17370    1.934  +02
 8.800  -01-0.1737     9.340  +01
 8.800  -01-0.5000     8.430  +01
 8.800  -01-0.7660     1.104  +02
 8.800  -01-0.9397     5.640  +01
 8.890  -01 0.93970    8.129  +02
 8.890  -01 0.76600    5.838  +02
 8.890  -01 0.50000    3.351  +02
 8.890  -01 0.17370    1.807  +02
 8.890  -01-0.1737     1.124  +02
 8.890  -01-0.5000     8.060  +01
 8.890  -01-0.7660     7.110  +01
 8.890  -01-0.9397     6.820  +01
 9.100  -01 0.93970    7.397  +02
 9.100  -01 0.76600    5.829  +02
 9.100  -01 0.50000    3.809  +02
 9.100  -01 0.17370    2.144  +02
 9.100  -01-0.1737     8.599  +01
 9.100  -01-0.5000     9.120  +01
 9.100  -01-0.7660     1.554  +02
 9.100  -01-0.9397     2.149  +01
 9.300  -01 0.93970    6.833  +02
 9.300  -01 0.76600    5.181  +02
 9.300  -01 0.50000    3.723  +02
 9.300  -01 0.17370    1.867  +02
 9.300  -01-0.1737     8.560  +01
 9.300  -01-0.5000     9.390  +01
 9.300  -01-0.7660     8.680  +01
 9.300  -01-0.9397     1.064  +02
ENDDATA            266
ENDSUBENT          277
SUBENT        12664003     840510              20050926       0000
BIB                  2          2
REACTION   (14-SI-0(N,EL),,DA)
MONITOR    (6-C-0(N,EL),,SIG)
ENDBIB               2
COMMON               2          3
EN-RSL     ANG-RSL
KEV        ADEG
 0.5        19.
ENDCOMMON            3
DATA                 3        428
EN         COS        DATA
MEV        NO-DIM     MB/SR
 6.340  -01 0.93970    3.968  +02
 6.340  -01 0.76600    3.532  +02
 6.340  -01 0.50000    2.971  +02
 6.340  -01 0.17370    2.364  +02
 6.340  -01-0.1737     1.651  +02
 6.340  -01-0.5000     1.159  +02
 6.340  -01-0.7660     1.062  +02
 6.340  -01-0.9397     9.470  +01
 6.770  -01 0.93970    3.058  +02
 6.770  -01 0.76600    2.889  +02
 6.770  -01 0.50000    2.373  +02
 6.770  -01 0.17370    1.969  +02
 6.770  -01-0.1737     1.721  +02
 6.770  -01-0.5000     1.394  +02
 6.770  -01-0.7660     1.099  +02
 6.770  -01-0.9397     9.320  +01
 7.200  -01 0.93970    2.632  +02
 7.200  -01 0.76600    2.338  +02
 7.200  -01 0.50000    2.312  +02
 7.200  -01 0.17370    1.971  +02
 7.200  -01-0.1737     1.714  +02
 7.200  -01-0.5000     1.614  +02
 7.200  -01-0.7660     1.207  +02
 7.200  -01-0.9397     9.890  +01
 7.620  -01 0.93970    2.156  +02
 7.620  -01 0.76600    1.812  +02
 7.620  -01 0.50000    2.011  +02
 7.620  -01 0.17370    1.968  +02
 7.620  -01-0.1737     1.814  +02
 7.620  -01-0.5000     1.957  +02
 7.620  -01-0.7660     1.927  +02
 7.620  -01-0.9397     1.648  +02
 7.840  -01 0.93970    1.944  +02
 7.840  -01 0.76600    1.742  +02
 7.840  -01 0.50000    1.829  +02
 7.840  -01 0.17370    1.773  +02
 7.840  -01-0.1737     1.974  +02
 7.840  -01-0.5000     2.194  +02
 7.840  -01-0.7660     2.019  +02
 7.840  -01-0.9397     2.244  +02
 7.940  -01 0.93970    2.149  +02
 7.940  -01 0.76600    2.312  +02
 7.940  -01 0.50000    2.069  +02
 7.940  -01 0.17370    1.989  +02
 7.940  -01-0.1737     2.216  +02
 7.940  -01-0.5000     2.504  +02
 7.940  -01-0.7660     2.794  +02
 7.940  -01-0.9397     2.938  +02
 8.050  -01 0.93970    6.061  +02
 8.050  -01 0.76600    5.164  +02
 8.050  -01 0.50000    4.259  +02
 8.050  -01 0.17370    3.109  +02
 8.050  -01-0.1737     2.786  +02
 8.050  -01-0.5000     3.338  +02
 8.050  -01-0.7660     3.854  +02
 8.050  -01-0.9397     4.667  +02
 8.130  -01 0.93970    1.035  +03
 8.130  -01 0.76600    9.399  +02
 8.130  -01 0.50000    7.179  +02
 8.130  -01 0.17370    4.168  +02
 8.130  -01-0.1737     3.068  +02
 8.130  -01-0.5000     3.589  +02
 8.130  -01-0.7660     4.017  +02
 8.130  -01-0.9397     5.238  +02
 8.220  -01 0.93970    1.331  +03
 8.220  -01 0.76600    1.235  +03
 8.220  -01 0.50000    9.438  +02
 8.220  -01 0.17370    5.319  +02
 8.220  -01-0.1737     3.081  +02
 8.220  -01-0.5000     2.566  +02
 8.220  -01-0.7660     2.474  +02
 8.220  -01-0.9397     3.921  +02
 8.300  -01 0.93970    1.339  +03
 8.300  -01 0.76600    1.087  +03
 8.300  -01 0.50000    9.041  +02
 8.300  -01 0.17370    5.841  +02
 8.300  -01-0.1737     2.652  +02
 8.300  -01-0.5000     1.553  +02
 8.300  -01-0.7660     1.414  +02
 8.300  -01-0.9397     1.544  +02
 8.390  -01 0.93970    1.043  +03
 8.390  -01 0.76600    8.239  +02
 8.390  -01 0.50000    6.238  +02
 8.390  -01 0.17370    4.291  +02
 8.390  -01-0.1737     2.348  +02
 8.390  -01-0.5000     1.104  +02
 8.390  -01-0.7660     8.680  +01
 8.390  -01-0.9397     1.203  +02
 8.430  -01 0.93970    9.307  +02
 8.430  -01 0.76600    6.984  +02
 8.430  -01 0.50000    5.486  +02
 8.430  -01 0.17370    4.308  +02
 8.430  -01-0.1737     2.517  +02
 8.430  -01-0.5000     1.216  +02
 8.430  -01-0.7660     9.449  +01
 8.430  -01-0.9397     5.049  +01
 8.470  -01 0.93970    1.053  +03
 8.470  -01 0.76600    7.898  +02
 8.470  -01 0.50000    4.844  +02
 8.470  -01 0.17370    3.174  +02
 8.470  -01-0.1737     2.391  +02
 8.470  -01-0.5000     1.824  +02
 8.470  -01-0.7660     1.731  +02
 8.470  -01-0.9397     1.614  +02
 8.500  -01 0.93970    1.136  +03
 8.500  -01 0.76600    7.768  +02
 8.500  -01 0.50000    5.571  +02
 8.500  -01 0.17370    3.669  +02
 8.500  -01-0.1737     2.254  +02
 8.500  -01-0.5000     1.731  +02
 8.500  -01-0.7660     1.361  +02
 8.500  -01-0.9397     1.619  +02
 8.510  -01 0.93970    9.318  +02
 8.510  -01 0.76600    7.104  +02
 8.510  -01 0.50000    4.236  +02
 8.510  -01 0.17370    3.037  +02
 8.510  -01-0.1737     2.522  +02
 8.510  -01-0.5000     1.683  +02
 8.510  -01-0.7660     1.179  +02
 8.510  -01-0.9397     4.830  +01
 8.550  -01 0.93970    7.924  +02
 8.550  -01 0.76600    6.058  +02
 8.550  -01 0.50000    4.519  +02
 8.550  -01 0.17370    3.119  +02
 8.550  -01-0.1737     2.264  +02
 8.550  -01-0.5000     1.684  +02
 8.550  -01-0.7660     7.599  +01
 8.550  -01-0.9397     2.960  +01
 8.590  -01 0.93970    6.738  +02
 8.590  -01 0.76600    5.838  +02
 8.590  -01 0.50000    3.954  +02
 8.590  -01 0.17370    2.718  +02
 8.590  -01-0.1737     2.178  +02
 8.590  -01-0.5000     1.464  +02
 8.590  -01-0.7660     7.880  +01
 8.590  -01-0.9397     3.860  +01
 8.680  -01 0.93970    6.216  +02
 8.680  -01 0.76600    5.109  +02
 8.680  -01 0.50000    3.909  +02
 8.680  -01 0.17370    2.984  +02
 8.680  -01-0.1737     2.248  +02
 8.680  -01-0.5000     1.387  +02
 8.680  -01-0.7660     5.970  +01
 8.680  -01-0.9397     3.570  +01
 8.890  -01 0.93970    4.628  +02
 8.890  -01 0.93970    4.268  +02
 8.890  -01 0.76600    3.754  +02
 8.890  -01 0.76600    3.497  +02
 8.890  -01 0.50000    3.623  +02
 8.890  -01 0.50000    3.319  +02
 8.890  -01 0.17370    2.616  +02
 8.890  -01 0.17370    2.448  +02
 8.890  -01-0.1737     1.653  +02
 8.890  -01-0.1737     1.639  +02
 8.890  -01-0.5000     1.479  +02
 8.890  -01-0.5000     1.417  +02
 8.890  -01-0.7660     9.630  +01
 8.890  -01-0.7660     7.899  +01
 8.890  -01-0.9397     3.149  +01
 8.890  -01-0.9397     4.180  +01
 9.010  -01 0.93970    3.926  +02
 9.010  -01 0.76600    3.499  +02
 9.010  -01 0.50000    3.239  +02
 9.010  -01 0.17370    2.651  +02
 9.010  -01-0.1737     1.976  +02
 9.010  -01-0.5000     1.561  +02
 9.010  -01-0.7660     1.097  +02
 9.010  -01-0.9397     6.080  +01
 9.050  -01 0.93970    3.384  +02
 9.050  -01 0.76600    2.959  +02
 9.050  -01 0.50000    3.084  +02
 9.050  -01 0.17370    2.653  +02
 9.050  -01-0.1737     2.084  +02
 9.050  -01-0.5000     1.774  +02
 9.050  -01-0.7660     1.218  +02
 9.050  -01-0.9397     9.140  +01
 9.100  -01 0.93970    2.849  +02
 9.100  -01 0.76600    2.579  +02
 9.100  -01 0.50000    2.457  +02
 9.100  -01 0.17370    2.469  +02
 9.100  -01-0.1737     2.267  +02
 9.100  -01-0.5000     2.014  +02
 9.100  -01-0.7660     1.817  +02
 9.100  -01-0.9397     1.316  +02
 9.120  -01 0.93970    3.709  +02
 9.120  -01 0.76600    3.698  +02
 9.120  -01 0.50000    2.974  +02
 9.120  -01 0.17370    2.193  +02
 9.120  -01-0.1737     2.081  +02
 9.120  -01-0.5000     2.048  +02
 9.120  -01-0.7660     1.961  +02
 9.120  -01-0.9397     2.577  +02
 9.140  -01 0.93970    6.552  +02
 9.140  -01 0.76600    5.711  +02
 9.140  -01 0.50000    3.946  +02
 9.140  -01 0.17370    2.889  +02
 9.140  -01-0.1737     2.383  +02
 9.140  -01-0.5000     1.883  +02
 9.140  -01-0.7660     2.094  +02
 9.140  -01-0.9397     2.799  +02
 9.160  -01 0.93970    8.689  +02
 9.160  -01 0.76600    7.262  +02
 9.160  -01 0.50000    5.639  +02
 9.160  -01 0.17370    3.531  +02
 9.160  -01-0.1737     2.306  +02
 9.160  -01-0.5000     2.189  +02
 9.160  -01-0.7660     2.142  +02
 9.160  -01-0.9397     2.572  +02
 9.180  -01 0.93970    8.591  +02
 9.180  -01 0.76600    7.207  +02
 9.180  -01 0.50000    5.739  +02
 9.180  -01 0.17370    4.152  +02
 9.180  -01-0.1737     2.539  +02
 9.180  -01-0.5000     1.728  +02
 9.180  -01-0.7660     1.759  +02
 9.180  -01-0.9397     1.707  +02
 9.200  -01 0.93970    7.799  +02
 9.200  -01 0.76600    7.119  +02
 9.200  -01 0.50000    5.866  +02
 9.200  -01 0.17370    3.899  +02
 9.200  -01-0.1737     2.414  +02
 9.200  -01-0.5000     1.697  +02
 9.200  -01-0.7660     1.203  +02
 9.200  -01-0.9397     1.308  +02
 9.220  -01 0.93970    7.734  +02
 9.220  -01 0.76600    6.956  +02
 9.220  -01 0.50000    5.814  +02
 9.220  -01 0.17370    4.076  +02
 9.220  -01-0.1737     2.702  +02
 9.220  -01-0.5000     1.796  +02
 9.220  -01-0.7660     9.199  +01
 9.220  -01-0.9397     7.960  +01
 9.240  -01 0.93970    6.628  +02
 9.240  -01 0.76600    6.674  +02
 9.240  -01 0.50000    5.884  +02
 9.240  -01 0.17370    4.064  +02
 9.240  -01-0.1737     2.596  +02
 9.240  -01-0.5000     1.653  +02
 9.240  -01-0.7660     8.320  +01
 9.240  -01-0.9397     9.620  +01
 9.260  -01 0.93970    6.438  +02
 9.260  -01 0.76600    6.313  +02
 9.260  -01 0.50000    5.663  +02
 9.260  -01 0.17370    4.099  +02
 9.260  -01-0.1737     2.564  +02
 9.260  -01-0.5000     1.628  +02
 9.260  -01-0.7660     9.160  +01
 9.260  -01-0.9397     5.180  +01
 9.300  -01 0.93970    5.679  +02
 9.300  -01 0.76600    5.217  +02
 9.300  -01 0.50000    4.969  +02
 9.300  -01 0.17370    3.939  +02
 9.300  -01-0.1737     2.674  +02
 9.300  -01-0.5000     1.648  +02
 9.300  -01-0.7660     7.449  +01
 9.300  -01-0.9397     6.860  +01
 9.340  -01 0.93970    5.806  +02
 9.340  -01 0.76600    5.049  +02
 9.340  -01 0.50000    5.153  +02
 9.340  -01 0.17370    3.997  +02
 9.340  -01-0.1737     2.754  +02
 9.340  -01-0.5000     1.944  +02
 9.340  -01-0.7660     5.849  +01
 9.340  -01-0.9397     3.090  +01
 9.380  -01 0.93970    5.259  +02
 9.380  -01 0.76600    5.162  +02
 9.380  -01 0.50000    4.773  +02
 9.380  -01 0.17370    4.074  +02
 9.380  -01-0.1737     3.004  +02
 9.380  -01-0.5000     1.757  +02
 9.380  -01-0.7660     7.470  +01
 9.380  -01-0.9397     1.299  +01
 9.510  -01 0.93970    6.274  +02
 9.510  -01 0.76600    5.791  +02
 9.510  -01 0.50000    5.433  +02
 9.510  -01 0.17370    4.486  +02
 9.510  -01-0.1737     3.259  +02
 9.510  -01-0.5000     1.978  +02
 9.510  -01-0.7660     7.860  +01
 9.510  -01-0.9397     5.680  +01
 9.720  -01 0.93970    8.434  +02
 9.720  -01 0.76600    7.754  +02
 9.720  -01 0.50000    6.256  +02
 9.720  -01 0.17370    4.531  +02
 9.720  -01-0.1737     2.929  +02
 9.720  -01-0.5000     1.576  +02
 9.720  -01-0.7660     7.040  +01
 9.720  -01-0.9397     2.710  +01
 9.930  -01 0.93970    9.203  +02
 9.930  -01 0.76600    7.374  +02
 9.930  -01 0.50000    5.919  +02
 9.930  -01 0.17370    3.431  +02
 9.930  -01-0.1737     1.664  +02
 9.930  -01-0.5000     1.259  +02
 9.930  -01-0.7660     6.860  +01
 9.930  -01-0.9397     8.130  +01
 1.014  +00 0.93970    7.973  +02
 1.014  +00 0.76600    6.706  +02
 1.014  +00 0.50000    4.812  +02
 1.014  +00 0.17370    2.763  +02
 1.014  +00-0.1737     1.409  +02
 1.014  +00-0.5000     7.180  +01
 1.014  +00-0.7660     4.049  +01
 1.014  +00-0.9397     7.430  +01
 1.035  +00 0.93970    7.751  +02
 1.035  +00 0.76600    5.763  +02
 1.035  +00 0.50000    4.334  +02
 1.035  +00 0.17370    2.634  +02
 1.035  +00-0.1737     1.252  +02
 1.035  +00-0.5000     7.299  +01
 1.035  +00-0.7660     5.799  +01
 1.035  +00-0.9397     1.106  +02
 1.037  +00 0.93970    7.181  +02
 1.037  +00 0.76600    5.827  +02
 1.037  +00 0.50000    4.321  +02
 1.037  +00 0.17370    2.494  +02
 1.037  +00-0.1737     1.179  +02
 1.037  +00-0.5000     6.649  +01
 1.037  +00-0.7660     5.220  +01
 1.037  +00-0.9397     9.890  +01
 1.039  +00 0.93970    6.749  +02
 1.039  +00 0.76600    5.947  +02
 1.039  +00 0.50000    4.712  +02
 1.039  +00 0.17370    2.604  +02
 1.039  +00-0.1737     1.218  +02
 1.039  +00-0.5000     7.690  +01
 1.039  +00-0.7660     7.949  +01
 1.039  +00-0.9397     2.332  +02
 1.041  +00 0.93970    6.252  +02
 1.041  +00 0.76600    5.654  +02
 1.041  +00 0.50000    4.189  +02
 1.041  +00 0.17370    2.578  +02
 1.041  +00-0.1737     1.334  +02
 1.041  +00-0.5000     7.030  +01
 1.041  +00-0.7660     7.830  +01
 1.041  +00-0.9397     1.081  +02
 1.043  +00 0.93970    7.267  +02
 1.043  +00 0.76600    5.803  +02
 1.043  +00 0.50000    4.857  +02
 1.043  +00 0.17370    3.128  +02
 1.043  +00-0.1737     1.499  +02
 1.043  +00-0.5000     9.790  +01
 1.043  +00-0.7660     1.142  +02
 1.043  +00-0.9397     2.172  +02
 1.045  +00 0.93970    1.059  +03
 1.045  +00 0.76600    7.497  +02
 1.045  +00 0.50000    4.444  +02
 1.045  +00 0.17370    2.656  +02
 1.045  +00-0.1737     1.498  +02
 1.045  +00-0.5000     9.430  +01
 1.045  +00-0.7660     1.667  +02
 1.045  +00-0.9397     2.852  +02
 1.047  +00 0.93970    1.028  +03
 1.047  +00 0.76600    6.964  +02
 1.047  +00 0.50000    4.113  +02
 1.047  +00 0.17370    2.332  +02
 1.047  +00-0.1737     1.273  +02
 1.047  +00-0.5000     1.203  +02
 1.047  +00-0.7660     1.852  +02
 1.047  +00-0.9397     2.103  +02
 1.049  +00 0.93970    9.809  +02
 1.049  +00 0.76600    6.357  +02
 1.049  +00 0.50000    3.796  +02
 1.049  +00 0.17370    1.934  +02
 1.049  +00-0.1737     1.199  +02
 1.049  +00-0.5000     1.103  +02
 1.049  +00-0.7660     8.810  +01
 1.049  +00-0.9397     1.634  +02
 1.051  +00 0.93970    9.258  +02
 1.051  +00 0.76600    6.471  +02
 1.051  +00 0.50000    3.909  +02
 1.051  +00 0.17370    1.994  +02
 1.051  +00-0.1737     1.176  +02
 1.051  +00-0.5000     1.117  +02
 1.051  +00-0.7660     1.016  +02
 1.051  +00-0.9397     1.099  +02
 1.053  +00 0.93970    8.664  +02
 1.053  +00 0.76600    6.417  +02
 1.053  +00 0.50000    3.922  +02
 1.053  +00 0.17370    1.836  +02
 1.053  +00-0.1737     9.249  +01
 1.053  +00-0.5000     9.349  +01
 1.053  +00-0.7660     9.280  +01
 1.053  +00-0.9397     8.890  +01
 1.055  +00 0.93970    8.894  +02
 1.055  +00 0.76600    6.234  +02
 1.055  +00 0.50000    4.194  +02
 1.055  +00 0.17370    2.119  +02
 1.055  +00-0.1737     8.940  +01
 1.055  +00-0.5000     7.890  +01
 1.055  +00-0.7660     5.890  +01
 1.055  +00-0.9397     6.440  +01
 1.059  +00 0.93970    7.432  +02
 1.059  +00 0.76600    5.736  +02
 1.059  +00 0.50000    3.924  +02
 1.059  +00 0.17370    2.101  +02
 1.059  +00-0.1737     1.022  +02
 1.059  +00-0.5000     6.410  +01
 1.059  +00-0.7660     4.749  +01
 1.059  +00-0.9397     9.540  +01
 1.097  +00 0.93970    6.184  +02
 1.097  +00 0.76600    5.092  +02
 1.097  +00 0.50000    3.502  +02
 1.097  +00 0.17370    2.031  +02
 1.097  +00-0.1737     1.004  +02
 1.097  +00-0.5000     6.040  +01
 1.097  +00-0.7660     6.370  +01
 1.097  +00-0.9397     5.120  +01
 1.118  +00 0.93970    5.387  +02
 1.118  +00 0.76600    4.499  +02
 1.118  +00 0.50000    3.287  +02
 1.118  +00 0.17370    1.934  +02
 1.118  +00-0.1737     9.710  +01
 1.118  +00-0.5000     5.670  +01
 1.118  +00-0.7660     4.649  +01
 1.118  +00-0.9397     5.880  +01
 1.139  +00 0.93970    5.617  +02
 1.139  +00 0.76600    4.294  +02
 1.139  +00 0.50000    3.298  +02
 1.139  +00 0.17370    1.997  +02
 1.139  +00-0.1737     8.120  +01
 1.139  +00-0.5000     4.990  +01
 1.139  +00-0.7660     5.599  +01
 1.139  +00-0.9397     5.410  +01
 1.181  +00 0.93970    4.082  +02
 1.181  +00 0.76600    3.348  +02
 1.181  +00 0.50000    2.504  +02
 1.181  +00 0.17370    1.879  +02
ENDDATA            430
ENDSUBENT          441
SUBENT        12664004     840510              20050926       0000
BIB                  2          5
REACTION  1(12-MG-0(N,0),,EN)
          2(12-MG-0(N,0),,L)
          3(12-MG-0(N,0),,J)
          4(12-MG-0(N,EL),,WID)
STATUS     DATA TAKEN FROM PRIVATE COMM., COX, 73/5.
ENDBIB               5
NOCOMMON             0          0
DATA                 4          2
DATA      1DATA      2DATA      3DATA      4
MEV        NO-DIM     NO-DIM     MEV
 0.67       0.         0.5        0.026
 0.85       2.         1.5        0.016
ENDDATA              4
ENDSUBENT           14
SUBENT        12664005     840510              20050926       0000
BIB                  1          3
REACTION  1(14-SI-0(N,0),,EN)
          2(14-SI-0(N,0),,L)
          3(14-SI-0(N,0),,J)
ENDBIB               3
NOCOMMON             0          0
DATA                 3          5
DATA      1DATA      2DATA      3
KEV        NO-DIM     NO-DIM
 830.       1.         1.5
 850.       2.         1.5
 920.       2.         1.5
 975.       1.         0.5
1045.       2.         2.5
ENDDATA              7
ENDSUBENT           15
ENDENTRY             5
