ENTRY            F0626   20040202   20040519
SUBENT        F0626001   20040202   20040519
BIB                 10         21
TITLE      Statistical and non-statistical effects in the alpha-
           scattering from 24Mg between 14.9 and 19.1 MeV.
AUTHOR     (K.A.EBERHARD, C.MAYER-BORICKE)
INSTITUTE  (2GERMPH,2GERJUL)
REFERENCE  (J,NP/A,142,113,1970)
FACILITY   (VDGT,2GERMPH)
SAMPLE     Thin 24Mg targets (40 mu-g/cm2) were prepered by
           evaporating 99.96% enriched 24Mg metal onto thin
           carbon backings of about 10 mu-g/cm2. The required
           thickness of 40 mu-g/cm2 was achieved by employing the
           so-called swing quartz method during evaporation
DETECTOR   (SOLST) Fifteen semiconductor detectors were placed
           10 degr apart from each other in the angular range
           25-165 degr in the lab system. In addition a monitor
           counter was fixed at 160 degr.
MONITOR    (79-AU-197(A,EL)79-AU-197,,DA,,RTH) The solid angle of
           each counter was checked independently by comparing
           measured 197Au(a,a0) yields to the Rutherford cross
           sections at low alpha-particle energies.
ERR-ANALYS (ERR-DIG)    Digitizing error
HISTORY    (20031020C)
ENDBIB              21
COMMON               2          3
EN-RSL     EN-RSL-FW
KEV        KEV
 3.         60.
ENDCOMMON            3
ENDSUBENT           28
SUBENT        F0626002   20040202   20040519
BIB                  3          3
REACTION   (12-MG-24(A,EL)12-MG-24,,DA)
ERR-ANALYS (EN-ERR-DIG) Digitizing error
STATUS     (CURVE)Fig.3
ENDBIB               3
COMMON               2          3
EN-ERR-DIG ERR-DIG
MEV        MB/SR
 0.01       0.09
ENDCOMMON            3
DATA                 3        409
ANG-CM     EN         DATA-CM
ADEG       MEV        MB/SR
 29.000     14.899     352.13
 29.000     14.926     348.08
 29.000     14.940     325.05
 29.000     14.954     312.86
 29.000     14.975     293.89
 29.000     15.000     304.08
 29.000     15.033     401.72
 29.000     15.051     420.71
 29.000     15.055     458.67
 29.000     15.095     450.57
 29.000     15.114     464.14
 29.000     15.132     484.49
 29.000     15.153     468.24
 29.000     15.156     415.36
 29.000     15.185     377.42
 29.000     15.198     372.69
 29.000     15.213     342.87
 29.000     15.237     386.95
 29.000     15.260     325.28
 29.000     15.271     269.03
 29.000     15.288     308.36
 29.000     15.307     309.73
 29.000     15.314     306.34
 29.000     15.341     393.81
 29.000     15.360     399.24
 29.000     15.380     482.64
 29.000     15.410     432.50
 29.000     15.423     426.41
 29.000     15.443     425.74
 29.000     15.453     372.20
 29.000     15.476     326.12
 29.000     15.486     269.18
 29.000     15.509     231.92
 29.000     15.526     261.76
 29.000     15.538     278.71
 29.000     15.571     282.13
 29.000     15.580     244.17
 29.000     15.600     230.63
 29.000     15.621     213.70
 29.000     15.637     267.26
 29.000     15.665     327.61
 29.000     15.698     328.99
 29.000     15.706     308.66
 29.000     15.721     278.17
 29.000     15.734     283.60
 29.000     15.753     286.33
 29.000     15.772     292.44
 29.000     15.781     268.72
 29.000     15.813     266.03
 29.000     15.817     304.00
 29.000     15.852     367.07
 29.000     15.879     365.05
 29.000     15.888     327.10
 29.000     15.903     291.18
 29.000     15.919     253.23
 29.000     15.934     219.35
 29.000     15.955     201.74
 29.000     15.979     228.87
 29.000     16.003     262.78
 29.000     16.029     263.48
 29.000     16.041     279.76
 29.000     16.082     258.77
 29.000     16.096     247.26
 29.000     16.110     237.10
 29.000     16.141     254.07
 29.000     16.173     264.94
 29.000     16.186     270.38
 29.000     16.200     250.73
 29.000     16.217     289.38
 29.000     16.242     305.67
 29.000     16.249     298.21
 29.000     16.282     302.98
 29.000     16.282     297.56
 29.000     16.302     286.73
 29.000     16.323     271.83
 29.000     16.348     287.44
 29.000     16.366     306.44
 29.000     16.383     343.05
 29.000     16.407     379.68
 29.000     16.428     360.03
 29.000     16.456     339.72
 29.000     16.470     322.78
 29.000     16.490     318.05
 29.000     16.511     298.41
 29.000     16.526     269.27
 29.000     16.547     244.88
 29.000     16.561     225.91
 29.000     16.575     215.75
 29.000     16.607     220.52
 29.000     16.619     246.29
 29.000     16.632     240.20
 29.000     16.665     235.48
 29.000     16.685     239.56
 29.000     16.705     221.27
 29.000     16.717     247.72
 29.000     16.762     251.82
 29.000     16.776     234.20
 29.000     16.804     216.60
 29.000     16.817     210.51
 29.000     16.848     234.26
 29.000     16.882     227.50
 29.000     16.903     203.11
 29.000     16.917     190.24
 29.000     16.940     230.93
 29.000     16.957     275.01
 29.000     16.985     343.49
 29.000     17.016     367.92
 29.000     17.028     382.17
 29.000     17.053     392.35
 29.000     17.071     418.80
 29.000     17.098     403.23
 29.000     17.112     397.14
 29.000     17.124     311.74
 29.000     17.140     267.69
 29.000     17.167     264.99
 29.000     17.174     250.76
 29.000     17.199     266.37
 29.000     17.224     282.66
 29.000     17.245     269.12
 29.000     17.258     262.35
 29.000     17.279     249.49
 29.000     17.299     246.11
 29.000     17.318     254.94
 29.000     17.338     238.68
 29.000     17.359     222.43
 29.000     17.372     227.86
 29.000     17.398     228.56
 29.000     17.416     246.87
 29.000     17.429     248.24
 29.000     17.463     233.35
 29.000     17.483     232.01
 29.000     17.502     236.77
 29.000     17.515     239.49
 29.000     17.535     236.79
 29.000     17.554     241.55
 29.000     17.572     260.55
 29.000     17.598     257.18
 29.000     17.613     240.92
 29.000     17.639     239.58
 29.000     17.657     254.51
 29.000     17.683     263.34
 29.000     17.701     293.86
 29.000     17.719     313.53
 29.000     17.739     300.66
 29.000     17.754     278.30
 29.000     17.781     266.80
 29.000     17.793     279.69
 29.000     17.807     272.92
 29.000     17.846     268.20
 29.000     17.866     268.90
 29.000     17.875     318.39
 29.000     17.899     355.01
 29.000     17.919     344.86
 29.000     17.947     327.25
 29.000     17.961     309.64
 29.000     17.980     314.40
 29.000     17.993     319.83
 29.000     18.019     320.53
 29.000     18.065     318.53
 29.000     18.079     306.34
 29.000     18.105     309.07
 29.000     18.124     320.60
 29.000     18.143     328.08
 29.000     18.162     333.51
 29.000     18.187     342.34
 29.000     18.206     353.20
 29.000     18.221     327.45
 29.000     18.241     317.30
 29.000     18.268     316.64
 29.000     18.287     326.15
 29.000     18.306     329.55
 29.000     18.325     330.92
 29.000     18.344     339.75
 29.000     18.369     358.75
 29.000     18.384     337.06
 29.000     18.409     355.39
 29.000     18.424     326.25
 29.000     18.464     314.75
 29.000     18.478     301.21
 29.000     18.511     301.23
 29.000     18.526     270.06
 29.000     18.552     268.04
 29.000     18.565     265.34
 29.000     18.585     268.75
 29.000     18.597     278.92
 29.000     18.616     284.36
 29.000     18.641     299.29
 29.000     18.662     287.78
 29.000     18.675     282.37
 29.000     18.701     280.36
 29.000     18.720     291.22
 29.000     18.746     301.40
 29.000     18.772     301.42
 29.000     18.785     304.82
 29.000     18.805     297.38
 29.000     18.819     280.44
 29.000     18.833     273.00
 29.000     18.859     271.66
 29.000     18.859     266.24
 29.000     18.878     278.45
 29.000     18.897     290.67
 29.000     18.916     304.92
 29.000     18.935     304.25
 29.000     18.954     315.11
 29.000     18.975     292.08
 29.000     18.995     287.35
 29.000     19.016     269.74
 29.000     19.030     255.52
 29.000     19.056     256.89
 29.000     19.095     260.99
 167.50     14.908     70.053
 167.50     14.919     53.186
 167.50     14.940     47.115
 167.50     14.962     36.997
 167.50     14.971     26.877
 167.50     14.987     16.758
 167.50     15.002     7.7178
 167.50     15.023     2.9970
 167.50     15.042     6.6425
 167.50     15.062     3.4060
 167.50     15.075     6.2412
 167.50     15.107     6.3796
 167.50     15.127     5.8420
 167.50     15.135    0.31002
 167.50     15.161     2.3370
 167.50     15.179     6.2524
 167.50     15.203     14.082
 167.50     15.237     35.947
 167.50     15.249     41.076
 167.50     15.276     38.245
 167.50     15.291     30.420
 167.50     15.307     16.252
 167.50     15.317     5.4574
 167.50     15.343     4.9205
 167.50     15.361     9.5106
 167.50     15.382     5.0596
 167.50     15.402     3.5774
 167.50     15.415     3.3089
 167.50     15.441     3.9864
 167.50     15.460     8.8464
 167.50     15.476     22.748
 167.50     15.505     37.730
 167.50     15.531     38.137
 167.50     15.540     27.882
 167.50     15.560     25.590
 167.50     15.582     15.877
 167.50     15.589     14.258
 167.50     15.623     7.6494
 167.50     15.647     17.773
 167.50     15.666     47.733
 167.50     15.688     62.579
 167.50     15.722     59.074
 167.50     15.731     45.851
 167.50     15.743     25.610
 167.50     15.758     19.674
 167.50     15.779     13.064
 167.50     15.794     5.2387
 167.50     15.808     3.0810
 167.50     15.839     9.1569
 167.50     15.862     22.249
 167.50     15.888     22.927
 167.50     15.913     25.358
 167.50     15.921     20.906
 167.50     15.940     20.368
 167.50     15.960     19.966
 167.50     15.975     12.410
 167.50     15.990     7.0140
 167.50     16.010     3.5076
 167.50     16.037     1.3513
 167.50     16.050     1.6226
 167.50     16.069     1.4897
 167.50     16.095     1.7624
 167.50     16.115     1.8995
 167.50     16.135    0.55215
 167.50     16.160     3.2538
 167.50     16.180     4.3354
 167.50     16.206     5.5527
 167.50     16.212     6.3631
 167.50     16.237     9.0647
 167.50     16.263     10.552
 167.50     16.282     12.848
 167.50     16.301     15.009
 167.50     16.320     17.575
 167.50     16.341     12.180
 167.50     16.361     10.562
 167.50     16.368     7.8643
 167.50     16.396     1.9296
 167.50     16.435     1.7989
 167.50     16.468     2.4771
 167.50     16.487     3.9635
 167.50     16.513     4.6410
 167.50     16.519     7.6105
 167.50     16.551     11.122
 167.50     16.557     12.742
 167.50     16.583     13.015
 167.50     16.610     7.8902
 167.50     16.624     4.1132
 167.50     16.637     3.5748
 167.50     16.638     2.0905
 167.50     16.664     3.3077
 167.50     16.690     3.7154
 167.50     16.696     6.1450
 167.50     16.721     9.1166
 167.50     16.747     9.7941
 167.50     16.754     8.8502
 167.50     16.793     8.1797
 167.50     16.812     9.8011
 167.50     16.832     11.288
 167.50     16.845     9.5347
 167.50     16.866     3.4644
 167.50     16.880     1.9814
 167.50     16.893     1.1732
 167.50     16.939    0.90820
 167.50     16.965     1.3158
 167.50     16.978     2.6667
 167.50     17.010     4.0196
 167.50     17.010     3.0750
 167.50     17.043     1.8640
 167.50     17.069     2.8114
 167.50     17.075     6.3206
 167.50     17.094     6.8625
 167.50     17.126     9.1600
 167.50     17.140     7.2722
 167.50     17.160     5.7899
 167.50     17.186     5.5229
 167.50     17.206     5.1201
 167.50     17.213     3.6365
 167.50     17.239     1.7501
 167.50     17.266    0.94323
 167.50     17.285     2.8345
 167.50     17.310     5.2663
 167.50     17.323     7.2918
 167.50     17.349     7.5645
 167.50     17.361     11.614
 167.50     17.398     18.635
 167.50     17.411     22.010
 167.50     17.429     27.005
 167.50     17.454     32.406
 167.50     17.463     22.961
 167.50     17.490     19.455
 167.50     17.504     14.733
 167.50     17.519     7.7177
 167.50     17.546     3.4023
 167.50     17.565     5.0237
 167.50     17.585     3.5415
 167.50     17.612     1.2502
 167.50     17.644     3.5478
 167.50     17.663     6.9234
 167.50     17.682     9.4894
 167.50     17.709     5.3090
 167.50     17.723     3.4212
 167.50     17.756     2.2103
 167.50     17.769     1.9418
 167.50     17.788     3.0234
 167.50     17.814     3.0262
 167.50     17.833     4.9175
 167.50     17.839     7.3472
 167.50     17.852     6.6739
 167.50     17.885     6.0026
 167.50     17.892     5.3286
 167.50     17.911     7.7597
 167.50     17.937     8.7071
 167.50     17.957     5.3356
 167.50     17.971     2.0984
 167.50     17.991     1.6957
 167.50     18.023     2.2390
 167.50     18.049     2.9165
 167.50     18.069     4.2680
 167.50     18.094     5.7552
 167.50     18.108     5.8915
 167.50     18.127     4.6791
 167.50     18.160     3.3332
 167.50     18.206     2.7984
 167.50     18.233     2.3963
 167.50     18.246     1.7230
 167.50     18.272     1.4559
 167.50     18.292     1.5930
 167.50     18.317     2.8103
 167.50     18.324     4.5652
 167.50     18.350     4.8379
 167.50     18.376     4.5708
 167.50     18.396     3.0886
 167.50     18.403     1.4700
 167.50     18.422     2.0118
 167.50     18.448     4.0388
 167.50     18.461     3.0956
 167.50     18.500     3.5046
 167.50     18.534    0.67431
 167.50     18.545     8.0975
 167.50     18.571     8.5052
 167.50     18.597     10.127
 167.50     18.610     8.9142
 167.50     18.631     5.2729
 167.50     18.651     3.1159
 167.50     18.671     2.1734
 167.50     18.704     1.0974
 167.50     18.736     1.2358
 167.50     18.775    0.70023
 167.50     18.808    0.56879
 167.50     18.919     1.9301
 167.50     18.945     3.0125
 167.50     18.964     3.5543
 167.50     18.996     5.7169
 167.50     18.996     6.7965
 167.50     19.015     8.4179
 167.50     19.041     8.9604
 167.50     19.061     10.177
 167.50     19.081     6.6706
 167.50     19.108     5.0541
ENDDATA            411
ENDSUBENT          423
SUBENT        F0626003   20040202   20040519
BIB                  4          6
REACTION   (12-MG-24(A,EL)12-MG-24,,DA,,AV)
ERR-ANALYS (ANG-ERR-D) Digitizing error
           (DATA-ERR)  Error from the graphic bars
COMMENT    Cross-sections were averaged over the investigated
           energy range of 4.2 MeV.
STATUS     (CURVE)Fig.10
ENDBIB               6
COMMON               4          3
EN-MIN     EN-MAX     ANG-ERR-D  ERR-DIG
MEV        MEV        ADEG       PER-CENT
 14.9       19.1       0.2        0.4
ENDCOMMON            3
DATA                 3         29
ANG-CM     DATA-CM    DATA-ERR
ADEG       MB/SR      MB/SR
 29.026     299.78     19.306
 35.170     200.83     15.006
 40.591     61.889     3.9856
 46.240     21.074     1.7898
 51.781     29.692     1.6022
 57.275     23.236     1.0086
 63.168     10.557    0.67989
 68.424     6.6181    0.35712
 73.934     6.3239    0.34125
 79.207     4.8945    0.26412
 84.694     3.5050    0.18913
 89.773     3.8265    0.24642
 94.425     4.9342    0.26625
 99.503     5.3273    0.34307
 104.56     4.6071    0.34425
 109.40     3.7695    0.20341
 114.23     2.8855    0.15571
 119.07     2.4139    0.13026
 123.70     2.4933    0.13454
 128.14     3.4749    0.25965
 132.79     4.1460    0.26700
 136.74     3.5076    0.22589
 141.79     2.5121    0.16177
 145.99     2.8358    0.21189
 150.22     4.6164    0.20039
 154.43     5.9534    0.38339
 158.59     4.2644    0.23011
 162.73     2.3147    0.14906
 166.98     4.8635    0.26244
ENDDATA             31
ENDSUBENT           46
ENDENTRY             3
