ENTRY            F0638   20040621
SUBENT        F0638001   20040621
BIB                 10         15
TITLE      Non statistical reaction contributions in (alpha,n)
           excitation functions.
AUTHOR     (W.Gruhle,K.-H.Mobius)
INSTITUTE  (2GERKLN)
REFERENCE  (J,ZP/A,283,97,1977)
FACILITY   (VDGT) Cologne FN tandem.
INC-SOURCE A beam of 4He++ particles.
DETECTOR   (NAICR) Two 3 In. x 3 In. NaI(TI) were used.
METHOD     (ACTIV)
ERR-ANALYS (DATA-ERR1)Absolute cross section uncertainty.
           Standard deviations of the experimental data are
           below 3%.
           (EN-ERR-DIG) Digitizing error
           (ERR-DIG)    Digitizing error
HISTORY    (20031120C)
ENDBIB              15
COMMON               3          3
DATA-ERR1  EN-ERR-DIG ERR-DIG
PER-CENT   MEV        MB
 10.        0.01       0.3
ENDCOMMON            3
ENDSUBENT           22
SUBENT        F0638002   20040621
BIB                  3          4
REACTION   (12-MG-24(A,N)14-SI-27,,SIG)
SAMPLE     The target of 50 mu-g/cm2 natural Mg covered with an
           8 mu-g/cm2 gold layer was used.
STATUS     (CURVE)Fig.2
ENDBIB               4
NOCOMMON
DATA                 2        191
EN         DATA
MEV        MB
 17.214     1.3595
 17.225     2.8732
 17.301     3.6883
 17.353     10.367
 17.437     9.5830
 17.509     8.4411
 17.657     9.1812
 17.733     4.5724
 17.783     5.4714
 17.848     4.9506
 17.880     5.5791
 17.939     10.925
 17.982     19.114
 18.031     15.656
 18.080     11.042
 18.101     10.068
 18.221     12.047
 18.368     13.410
 18.421     12.531
 18.443     16.358
 18.519     16.907
 18.524     18.775
 18.564     23.317
 18.634     24.753
 18.702     27.434
 18.712     30.459
 18.789     30.652
 18.854     30.042
 18.891     24.981
 18.954     20.992
 19.010     22.515
 19.109     26.891
 19.166     21.123
 19.201     18.906
 19.268     16.163
 19.297     19.192
 19.340     20.979
 19.414     24.549
 19.439     31.312
 19.504     31.324
 19.572     28.048
 19.641     23.438
 19.706     22.650
 19.757     23.549
 19.805     26.404
 19.869     27.305
 19.911     29.981
 19.942     32.032
 19.992     32.842
 20.062     34.189
 20.109     32.509
 20.150     30.294
 20.299     29.434
 20.347     32.289
 20.485     36.494
 20.558     40.510
 20.589     41.938
 20.666     42.753
 20.782     42.776
 20.812     32.201
 20.864     38.257
 20.918     42.091
 20.952     40.497
 21.022     47.713
 21.074     52.702
 21.110     48.975
 21.111     42.573
 21.146     39.468
 21.162     36.537
 21.254     35.221
 21.263     32.467
 21.340     38.884
 21.346     45.731
 21.386     44.405
 21.436     45.660
 21.518     40.963
 21.535     37.143
 21.612     31.290
 21.651     37.788
 21.680     40.817
 21.768     43.235
 21.811     44.844
 21.890     55.706
 21.941     56.605
 21.998     51.459
 22.021     47.552
 22.070     49.962
 22.121     50.417
 22.148     55.845
 22.257     56.045
 22.322     56.235
 22.322     62.192
 22.402     59.096
 22.502     49.868
 22.564     46.324
 22.600     42.241
 22.670     49.723
 22.720     57.557
 22.764     58.633
 22.830     57.223
 22.874     57.943
 22.959     56.715
 23.028     52.460
 23.091     54.340
 23.129     60.749
 23.132     64.306
 23.226     61.034
 23.250     56.505
 23.286     52.333
 23.327     50.651
 23.376     52.350
 23.448     64.367
 23.510     66.513
 23.570     64.480
 23.591     62.795
 23.640     65.561
 23.660     71.255
 23.672     72.235
 23.677     73.748
 23.736     72.515
 23.766     74.477
 23.919     82.508
 23.976     83.942
 24.041     70.707
 24.077     67.513
 24.140     68.325
 24.197     69.937
 24.229     70.210
 24.249     69.325
 24.311     71.915
 24.319     69.605
 24.386     80.288
 24.434     77.363
 24.470     73.191
 24.493     70.528
 24.513     69.198
 24.553     67.872
 24.620     71.886
 24.622     69.664
 24.656     74.472
 24.667     76.252
 24.708     80.617
 24.714     81.152
 24.719     82.664
 24.735     79.466
 24.763     77.427
 24.838     72.907
 24.884     72.116
 24.932     75.415
 24.980     73.112
 25.030     74.189
 25.136     71.720
 25.209     69.423
 25.219     72.714
 25.264     78.503
 25.373     79.680
 25.445     78.538
 25.447     82.361
 25.501     80.505
 25.539     81.223
 25.607     78.125
 25.675     74.048
 25.765     74.510
 25.792     79.672
 25.830     86.437
 25.888     80.580
 25.893     75.691
 25.967     78.995
 25.972     80.330
 26.068     80.793
 26.088     80.086
 26.169     82.946
 26.185     80.104
 26.269     79.321
 26.316     78.263
 26.351     81.737
 26.393     84.235
 26.422     81.840
 26.438     78.731
 26.514     73.411
 26.538     75.105
 26.595     75.650
 26.637     73.257
 26.675     73.354
 26.759     67.502
 26.815     68.669
 26.837     66.183
 26.851     64.941
 26.939     67.981
 26.987     64.434
 27.023     61.507
ENDDATA            193
ENDSUBENT          202
ENDENTRY             2
