ENTRY            F0646   20031008   20040322
SUBENT        F0646001   20031008   20040322
BIB                  7          9
TITLE      Alpha-particle scattering from the 3+ unnatural and the
           4+ natural parity states in 24Mg
AUTHOR     (A.G.DRENTJE,J.D.A.ROEDERS)
INSTITUTE  (2NEDGRN)
REFERENCE  (J,PL/B,32,356,1970)
FACILITY   (CYCLO,2NEDENT) AVF-cyclotron at Eindhoven and
           (CYCLO,2NEDFUL) Free University cyclotron at Amsterdam.
SAMPLE     24Mg
HISTORY    (20030912C)
ENDBIB               9
COMMON               1          3
EN-RSL
MEV
 0.1
ENDCOMMON            3
ENDSUBENT           16
SUBENT        F0646002   20031008   20040322
BIB                  3          5
REACTION   (12-MG-24(A,INL)12-MG-24,PAR,DA)
ERR-ANALYS (ANG-ERR-D)  Digitizing error
           (ERR-DIG )   Digitizing error
           (DATA-ERR1)  Errors from the graphic bars
STATUS     (CURVE) Fig. 1
ENDBIB               5
COMMON               2          3
ANG-ERR-D  ERR-DIG
ADEG       PER-CENT
 0.3        0.2
ENDCOMMON            3
DATA                 5        310
EN         E-LVL      ANG-CM     DATA-CM    DATA-ERR1
MEV        MEV        ADEG       MB/SR      MB/SR
 20.780     5.2200     25.926     2.2256
 20.780     5.2200     28.567     1.4522    0.34639
 20.780     5.2200     28.632    0.87612
 20.780     5.2200     40.574     2.3228
 20.780     5.2200     42.729     2.3241
 20.780     5.2200     45.322     2.1939
 20.780     5.2200     47.490     1.9919
 20.780     5.2200     50.091     1.7738    0.10651
 20.780     5.2200     51.819     1.7069
 20.780     5.2200     54.851     1.5203
 20.780     5.2200     56.618     1.0930
 20.780     5.2200     58.780     1.0316
 20.780     5.2200     59.226    0.91819
 20.780     5.2200     61.361     1.0733
 20.780     5.2200     63.944     1.0951
 20.780     5.2200     66.084     1.2312
 20.780     5.2200     67.803     1.2806
 20.780     5.2200     69.960     1.2567
 20.780     5.2200     72.559     1.1411
 20.780     5.2200     74.731    0.99647    0.56444E-01
 20.780     5.2200     76.886    0.99703
 20.780     5.2200     78.605     1.0370
 20.780     5.2200     81.216    0.85442
 20.780     5.2200     83.378    0.80647
 20.780     5.2200     83.799    0.87178
 20.780     5.2200     85.966    0.79149
 20.780     5.2200     88.129    0.74708
 20.780     5.2200     89.868    0.66514
 20.780     5.2200     91.599    0.62775
 20.780     5.2200     93.759    0.60415
 20.780     5.2200     95.924    0.55928    0.45218E-01
 20.780     5.2200     98.111    0.43465
 20.780     5.2200     98.472    0.74911
 20.780     5.2200     100.19    0.81004
 20.780     5.2200     100.22    0.60518
 20.780     5.2200     101.92    0.72120
 20.780     5.2200     102.33    0.87602
 20.780     5.2200     104.01     1.1961
 20.780     5.2200     104.03     1.0853
 20.780     5.2200     105.71     1.4819    0.21599
 20.780     5.2200     108.29     1.5720
 20.780     5.2200     110.01     1.5727
 20.780     5.2200     112.17     1.5433
 20.780     5.2200     114.34     1.4011
 20.780     5.2200     116.53     1.0679
 20.780     5.2200     117.41    0.87950
 20.780     5.2200     119.63    0.53089
 20.780     5.2200     121.42    0.33966    0.27462E-01
 20.780     5.2200     123.56    0.37454
 20.780     5.2200     124.81    0.51134
 20.780     5.2200     126.48    0.76944
 20.780     5.2200     128.58     1.1580
 20.780     5.2200     131.15     1.3537
 20.780     5.2200     131.57     1.5213
 20.780     5.2200     132.84     1.7436
 20.780     5.2200     134.55     2.0379
 20.780     5.2200     136.26     2.1196
 20.780     5.2200     137.99     2.0798
 20.780     5.2200     139.72     1.9251
 20.780     5.2200     141.45     1.9259    0.76343E-01
 20.780     5.2200     144.47     1.8540
 20.780     5.2200     146.18     2.0048
 20.780     5.2200     148.31     2.4363
 20.780     5.2200     150.01     3.0184
 20.780     5.2200     150.85     3.5962
 20.780     5.2200     151.70     3.8878
 20.780     5.2200     152.98     4.4560
 20.780     5.2200     153.40     4.9114
 20.780     5.2200     154.68     5.4145
 20.780     5.2200     155.09     5.9678
 20.780     5.2200     155.95     6.3275
 20.780     5.2200     156.37     6.7082
 20.780     5.2200     157.23     7.1126
 20.780     5.2200     158.94     7.8421
 20.780     5.2200     159.79     8.1548
 20.780     5.2200     161.08     8.4810
 20.780     5.2200     162.38     8.4838
 20.780     5.2200     163.24     8.1622
 20.780     5.2200     164.11     7.8528
 20.780     5.2200     164.98     7.5551
 20.780     5.2200     165.85     7.1287
 20.780     5.2200     166.71     6.8585
 20.780     5.2200     168.45     6.3483
 20.780     5.2200     168.89     5.6501
 20.780     5.2200     170.19     5.3319    0.43109
 20.780     5.2200     170.64     4.5646
 20.780     5.2200     171.52     3.9848
 20.780     5.2200     172.40     3.5470
 20.780     5.2200     172.85     3.0365
 20.780     5.2200     173.73     2.7559
 20.780     5.2200     174.19     2.1408
 20.780     5.2200     175.08     1.6632
 20.780     5.2200     175.98     1.2428
 20.780     5.2200     176.43     1.1279    0.63887E-01
 20.780     6.0000     26.140     5.8132
 20.780     6.0000     28.701     6.6665
 20.780     6.0000     30.852     6.8028
 20.780     6.0000     33.869     6.8105
 20.780     6.0000     36.024     6.8160
 20.780     6.0000     38.189     6.4353
 20.780     6.0000     41.235     5.5152
 20.780     6.0000     43.422     4.6342
 20.780     6.0000     44.291     4.4591
 20.780     6.0000     45.193     3.6023    0.52475
 20.780     6.0000     57.076    0.94690
 20.780     6.0000     59.238    0.91156
 20.780     6.0000     59.256    0.82717
 20.780     6.0000     61.411    0.82784
 20.780     6.0000     64.008    0.78173    0.63171E-01
 20.780     6.0000     66.152    0.82932
 20.780     6.0000     68.288    0.91466
 20.780     6.0000     70.002    0.97018
 20.780     6.0000     72.587    0.97112
 20.780     6.0000     75.586     1.0714
 20.780     6.0000     77.306     1.0931
 20.780     6.0000     79.034     1.0728
 20.780     6.0000     81.627     1.0329
 20.780     6.0000     83.810    0.88494
 20.780     6.0000     85.983    0.80367
 20.780     6.0000     88.181    0.63706
 20.780     6.0000     90.347    0.60148    0.96486E-01
 20.780     6.0000     92.552    0.45862
 20.780     6.0000     94.229    0.59077
 20.780     6.0000     96.366    0.65156
 20.780     6.0000     98.478    0.82329
 20.780     6.0000     98.495    0.74708
 20.780     6.0000     99.749    0.92552
 20.780     6.0000     100.17     1.0005
 20.780     6.0000     102.27     1.2890
 20.780     6.0000     102.29     1.1696
 20.780     6.0000     104.41     1.4216
 20.780     6.0000     106.12     1.5375
 20.780     6.0000     108.70     1.5999
 20.780     6.0000     110.42     1.6644    0.13450
 20.780     6.0000     112.58     1.6023
 20.780     6.0000     114.77     1.3204
 20.780     6.0000     119.71    0.43709    0.63671E-01
 20.780     6.0000     121.49    0.32052
 20.780     6.0000     123.24    0.28544
 20.780     6.0000     125.32    0.42958
 20.780     6.0000     127.37    0.74069
 20.780     6.0000     129.05    0.97283
 20.780     6.0000     130.71     1.3544
 20.780     6.0000     131.12     1.4928
 20.780     6.0000     132.82     1.7114
 20.780     6.0000     134.51     2.0797
 20.780     6.0000     136.64     2.3387
 20.780     6.0000     138.36     2.4807
 20.780     6.0000     139.66     2.3873
 20.780     6.0000     141.82     2.2540
 20.780     6.0000     144.88     1.8223
 20.780     6.0000     147.05     1.6231
 20.780     6.0000     148.80     1.4177
 20.780     6.0000     149.66     1.4743
 20.780     6.0000     150.53     1.3645
 20.780     6.0000     151.79     1.6579
 20.780     6.0000     153.07     1.8279
 20.780     6.0000     154.34     2.0154
 20.780     6.0000     155.18     2.3097    0.17269
 20.780     6.0000     156.03     2.4020
 20.780     6.0000     156.87     2.6998    0.15327
 20.780     6.0000     157.28     3.0341
 20.780     6.0000     158.13     3.2804
 20.780     6.0000     159.41     3.6168
 20.780     6.0000     159.82     3.9097
 20.780     6.0000     161.52     4.5700
 20.780     6.0000     161.54     4.1470
 20.780     6.0000     162.81     4.5722
 20.780     6.0000     163.66     4.9433
 20.780     6.0000     164.53     4.5752
 20.780     6.0000     165.81     5.0444
 20.780     6.0000     167.09     5.4546
 20.780     6.0000     167.11     4.9497
 20.780     6.0000     168.39     5.1483
 20.780     6.0000     169.24     5.5661
 20.780     6.0000     169.69     4.9545
 20.780     6.0000     170.57     4.4973
 20.780     6.0000     171.41     5.0550
 20.780     6.0000     172.72     4.5893
 20.780     6.0000     173.58     4.7726
 20.780     6.0000     174.89     4.2496
 20.780     6.0000     175.76     4.0890
 20.780     6.0000     176.20     3.9338
 20.780     6.0000     176.65     3.5702
 21.550     5.2200     40.855    0.63970
 21.550     5.2200     42.633    0.43360
 21.550     5.2200     43.031    0.54777
 21.550     5.2200     45.186    0.54811
 21.550     5.2200     46.918    0.51727
 21.550     5.2200     49.916    0.59330
 21.550     5.2200     54.288    0.37961
 21.550     5.2200     59.484    0.31907
 21.550     5.2200     61.205    0.32550
 21.550     5.2200     64.238    0.28987    0.21716E-01
 21.550     5.2200     66.339    0.42812
 21.550     5.2200     68.055    0.45409
 21.550     5.2200     70.592    0.64514
 21.550     5.2200     72.288    0.78418
 21.550     5.2200     74.443    0.78466
 21.550     5.2200     76.576    0.91747
 21.550     5.2200     78.739    0.86595
 21.550     5.2200     81.352    0.71328
 21.550     5.2200     83.537    0.57613
 21.550     5.2200     84.385    0.63519
 21.550     5.2200     85.741    0.40607
 21.550     5.2200     87.513    0.28617
 21.550     5.2200     89.685    0.25477
 21.550     5.2200     91.422    0.23126
 21.550     5.2200     93.593    0.20589
 21.550     5.2200     103.40    0.44984
 21.550     5.2200     105.98    0.46804    0.57994E-01
 21.550     5.2200     107.71    0.43319
 21.550     5.2200     109.46    0.35673
 21.550     5.2200     111.67    0.24183
 21.550     5.2200     112.08    0.28817
 21.550     5.2200     113.42    0.20306
 21.550     5.2200     116.01    0.19545
 21.550     5.2200     118.14    0.23302
 21.550     5.2200     120.29    0.24242
 21.550     5.2200     122.40    0.33122
 21.550     5.2200     123.65    0.47040
 21.550     5.2200     124.92    0.52889
 21.550     5.2200     127.08    0.53961
 21.550     5.2200     128.78    0.63087
 21.550     5.2200     130.91    0.72342
 21.550     5.2200     131.36    0.65640
 21.550     5.2200     133.06    0.76740
 21.550     5.2200     134.77    0.84627
 21.550     5.2200     136.47     1.0088    0.10314
 21.550     5.2200     138.20    0.97078
 21.550     5.2200     140.33     1.1351
 21.550     5.2200     142.04     1.2517
 21.550     5.2200     145.03     1.5520
 21.550     5.2200     146.75     1.5528
 21.550     5.2200     148.49     1.3823
 21.550     5.2200     150.64     1.4380
 21.550     5.2200     151.95     1.3051
 21.550     5.2200     154.53     1.3579
 21.550     5.2200     156.26     1.2815
 21.550     5.2200     157.97     1.4410
 21.550     5.2200     159.65     1.9307
 21.550     5.2200     161.34     2.4400
 21.550     5.2200     162.64     2.3477
 21.550     5.2200     166.94     2.4919    0.30877
 21.550     5.2200     168.24     2.3514
 21.550     5.2200     169.52     2.6957
 21.550     5.2200     172.16     1.7924
 21.550     5.2200     173.92     1.3655
 21.550     6.0000     31.746     5.5234
 21.550     6.0000     34.353     4.6402
 21.550     6.0000     36.542     3.4690
 21.550     6.0000     37.823     3.8241
 21.550     6.0000     38.736     2.4946
 21.550     6.0000     39.135     3.2746
 21.550     6.0000     41.359     1.8292    0.51451
 21.550     6.0000     43.117     1.3674
 21.550     6.0000     44.845     1.3158
 21.550     6.0000     57.857    0.65583
 21.550     6.0000     59.505     1.2457
 21.550     6.0000     62.096     1.1990    0.96888E-01
 21.550     6.0000     65.154    0.84575
 21.550     6.0000     66.924    0.57368
 21.550     6.0000     68.249    0.43720
 21.550     6.0000     70.849    0.38934    0.56718E-01
 21.550     6.0000     72.994    0.42102
 21.550     6.0000     75.126    0.51157
 21.550     6.0000     77.269    0.56405
 21.550     6.0000     79.392    0.74074
 21.550     6.0000     82.409    0.74128
 21.550     6.0000     83.690    0.81715
 21.550     6.0000     85.864    0.69989
 21.550     6.0000     88.459    0.64796
 21.550     6.0000     90.636    0.53383
 21.550     6.0000     92.810    0.45722
 21.550     6.0000     94.978    0.40712
 21.550     6.0000     96.723    0.34195    0.20523E-01
 21.550     6.0000     98.426    0.40746
 21.550     6.0000     100.56    0.47622
 21.550     6.0000     102.69    0.58999
 21.550     6.0000     105.24    0.79009
 21.550     6.0000     119.49    0.64026
 21.550     6.0000     122.10    0.50743
 21.550     6.0000     123.84    0.46968
 21.550     6.0000     125.95    0.67974
 21.550     6.0000     127.66    0.74939
 21.550     6.0000     129.38    0.81029
 21.550     6.0000     131.50     1.0436    0.10647
 21.550     6.0000     133.64     1.1733
 21.550     6.0000     135.36     1.2686
 21.550     6.0000     136.21     1.3450
 21.550     6.0000     138.35     1.5720
 21.550     6.0000     140.50     1.6351
 21.550     6.0000     142.67     1.4560
 21.550     6.0000     145.26     1.3480
 21.550     6.0000     147.85     1.3488
 21.550     6.0000     149.15     1.2728
 21.550     6.0000     150.43     1.3496
 21.550     6.0000     151.28     1.4876
 21.550     6.0000     153.02     1.3505    0.28084
 21.550     6.0000     155.16     1.5480
 21.550     6.0000     156.46     1.4327
 21.550     6.0000     158.17     1.5491
 21.550     6.0000     159.46     1.6110
 21.550     6.0000     161.19     1.5503    0.34601
 21.550     6.0000     162.92     1.5211
 21.550     6.0000     167.26     1.1828
 21.550     6.0000     168.53     1.3555
 21.550     6.0000     169.38     1.4941
 21.550     6.0000     172.02    0.95630
 21.550     6.0000     173.77    0.77262    0.26872
ENDDATA            312
ENDSUBENT          326
SUBENT        F0646003   20031008   20040322
BIB                  3          7
REACTION   (12-MG-24(A,INL)12-MG-24,PAR,DA,,AV)
           The energy average of the angular distributions.
ERR-ANALYS (ANG-ERR-D)  Digitizing error
           (ERR-DIG)   Digitizing error
           (DATA-ERR1)  Errors from the graphic bars  which are
           due to energy averaging over nine distributions.
STATUS     (CURVE)Fig. 2
ENDBIB               7
COMMON               3          3
EN         ANG-ERR-D  ERR-DIG
MEV        ADEG       PER-CENT
 20.0       0.3        0.2
ENDCOMMON            3
DATA                 4        151
E-LVL      ANG-CM     DATA-CM    DATA-ERR1
MEV        ADEG       MB/SR      MB/SR
 5.2200     20.660     3.0944    0.38248
 5.2200     22.785     2.6995    0.24984
 5.2200     24.920     2.5452    0.19026
 5.2200     26.639     2.6448    0.33622
 5.2200     28.735     1.8634    0.39947
 5.2200     38.597     1.9320    0.81046
 5.2200     41.129     1.4427    0.37868
 5.2200     42.838     1.3871    0.28839
 5.2200     44.935    0.97725    0.18800
 5.2200     46.690     1.3328    0.35614
 5.2200     48.825     1.2566    0.31761
 5.2200     50.980     1.3840    0.42711
 5.2200     52.671     1.1615    0.27650
 5.2200     54.788    0.95589    0.18389
 5.2200     56.926    0.91894    0.17678
 5.2200     59.030    0.68628    0.11000
 5.2200     60.788    0.95433    0.20459
 5.2200     62.912    0.83253    0.14697
 5.2200     65.058    0.84836    0.20208
 5.2200     67.226     1.0296    0.19668
 5.2200     69.343    0.84738    0.23823
 5.2200     71.057    0.84698    0.30871
 5.2200     73.223     1.0082    0.14683
 5.2200     75.327    0.75293    0.93065E-01
 5.2200     77.041    0.75258    0.10831
 5.2200     78.742    0.68261    0.99416E-01
 5.2200     81.298    0.60710    0.11679
 5.2200     83.436    0.58362    0.74194E-01
 5.2200     85.566    0.52930    0.11005
 5.2200     87.659    0.36574    0.87172E-01
 5.2200     89.435    0.58267    0.14727
 5.2200     91.593    0.65431    0.13604
 5.2200     93.746    0.70676    0.15152
 5.2200     95.486    0.85788    0.12346
 5.2200     97.621    0.80885    0.99976E-01
 5.2200     99.779    0.90830    0.99918E-01
 5.2200     101.94     1.0200    0.16359
 5.2200     103.62    0.79200    0.13314
 5.2200     105.78    0.92460    0.26559
 5.2200     107.93    0.99872    0.26215
 5.2200     110.06    0.88834    0.25517
 5.2200     111.77    0.85409    0.12439
 5.2200     114.34    0.82098    0.11807
 5.2200     116.03    0.71628    0.11488
 5.2200     118.18    0.74422    0.94609E-01
 5.2200     119.88    0.64930    0.71427E-01
 5.2200     122.46    0.68778    0.13138
 5.2200     124.18    0.75758    0.10903
 5.2200     126.78    0.95576    0.13755
 5.2200     128.49    0.91891    0.16222
 5.2200     130.66     1.0728    0.99285E-01
 5.2200     132.41     1.4073    0.29260
 5.2200     134.54     1.3269    0.27588
 5.2200     136.70     1.4614    0.34794
 5.2200     138.83     1.3254    0.29575
 5.2200     140.98     1.4597    0.28081
 5.2200     143.11     1.3498    0.23828
 5.2200     145.24     1.1549    0.14681
 5.2200     147.39     1.2474    0.17953
 5.2200     149.10     1.2469    0.13716
 5.2200     151.26     1.4276    0.14560
 5.2200     153.00     1.6348    0.20782
 5.2200     155.16     1.9085    0.27795
 5.2200     156.89     2.1434    0.31216
 5.2200     159.05     2.5513    0.40919
 5.2200     161.22     3.0369    0.38607
 5.2200     162.93     3.0355    0.48684
 5.2200     165.09     3.3431    0.59018
 5.2200     167.21     2.9164    0.41972
 5.2200     168.91     2.4956    0.48008
 5.2200     171.06     2.6956    0.43233
 5.2200     173.15     1.7234    0.43558
 5.2200     175.25     1.3381    0.19257
 5.2200     177.32    0.74672    0.15525
 5.2200     179.40    0.45038    0.12666
 6.0000     21.030     7.6983    0.30521
 6.0000     22.697     5.2162     1.7661
 6.0000     24.871     6.7124    0.97852
 6.0000     26.976     4.9154     1.0548
 6.0000     28.711     5.8528    0.85320
 6.0000     30.851     5.7370    0.83633
 6.0000     32.999     5.9613    0.73752
 6.0000     35.146     6.1944    0.46343
 6.0000     36.818     4.3635    0.90793
 6.0000     38.953     4.1141    0.50899
 6.0000     41.110     4.6207    0.88960
 6.0000     43.208     3.1920    0.39490
 6.0000     45.365     3.5850    0.39469
 6.0000     47.555     5.2858    0.20956
 6.0000     55.542     1.4622    0.34840
 6.0000     57.227     1.1574    0.16873
 6.0000     59.815     1.3253    0.19320
 6.0000     61.560     1.7057    0.17412
 6.0000     63.710     1.8071    0.16739
 6.0000     65.424     1.8064    0.13514
 6.0000     67.564     1.7707    0.18075
 6.0000     69.728     2.1081    0.17047
 6.0000     71.411     1.6366    0.26270
 6.0000     73.987     1.7004    0.18721
 6.0000     75.701     1.6997    0.18713
 6.0000     77.844     1.6988    0.21614
 6.0000     79.980     1.6017    0.23070
 6.0000     81.677     1.3973    0.17287
 6.0000     83.813     1.3174    0.13449
 6.0000     85.930     1.0632    0.85978E-01
 6.0000     88.061    0.96423    0.98432E-01
 6.0000     89.772    0.94526    0.76439E-01
 6.0000     91.915    0.94476    0.76398E-01
 6.0000     94.062    0.98169    0.14311
 6.0000     96.224     1.1463    0.11702
 6.0000     98.397     1.4751    0.13663
 6.0000     100.56     1.6892    0.21492
 6.0000     102.70     1.6883    0.18588
 6.0000     104.42     1.8599    0.17227
 6.0000     106.58     2.1298    0.12066
 6.0000     108.70     1.6858    0.21448
 6.0000     110.40     1.4707    0.28327
 6.0000     112.96     1.3598    0.24024
 6.0000     114.66     1.1863    0.19041
 6.0000     116.81     1.2568    0.18103
 6.0000     118.96     1.3844    0.83141E-01
 6.0000     120.65     1.0959    0.21099
 6.0000     123.22     1.1167    0.23235
 6.0000     124.92     1.0128    0.14588
 6.0000     127.10     1.3289    0.19373
 6.0000     129.26     1.5822    0.19574
 6.0000     131.41     1.7092    0.27435
 6.0000     133.15     2.1158    0.26176
 6.0000     135.75     2.6186    0.46265
 6.0000     137.47     2.6689    0.27245
 6.0000     139.61     2.6675    0.29368
 6.0000     141.74     2.5150    0.31998
 6.0000     143.89     2.6646    0.33902
 6.0000     146.05     2.9927    0.37025
 6.0000     147.74     2.3690    0.24183
 6.0000     149.90     2.7129    0.27694
 6.0000     151.61     2.7117    0.27682
 6.0000     153.76     2.7635    0.22347
 6.0000     155.50     3.4209    0.43524
 6.0000     157.64     3.3533    0.20138
 6.0000     159.78     3.4173    0.20523
 6.0000     161.93     3.6916    0.22170
 6.0000     164.08     3.9113    0.15507
 6.0000     165.80     3.9863    0.40694
 6.0000     167.94     4.0624    0.41471
 6.0000     169.64     3.5441    0.39019
 6.0000     171.81     4.3867    0.70413
 6.0000     173.93     3.6806    0.46829
 6.0000     176.08     3.9762    0.50589
 6.0000     178.22     3.7489    0.66234
 6.0000     179.93     3.6044    0.85883
ENDDATA            153
ENDSUBENT          169
ENDENTRY             3
