ENTRY            F0659   20120410   20121218   20121205       F047
SUBENT        F0659001   20120410   20121218   20121205       F047
BIB                 10         16
TITLE      Investigation of the Mg-24(a,g)Si-28 reaction and of
           some Al-27(p,g)Si-28 resonances.
AUTHOR     (P.J.M.Smulders,P.M.Endt)
INSTITUTE  (2NEDUTR)
REFERENCE  (J,PHY,28,1093,1962)
FACILITY   (VDG,2NEDUTR) The current, varying between 3 and
           8 microA, was largest at the higher energies.
DETECTOR   (NAICR) NaI scintillation crystals were 10 cm long and
           10 cm in diameter.
METHOD     (GSPEC)
MONITOR    (6-C-13(A,N)8-O-16,,DA)
MONIT-REF  (,R.M.Williamson+,J,PR,117,1325,1960)
HISTORY    (20040604C)
           (20120410A) REACTION code in Sub 002,007 were changed,
           COMMON in Sub 002,007 were added. Sample description in
           Sub 002-004 was corrected.
ENDBIB              16
NOCOMMON             0          0
ENDSUBENT           19
SUBENT        F0659002   20120410   20121218   20121205       F047
BIB                  6         22
REACTION   (12-MG-24(A,G)14-SI-28,PAR,DA,,REL)
INC-SOURCE Singly charged helium ions.
SAMPLE     Targets have been used of natural magnesium, and of
           enriched Mg-24, both evaporated onto copper backings.
           Three different targets were used for different alpha
           energy ranges. For E < 3.1 MeV an enriched Mg-24
           target of 15 mu-g/cm2 was used; for E > 3.1 Mev the
           target was natural Mg of 5 mu-g/cm2 thickness; in the
           energy range of approximately from 2.7 Mev to 2.93 MeV
           a natural Mg target of about 3 mu-g/cm2 thickness was
           used.
DETECTOR   (NAICR) NaI crystal was used to detect high-energy
           gamma radiation. It was placed as close to the target
           as possible.
           Alpha particle energy was determined with 90 degree
           deflecting magnet, in which the orbit radius amounted
           to 31 cm. The magnetic field was measured with a Li-7
           magnetic resonance fluxmeter.
           400-channel pulse analyser
ERR-ANALYS (EN-ERR-DIG) Energy digitizing error
           (ERR-DIG)    Data digitizing error
STATUS     (CURVE) Fig.2
ENDBIB              22
COMMON               5          3
E-MIN      E-MAX      ANG        EN-ERR-DIG ERR-DIG
MEV        MEV        ADEG       MEV        ARB-UNITS
  8.         13.        0.         0.002      0.4
ENDCOMMON            3
DATA                 2        382
EN         DATA
MEV        ARB-UNITS
     1.2021    0.82958
     1.2063     1.7168
     1.2120     3.4973
     1.2164     10.210
     1.2221     10.646
     1.2263     6.6042
     1.2319     4.3516
     1.2419     6.1231
     1.2475     4.3187
     1.2517    0.72477
     1.2560     2.5082
     1.2617     4.2887
     1.2660     6.0722
     1.2744     1.1250
     1.2787     2.9084
     1.2844     3.7927
     1.2901     6.0213
     1.2929     2.4304
     1.3014     2.4124
     1.3085     2.8456
     1.3128     5.0771
     1.3199     5.9584
     1.3269     2.8066
     1.3340     2.3435
     1.3398     7.2608
     1.3454     3.6639
     1.3526     9.4745
     1.3552     1.4024
     1.3583     10.359
     1.3653     6.3107
     1.3723     4.5033
     1.3780     6.2837
     1.3866     6.7139
     1.3894     4.9154
     1.3965     7.5892
     1.4035     3.0930
     1.4092     5.3216
     1.4149     7.1021
     1.4234     3.4992
     1.4291     5.2797
     1.4361     2.1279
     1.4418     5.2528
     1.4502    0.14257
     1.4560     3.8785
     1.4645     3.8605
     1.4701     1.1598
     1.4772     1.1449
     1.4815     1.5840
     1.4872     3.8126
     1.4929     5.5931
     1.4983     1.1099
     1.5046     2.4425
     1.5126     4.2203
     1.5205     2.8613
     1.5253     7.3337
     1.5295     51.691
     1.5301     9.5654
     1.5329     64.233
     1.5360     59.298
     1.5390     52.122
     1.5439     60.179
     1.5453     53.454
     1.5487     64.651
     1.5518     60.613
     1.5561     42.679
     1.5642     48.042
     1.5701     29.657
     1.5791     11.715
     1.5855     13.496
     1.5932     3.6226
     1.6011     4.9523
     1.6106     6.2790
     1.6154     8.0627
     1.6248     4.4602
     1.6327     6.2380
     1.6406     6.6714
     1.6501     5.3095
     1.6595     4.3957
     1.6658     3.4877
     1.6770     5.7078
     1.6848     3.9006
     1.6944     6.1236
     1.7022     3.4202
     1.7117     2.9545
     1.7196     3.3880
     1.7306    0.23064
     1.7385    0.66410
     1.7495    0.64356
     1.7559     4.2168
     1.7671     7.3330
     1.7733     2.3920
     1.7843    0.57904
     1.7892     5.9476
     1.7928     26.107
     1.7962     36.856
     1.7997     49.845
     1.8011     44.465
     1.8077     54.312
     1.8106     46.688
     1.8169     42.643
     1.8198     34.123
     1.8243     23.360
     1.8289     17.973
     1.8381     5.8567
     1.8461     7.1864
     1.8555     6.2726
     1.8650     5.3587
     1.8697     3.1093
     1.8719     28.649
     1.8733     23.717
     1.8784     38.048
     1.8815     34.457
     1.8892     25.032
     1.8954     22.331
     1.9016     15.150
     1.9061     8.4193
     1.9140     5.7159
     1.9203     3.9117
     1.9282     5.2414
     1.9360     2.5381
     1.9471     3.4138
     1.9503     5.6485
     1.9510     36.568
     1.9516     59.422
     1.9518     68.833
     1.9581     67.925
     1.9625     54.473
     1.9629     71.053
     1.9631     217.59
     1.9640     255.23
     1.9670     250.30
     1.9723     274.94
     1.9780     246.69
     1.9821     216.21
     1.9835     209.04
     1.9883     146.29
     1.9928     133.74
     1.9964     86.675
     2.0063     32.433
     2.0107     20.325
     2.0168     11.351
     2.0351     9.0015
     2.0422     2.7155
     2.0530     2.6969
     2.0639     3.1265
     2.0711     2.6660
     2.0819     2.1993
     2.0911     6.2169
     2.0936     30.860
     2.0945     1.7295
     2.1008     29.951
     2.1008     32.192
     2.1009     35.329
     2.1099     32.625
     2.1187     25.888
     2.1274     14.221
     2.1346     11.072
     2.1417     9.2670
     2.1544     10.590
     2.1652     9.6749
     2.1723     3.3889
     2.1850     7.8484
     2.1921     2.0106
     2.2066     4.6745
     2.2139     6.0065
     2.2266     6.8810
     2.2356     7.3137
     2.2393     10.444
     2.2429     8.6456
     2.2449     16.260
     2.2466     11.776
     2.2539     14.004
     2.2539     16.245
     2.2558     18.931
     2.2611     14.888
     2.2628     9.0597
     2.2665     12.638
     2.2753     5.9012
     2.2862     6.3308
     2.2989     8.5497
     2.3061     6.7449
     2.3168     4.4857
     2.3259     6.7109
     2.3281     21.047
     2.3298     17.011
     2.3354     23.276
     2.3390     20.581
     2.3425     16.542
     2.3477     11.603
     2.3567     8.4507
     2.3605     14.270
     2.3657     6.6428
     2.3695     14.255
     2.3729     8.4229
     2.3783     6.1730
     2.3805     20.061
     2.3822     17.370
     2.3913     19.147
     2.3968     20.482
     2.4039     17.333
     2.4073     8.3641
     2.4145     7.0073
     2.4254     11.918
     2.4325     7.4245
     2.4330     25.349
     2.4333     295.57
     2.4368     291.09
     2.4424     298.25
     2.4458     291.07
     2.4487     263.28
     2.4529     219.36
     2.4587     168.26
     2.4603     97.452
     2.4666     64.728
     2.4729     28.418
     2.4750     10.363
     2.4870     2.2771
     2.4975     12.119
     2.5096     9.4113
     2.5198     10.739
     2.5300     11.171
     2.5462     6.6643
     2.5526     16.961
     2.5543     6.2032
     2.5589     21.433
     2.5593     34.428
     2.5598     48.768
     2.5636     41.591
     2.5699     46.511
     2.5729     137.48
     2.5741     50.986
     2.5743     119.10
     2.5766     128.96
     2.5848     128.50
     2.5867     124.46
     2.5905     115.49
     2.5975     80.974
     2.6009     60.802
     2.6098     21.800
     2.6197     13.269
     2.6236     8.7818
     2.6319     13.250
     2.6329     228.80
     2.6333     241.35
     2.6362     269.58
     2.6403     270.92
     2.6430     291.08
     2.6525     207.26
     2.6564     141.38
     2.6614     107.76
     2.6712     33.802
     2.6769     19.452
     2.6787     12.727
     2.6867     9.5776
     2.6935     28.837
     2.6940     44.073
     2.6977     34.208
     2.6999     49.693
     2.7010     46.986
     2.7019     37.143
     2.7021     45.404
     2.7030     92.472
     2.7037     99.151
     2.7041     81.283
     2.7052     76.793
     2.7064     57.120
     2.7077     39.233
     2.7085     53.909
     2.7087     63.314
     2.7099     73.106
     2.7104     76.665
     2.7110     62.812
     2.7120     52.072
     2.7123     44.044
     2.7131     51.599
     2.7154     37.256
     2.7164     45.381
     2.7166     52.551
     2.7176     37.650
     2.7222     36.858
     2.7281     29.230
     2.7321     26.535
     2.7360     23.391
     2.7417     8.5939
     2.7498     8.5810
     2.7619     5.4247
     2.7701     8.5486
     2.7845     12.559
     2.7945     5.8210
     2.8089     9.3833
     2.8190     9.3671
     2.8312     8.8995
     2.8452    0.85456
     2.8615     1.1136
     2.8686     930.90
     2.8688     375.21
     2.8697     21.163
     2.8788     930.74
     2.8806     881.41
     2.8866     827.54
     2.8920     616.83
     2.8953     374.78
     2.9027     146.12
     2.9045     78.867
     2.9065     60.910
     2.9067     755.52
     2.9086     1320.1
     2.9087     1369.4
     2.9131     1476.9
     2.9173     1512.7
     2.9212     1449.9
     2.9254     3.0073
     2.9259     24.027
     2.9263     331.20
     2.9265     1221.3
     2.9269     418.47
     2.9274     903.34
     2.9281     951.45
     2.9282     963.49
     2.9286     975.48
     2.9293     680.23
     2.9299     481.37
     2.9311     369.77
     2.9319     294.39
     2.9325     185.88
     2.9331     134.60
     2.9333     790.95
     2.9336     83.338
     2.9343     62.178
     2.9347     53.092
     2.9354     65.051
     2.9358     58.976
     2.9366     79.970
     2.9373     85.905
     2.9377     100.91
     2.9384     73.731
     2.9390     73.654
     2.9396     67.554
     2.9400     365.11
     2.9402     61.467
     2.9408     55.367
     2.9418     49.216
     2.9435     190.28
     2.9493     100.56
     2.9533     55.684
     2.9592     6.2937
     2.9694     1.6508
     2.9796     5.9699
     2.9953     471.78
     2.9979     5.6783
     2.9987     252.14
     3.0016     525.46
     3.0096     471.56
     3.0153     345.99
     3.0189     215.97
     3.0247     126.25
     3.0386     9.5116
     3.0488     4.8687
     3.0549     27.177
     3.0652     35.977
     3.0732     22.405
     3.0916     35.557
     3.1017     21.951
     3.1160     21.724
     3.1262     30.525
     3.1363     21.400
     3.1424     7.8599
     3.1547     39.033
     3.1628     25.461
     3.1730     11.855
     3.1812     34.131
     3.1854     83.359
     3.1886     428.37
     3.1906     2274.7
     3.1906     2915.5
     3.1934     2516.6
     3.1948     1692.0
     3.2035     625.32
     3.2083     226.40
     3.2179     73.878
     3.2302     73.684
     3.2361     37.738
ENDDATA            384
ENDSUBENT          415
SUBENT        F0659003   20120410   20121218   20121205       F047
BIB                  7         39
REACTION  1(12-MG-24(A,0),,EN)
          2(12-MG-24(A,0),,J)
          3(12-MG-24(A,0),,PTY)
          4(12-MG-24(A,G),,WID/STR)
INC-SOURCE Singly charged helium ions.
SAMPLE     Targets have been used of natural magnesium, and of
           enriched Mg-24, both evaporated onto copper backings.
           Three different targets were used for different alpha
           energy ranges. For E < 3.1 MeV an enriched Mg-24
           target of 15 mu-g/cm2 was used; for E > 3.1 Mev the
           target was natural Mg of 5 mu-g/cm2 thickness; in the
           energy range of approximately from 2.7 Mev to 2.93 MeV
           a natural Mg target of about 3 mu-g/cm2 thickness was
           used.
DETECTOR   (NAICR) NaI crystal was used to detect high-energy
           gamma radiation. It was placed as close to the target
           as possible.
           Alpha particle energy was determined with 90 degree
           deflecting magnet, in which the orbit radius amounted
           to 31 cm. The magnetic field was measured with a Li7
           magnetic resonance fluxmeter.
           400-channel pulse analyser
ADD-RES    The data obtained from the 24Mg(a,g)28Si reaction were
           compared with the information from the 27Al(p,g)28Si
           and 27Al(p,a)24Mg reactions. From the measured yields
           of these three reactions, the partial widths for a, p
           and g are computed for the most resonance levels.
ERR-ANALYS (DATA-ERR) The errors assigned to the (a,g) resonance
           energies are compounded from:
           a) the contribution, proportional to Ea, resulting
           from the error in the calibration energy;
           b) the error, also taken proportional to Ea, in the
           determination of the low-energy edge of a resonance
           peak;
           c)the estimated error due to magnet saturation.
           The errors in resonance strength might amount to 30%
           at the strong resonances, and up to a factor of two at
           the weakest resonances.
STATUS     (TABLE) Table 2
ENDBIB              39
NOCOMMON             0          0
DATA                 5         20
DATA      1DATA-ERR  1DATA      2DATA      3DATA      4
MEV        MEV        NO-DIM     NO-DIM     EV
      1.529      0.005         1.        -1.       0.11
      1.785      0.006         2.         1.      0.065
      1.865      0.006         3.        -1.       0.05
       1.95      0.006         2.         1.      0.075
      1.964      0.006         1.        -1.        0.3
      2.093      0.006         2.         1.      0.045
      2.234      0.007                            0.025
      2.323      0.006                             0.05
      2.378      0.006                            0.035
      2.435      0.005         2.         1.        0.4
      2.566      0.005         1.        -1.       0.07
       2.58      0.005         3.        -1.       0.18
      2.634      0.005         4.         1.       0.38
      2.692      0.005         2.         1.       0.05
      2.704      0.005                            0.035
      2.869      0.005         2.         1.       1.25
      2.909      0.005         4.         1.         2.
      2.926      0.005                              0.1
      2.998      0.005         4.         1.       0.68
      3.204      0.006         2.         1.        5.7
ENDDATA             22
ENDSUBENT           66
SUBENT        F0659004   20120410   20121218   20121205       F047
BIB                 10         30
REACTION   (12-MG-24(A,G)14-SI-28,PAR,DA,,REL)
INC-SOURCE Singly charged helium ions.
SAMPLE     Targets have been used of natural magnesium, and of
           enriched Mg-24, both evaporated onto copper backings.
           Three different targets were used for different alpha
           energy ranges. For E < 3.1 MeV an enriched Mg-24
           target of 15 mu-g/cm2 was used; for E > 3.1 Mev the
           target was natural Mg of 5 mu-g/cm2 thickness; in the
           energy range of approximately from 2.7 Mev to 2.93 MeV
           a natural Mg target of about 3 mu-g/cm2 thickness was
           used.
DETECTOR   Alpha particle energy was determined with 90 degree
           deflecting magnet, in which the orbit radius amounted
           to 31 cm. The magnetic field was measured with a Li-7
           magnetic resonance fluxmeter.
           (NAICR) Two NaI crystals were used to detect gamma
           radiation.
ANALYSIS   Normalization from least-squares analysis. Background
           has been subtracted.
MONITOR    (14-SI-30(P,G)15-P-31,,DA) Any excentricity of the
           target spot with respect to the center of the counter
           turntable was corrected by calibrating on isotropic
           622 keV resonance.
FLAG       (1.)Distance between target and front of crystal D=10cm
           (2.)Distance between target and front of crystal D=5 cm
MISC-COL   (MISC) Initial abscissa data are given in COS**2.
ERR-ANALYS (MISC-ERR-D) Miscellaneous digitizing error
           (ERR-DIG)    Data digitizing error
           (DATA-ERR)   Error from the graphic bars.
STATUS     (CURVE) Fig.5,6(a,b,c),7(a,b),8(a,b),9(a),10(a,b)
ENDBIB              30
COMMON               2          3
MISC-ERR-D ERR-DIG
NO-DIM     ARB-UNITS
 0.003      7.8
ENDCOMMON            3
DATA                 8         79
E-LVL      EN         EN-ERR     COS        DATA       DATA-ERR
MISC       FLAG
MEV        MEV        KEV        NO-DIM     ARB-UNITS  ARB-UNITS
NO-DIM     NO-DIM
         0.      1.529         5. 7.5570E-02    181.630     19.669
 5.7107E-03         1.
         0.      1.529         5.    0.49535    151.390     17.210
    0.24537         1.
         0.      1.529         5.     0.7061     94.089     16.391
    0.49858         1.
         0.      1.529         5.    0.86539     53.192     13.932
    0.74891         1.
         0.      1.529         5.    0.99999     22.129     13.112
    0.99994         1.
         0.       1.95         6. 3.6040E-02     58.924     16.336
 1.2988E-03         1.
         0.       1.95         6.    0.49756    180.480     22.034
    0.24757         1.
         0.       1.95         6.    0.70842    226.090     21.233
    0.50186         1.
         0.       1.95         6.    0.86541    141.110     21.218
    0.74894         1.
         0.       1.95         6.         1.     70.813     16.322
    1.00000         1.
         0.      1.964         6. 1.6210E-02    153.510     16.755
 2.6288E-04         1.
         0.      1.964         6.    0.49882    138.340     15.957
    0.24882         1.
         0.      1.964         6.    0.86583    106.790     15.159
    0.74967         1.
         0.      1.964         6.    0.99876     37.750     16.749
    0.99753         1.
         0.      2.435         5. 5.5550E-02    120.220     20.488
 3.0855E-03         1.
         0.      2.435         5.    0.49636    719.550     36.930
    0.24637         1.
         0.      2.435         5.    0.70208    929.510     40.976
    0.49291         1.
         0.      2.435         5.    0.86189    762.390     36.828
    0.74286         1.
         0.      2.435         5.         1.    246.760     20.488
    1.00000         1.
         0.      2.566         5. 4.5620E-02    344.050     29.446
 2.0812E-03         1.
         0.      2.566         5.    0.50215    308.160     28.125
    0.25215         1.
         0.      2.566         5.    0.71038    226.760     26.786
    0.50464         1.
         0.      2.566         5.    0.74541    152.100     22.754
    0.74541         1.
         0.      2.566         5.         1.     47.930     18.738
    1.00000         1.
         0.      2.869         5. 4.7790E-02    143.960     15.996
 2.2835E-03         1.
         0.      2.869         5.    0.49264 1.0401E+03     52.051
    0.24269         1.
         0.      2.869         5.    0.70444  1.264E+03     43.989
    0.49624         1.
         0.      2.869         5.    0.86649 1.0519E+03     48.052
    0.75081         1.
         0.      2.869         5.         1.    271.880     20.059
    1.00000         1.
         0.      3.204         6. 8.5720E-02    242.250     32.238
 7.3476E-03         1.
         0.      3.204         6.    0.49792 1.5765E+03     56.329
    0.24792         1.
         0.      3.204         6.     0.7002 2.0593E+03     72.389
    0.49028         1.
         0.      3.204         6.    0.86453 1.8348E+03     56.329
    0.74741         1.
         0.      3.204         6.         1.    534.080     40.268
    1.00000         1.
       1.77      1.785         6. 4.7850E-02    729.250     52.777
 2.2902E-03         1.
       1.77      1.785         6.    0.50705 1.0232E+03     56.806
    0.25170         1.
       1.77      1.785         6.    0.70889 1.1954E+03     52.748
    0.50252         1.
       1.77      1.785         6.    0.86187 1.1524E+03     64.949
    0.74282         1.
       1.77      1.785         6.    0.99998    983.820     52.748
    0.99997         1.
       1.77      1.865         6. 5.0270E-02 4.6181E+03
 2.1527E-03         2.
       1.77      1.865         6.    0.49437 4.1037E+03
    0.24440         2.
       1.77      1.865         6.    0.70346 3.6093E+03
    0.49485         2.
       1.77      1.865         6.    0.86565 2.9575E+03
    0.74970         2.
       1.77      1.865         6.         1. 2.4633E+03
    1.00000         2.
       1.77      1.964         6. 3.1730E-02 3.8808E+03     79.515
 1.0067E-03         1.
       1.77      1.964         6.    0.49709 3.9041E+03     79.515
    0.24710         1.
       1.77      1.964         6.    0.70511 3.4502E+03     89.455
    0.49718         1.
       1.77      1.964         6.    0.86257 3.1654E+03    109.330
    0.74402         1.
       1.77      1.964         6.     0.9974 2.8805E+03     99.394
    0.99480         1.
       1.77      2.093         5. 4.7190E-02    249.010     34.540
 2.2265E-03         2.
       1.77      2.093         5.    0.51144    252.030     34.540
    0.26157         2.
       1.77      2.093         5.    0.70793    314.450     34.556
    0.50116         2.
       1.77      2.093         5.    0.86439    444.070     34.540
    0.74717         2.
       1.77      2.093         5.         1.    521.900     30.718
    1.00000         2.
       1.77       2.58         5. 1.0630E-02  1.783E+03     93.672
 1.1299E-04         1.
       1.77       2.58         5.    0.50093 1.5447E+03     98.603
    0.25093         1.
       1.77       2.58         5.    0.70565 1.3162E+03     83.760
    0.49794         1.
       1.77       2.58         5.    0.86828    964.640     88.742
    0.75391         1.
       1.77       2.58         5.     0.9981    824.880     93.725
    0.99620         1.
       1.77      2.634         5. 5.7240E-02 3.7289E+03
 3.2760E-03         1.
       1.77      2.634         5.      0.504 5.3964E+03
    0.25402         1.
       1.77      2.634         5.    0.70379 6.7177E+03
    0.49533         1.
       1.77      2.634         5.    0.86019 6.9176E+03
    0.73992         1.
       1.77      2.634         5.    0.99598 6.4243E+03
    0.99198         1.
       1.77      2.692         5. 2.3930E-02 2.6055E+03     89.794
 5.7271E-04         2.
       1.77      2.692         5.    0.49993 2.3792E+03     65.304
    0.24993         2.
       1.77      2.692         5.    0.70726 2.2428E+03     73.506
    0.50022         2.
       1.77      2.692         5.    0.86884 1.9595E+03     73.468
    0.75488         2.
       1.77      2.692         5.         1.   1.57E+03     73.468
    1.00000         2.
       1.77      2.909         5. 5.2900E-02 6.7211E+04
 2.7986E-03         1.
       1.77      2.909         5.    0.50034 1.0123E+05
    0.25337         1.
       1.77      2.909         5.    0.70499 1.1576E+05
    0.49701         1.
       1.77      2.909         5.     0.8652 1.2868E+05
    0.74857         1.
       1.77      2.909         5.         1. 1.1967E+05
    1.00000         1.
       1.77      2.998         5. 1.5110E-02 2.8378E+03
 2.2822E-04         1.
       1.77      2.998         5.    0.49527 4.3762E+03
    0.24529         1.
       1.77      2.998         5.    0.70612 5.4481E+03
    0.49861         1.
       1.77      2.998         5.    0.86457 5.6275E+03
    0.74748         1.
       1.77      2.998         5.    0.99806 5.3405E+03
    0.99613         1.
ENDDATA            162
ENDSUBENT          201
SUBENT        F0659005   20050526   20050610   20050926       F020
BIB                 12         50
REACTION   (12-MG-24(A,G)14-SI-28,PAR,DA/DA,G/G,REL)
INC-SOURCE Singly charged helium ions.
SAMPLE     Targets have been used of natural magnesium, and of
           enriched 24Mg, both evaporated onto copper backings.
DETECTOR   (NAICR) Two NaI scintillation crystals were 10 cm long
           and 10 cm in diameter. Four standard geometries have
           been used, indicated as I,II,V and VI. One counter
           rotates in a horizontal plane at angles between 0
           degree and 90 degrees with the alpha particle beam.
           The beam being assumed to come horizontally. The
           other counter is fixed perpendicular to the beam,
           either in the horizontal plane (geometries I and II),
           or vertically above the target (geometries V and VI).
           In geometries I and V the first gamma ray of the
           cascade is detected in the rotating counter, in
           geometries II and VI it is detected in the fixed
           counter.
ANALYSIS   Normalization from least-sqaures analysis.Background
           was negligible.
METHOD     (COINC) The coincidence resolving time was 1 microsec.
FLAG       (1.) Detector geometry II was used. Distance between
           target and front of both crystals D was equal to 10 cm.
           (2.) Detector geometry II was used. Distance between
           target and the rotating counter D was equal to 5 cm,
           distance between target and the fixed counter was
           equal to 10 cm.
           (3.) Detector geometry VI was used. Distance between
           target and the fixed counter D was equal to 5 cm,
           distance between target and the rotating counter was
           equal to 10 cm.
           (4.) Detector geometry II was used. Distance between
           target and the fixed counter D was equal to 5 cm,
           distance between target and the rotating counter was
           equal to 10 cm.
           (5.) Detector geometry I was used. Distance between
           target and the fixed counter D was equal to 5 cm,
           distance between target and the rotating counter was
           equal to 10 cm.
MISC-COL   (MISC) Initial abscissa data are given in COS**2.
COMMENT    Angular correlations of the cascade through 28Si.
           ANG1 is for the gamma detected in the fixed counter,
           ANG2 is for the gamma detected in the rotating counter.
           ANG2 is given in COS. The way of gamma detection is
           defined by geometry.
EN-SEC     (E-LVL-INI,14-SI-28)
           (E-LVL-FIN,14-SI-28)
ERR-ANALYS (MISC-ERR-D) Digitizing error
           (ERR-DIG)    Digitizing error
           (DATA-ERR)  Error from the graphic bars
STATUS     (CURVE)Fig.6(d,e,f),7(c,d),8(c,d),9(b,c),10(c,d)
ENDBIB              50
COMMON               5          3
ANG1       E-LVL-INI  E-LVL-FIN  MISC-ERR-D ERR-DIG
ADEG       MEV        MEV        NO-DIM     ARB-UNITS
 90.         1.77       0.0        0.004      0.1
ENDCOMMON            3
DATA                 7         55
EN         EN-ERR     COS        DATA       DATA-ERR   MISC
FLAG
MEV        KEV        NO-DIM     ARB-UNITS  ARB-UNITS  NO-DIM
NO-DIM
 1.7850     6.0000    0.49980     24.203     5.1404    0.24980
 3.0000
 1.7850     6.0000    0.70512     21.165     4.6585    0.49720
 3.0000
 1.7850     6.0000    0.73730     126.20     5.0601    0.54368
 3.0000
 1.7850     6.0000    0.86313     15.154     4.0963    0.74500
 3.0000
 1.7850     6.0000    0.99845     8.1796     3.1324    0.99691
 3.0000
 1.8650     6.0000    0.36260     114.31     3.9208    0.13150
 2.0000
 1.8650     6.0000    0.49724     24.193     4.9023    0.24735
 2.0000
 1.8650     6.0000    0.70346     31.133     5.3924    0.49486
 2.0000
 1.8650     6.0000    0.86502     34.154     6.0773    0.74826
 2.0000
 1.8650     6.0000    0.99895     21.193     4.5102    0.99791
 2.0000
 1.9640     6.0000    0.41554     17.920     3.0689    0.17267
 5.0000
 1.9640     6.0000    0.42120     112.05     3.4695    0.17739
 4.0000
 1.9640     6.0000    0.49627     23.062     4.6571    0.24628
 4.0000
 1.9640     6.0000    0.50314     13.192     3.3671    0.25315
 5.0000
 1.9640     6.0000    0.70585     13.119     3.5639    0.49823
 5.0000
 1.9640     6.0000    0.70652     28.024     5.2530    0.49917
 4.0000
 1.9640     6.0000    0.86850     30.013     5.6508    0.75429
 4.0000
 1.9640     6.0000    0.86997     17.102     4.3570    0.75684
 5.0000
 1.9640     6.0000    0.99870     15.644     3.9599    0.99740
 5.0000
 1.9640     6.0000     1.0000     31.112     5.3521     1.0000
 4.0000
 2.0930     6.0000    0.10470     124.05     4.9818    0.10959
 4.0000
 2.0930     6.0000    0.49572     10.196     3.2064    0.24574
 5.0000
 2.0930     6.0000    0.49575     6.0088     2.3753    0.24577
 4.0000
 2.0930     6.0000    0.70498     7.1868     2.6715    0.49700
 5.0000
 2.0930     6.0000    0.70499    0.99683     1.0727    0.49702
 4.0000
 2.0930     6.0000    0.74080     113.13     3.5881    0.54876
 5.0000
 2.0930     6.0000    0.86326     2.9575     1.8396    0.74521
 4.0000
 2.0930     6.0000    0.86358     10.131     3.2058    0.74577
 5.0000
 2.0930     6.0000    0.99705     14.144     3.7407    0.99410
 5.0000
 2.0930     6.0000    0.99867     13.118     3.4487    0.99734
 4.0000
 2.5800     5.0000    0.48070     16.046     2.5581    0.23104
 1.0000
 2.5800     5.0000    0.50102     21.078     4.4287    0.25102
 1.0000
 2.5800     5.0000    0.70894     30.009     5.4126    0.50264
 1.0000
 2.5800     5.0000    0.86748     17.882     4.2307    0.75253
 1.0000
 2.5800     5.0000    0.99723     14.116     3.8372    0.99448
 1.0000
 2.6340     5.0000    0.13860     157.17     8.2831    0.19086
 1.0000
 2.6340     5.0000    0.49896     49.276     6.8687    0.24896
 1.0000
 2.6340     5.0000    0.70540     28.248     6.0606    0.49759
 1.0000
 2.6340     5.0000    0.86437     41.160     7.2727    0.74713
 1.0000
 2.6340     5.0000    0.99446     61.345     8.0810    0.98896
 1.0000
 2.6920     5.0000    0.49658     19.179     4.4174    0.24659
 4.0000
 2.6920     5.0000    0.65020     127.11     5.0599    0.42273
 4.0000
 2.6920     5.0000    0.70544     10.207     2.9721    0.49764
 4.0000
 2.6920     5.0000    0.86316     17.057     4.0162    0.74505
 4.0000
 2.6920     5.0000    0.99797     26.156     5.0599    0.99595
 4.0000
 2.9090     5.0000    0.49967     59.203     8.0657    0.24967
 1.0000
 2.9090     5.0000    0.65240     1133.1     11.694    0.42562
 1.0000
 2.9090     5.0000    0.70519     45.826     7.6613    0.49729
 1.0000
 2.9090     5.0000    0.86416     98.578     9.6763    0.74677
 1.0000
 2.9090     5.0000    0.99992     136.81     11.695    0.99985
 1.0000
 2.9980     5.0000    0.49373     35.990     5.5997    0.24377
 1.0000
 2.9980     5.0000    0.49440     182.54     9.1996    0.24446
 1.0000
 2.9980     5.0000    0.70466     31.840     6.0021    0.49654
 1.0000
 2.9980     5.0000    0.86390     44.892     6.3997    0.74632
 1.0000
 2.9980     5.0000    0.99717     95.945     10.797    0.99435
 1.0000
ENDDATA            114
ENDSUBENT          173
SUBENT        F0659006   20050526   20050610   20050926       F020
BIB                  6          7
REACTION   (13-AL-27(P,0),,EN)
INC-SOURCE H2+ beam
MONITOR    Calibration of resonace values from 990.8 keV to 992.0
           +-0.5 keV was used.
MONIT-REF  (,I.B.Marion+,J,RMP,33,139,1961)
ERR-ANALYS (DATA-ERR) Errors from table
STATUS     (TABLE)Table 2
ENDBIB               7
NOCOMMON             0          0
DATA                 2          4
DATA       DATA-ERR
KEV        MEV
 202.30    0.90000
 632.10    0.50000
 679.20    0.50000
 731.20    0.50000
ENDDATA              6
ENDSUBENT           18
SUBENT        F0659007   20120410   20121218   20121205       F047
BIB                  7          9
REACTION   (13-AL-27(P,G)14-SI-28,PAR,DA,,REL)
FACILITY   Utrecht 900 kV  cascade generator
INC-SOURCE H2+ beam
CORRECTION Machine-off background was subtracted.
DETECTOR   For measuring proton energy fluxmeter was used.
ERR-ANALYS (EN-ERR-DIG) Energy digitizing error
           (ERR-DIG)    Data digitizing error
           (DATA-ERR)   Error from the graphic bars
STATUS     (CURVE) Fig.11
ENDBIB               9
COMMON               5          3
ANG        E-MIN      E-MAX      EN-ERR-DIG ERR-DIG
ADEG       MEV        MEV        KEV        ARB-UNITS
 0.0         7.5        10.5      0.04       0.4
ENDCOMMON            3
DATA                 3         36
EN         DATA       DATA-ERR
KEV        ARB-UNITS  ARB-UNITS
     199.84     3.8196     5.3435
     200.58     4.5836     4.5802
     201.37     3.8210     5.3435
     202.16     25.959     6.8702
     202.89     34.357     8.3969
     203.74     45.808     7.6335
     204.41     42.755     6.8702
     205.15     61.840     8.3969
     205.88     64.894     9.1603
     206.61     50.391     6.8703
     207.40     58.025     9.1603
     208.13     51.156     8.3969
     208.87     51.920     8.3970
     209.66     56.500     6.1069
     210.39     24.440     6.8702
     211.91     12.991     5.3435
     213.38     3.0380     9.9237
     214.90     9.9405     10.687
     216.43     7.6519     9.9236
     217.84     6.1265     12.214
     219.36      1.429     12.214
     220.88     11.473     10.687
     222.35     11.474     9.9237
     223.08     25.979     12.214
     223.81     75.598     17.557
     224.55     170.25     23.664
     225.28     212.24     23.664
     226.01     261.86     26.718
     226.80     293.92     29.008
     227.59     277.89     27.481
     228.27     267.97     27.481
     229.00     254.23     26.718
     229.74     231.33     24.427
     231.26     127.51     20.611
     232.73     80.186     16.794
     234.25     34.386     15.267
ENDDATA             38
ENDSUBENT           56
ENDENTRY             7
