ENTRY            F0692   20040712   20050610                  F020
SUBENT        F0692001   20040712   20050610                  F020
BIB                  9         13
TITLE      Methodology for resonance depth profiling with target
           tilting applied to the 3.045 MeV 16O(a,a)16O resonance.
AUTHOR     (W.De Coster,B.Brijs,R.Moons,W.Vandervorst)
INSTITUTE  (2BLGLEU)
REFERENCE  (J,NIM/B,79,483,1993)
FACILITY   (ACCEL)A tandem type accelerator NEC 5SDH-2 1.7 MV
           terminal.
METHOD     Target tilting is considered.
SAMPLE     204 A SiO2 film on Si.The sample has negligible surface
           roughness about 1nm (rms).
ERR-ANALYS (EN-ERR-DIG)Digitizing error
           (ERR-DIG)Digitizing error
HISTORY    (20040527C)
ENDBIB              13
NOCOMMON             0          0
ENDSUBENT           16
SUBENT        F0692002   20040712   20050610                  F020
BIB                  2          2
REACTION   (8-O-16(A,EL)8-O-16,,DA,,REL)
STATUS     (CURVE)Fig.2,3
ENDBIB               2
COMMON               2          3
EN-ERR-DIG ERR-DIG
MEV        ARB-UNITS
 0.01        9.42
ENDCOMMON            3
DATA                 3         52
ANG        EN         DATA
ADEG       MEV        ARB-UNITS
 0.0000     3.0155     460.87
 0.0000     3.0229     571.89
 0.0000     3.0279     619.12
 0.0000     3.0326     843.08
 0.0000     3.0352     1019.3
 0.0000     3.0379     1155.3
 0.0000     3.0390     1476.3
 0.0000     3.0409     1644.6
 0.0000     3.0429     2037.8
 0.0000     3.0447     2663.8
 0.0000     3.0465     3089.2
 0.0000     3.0471     3209.5
 0.0000     3.0482     3418.1
 0.0000     3.0490     3225.2
 0.0000     3.0512     2638.5
 0.0000     3.0531     1586.0
 0.0000     3.0550     1007.4
 0.0000     3.0608     347.74
 0.0000     3.0641     186.47
 0.0000     3.0711     136.92
 83.000     3.0136     706.28
 83.000     3.0170     789.13
 83.000     3.0205     880.28
 83.000     3.0240     863.37
 83.000     3.0272     888.04
 83.000     3.0323     995.69
 83.000     3.0390     1352.6
 83.000     3.0400     1427.3
 83.000     3.0410     1560.2
 83.000     3.0419     1659.9
 83.000     3.0469     2116.7
 83.000     3.0478     2266.2
 83.000     3.0481     2341.0
 83.000     3.0502     2980.9
 83.000     3.0514     3255.1
 83.000     3.0535     3388.0
 83.000     3.0550     3562.4
 83.000     3.0568     3819.9
 83.000     3.0605     3819.6
 83.000     3.0615     3794.6
 83.000     3.0633     3678.1
 83.000     3.0666     3561.4
 83.000     3.0683     3461.6
 83.000     3.0700     3320.1
 83.000     3.0729     2771.2
 83.000     3.0753     2613.1
 83.000     3.0754     2737.8
 83.000     3.0785     2105.8
 83.000     3.0823     1432.2
 83.000     3.0852     891.60
 83.000     3.0905     359.16
 83.000     3.0953     109.40
ENDDATA             54
ENDSUBENT           65
ENDENTRY             2
