ENTRY            E0149   20051025   20051109                  E033
SUBENT        E0149001   20051025   20051109                  E033
BIB                  7          8
TITLE      The M1 transition strength from the 3/2- isobaric
           analogue state in 49Sc
AUTHOR     (M.Adachi, H.Taketani)
INSTITUTE  (2JPNTIT) Department of Applied Physics
REFERENCE  (J,JPJ,35,(2),325,197308)
PART-DET   (G)
FACILITY   (VDG,2JPNTIT)
HISTORY    (20050722T) Am + On, Converted from NRDF D0149
ENDBIB               8
NOCOMMON             0          0
ENDSUBENT           11
SUBENT        E0149002   20051025   20051109                  E033
BIB                  6          6
REACTION   (20-CA-48(P,N)21-SC-48,,SPC,,REL)
EN-SEC     (E,G)
INC-SOURCE Beam intensity is 1.0 to 1.5 micro-Ampere.
DETECTOR   (NAICR)
STATUS     (CURVE) Data scanned from Fig.1, p326 in reference
HISTORY    (20050928A) At. Re-digitized
ENDBIB               6
COMMON               1          3
E
KEV
 370.0
ENDCOMMON            3
DATA                 2        126
EN         DATA
MEV        ARB-UNITS
  1.935E+00  1.981E+04
  1.936E+00  1.579E+04
  1.937E+00  1.466E+04
  1.937E+00  1.526E+04
  1.938E+00  1.182E+04
  1.938E+00  1.358E+04
  1.939E+00  1.418E+04
  1.940E+00  1.593E+04
  1.940E+00  2.173E+04
  1.941E+00  2.465E+04
  1.941E+00  2.352E+04
  1.942E+00  2.180E+04
  1.942E+00  1.778E+04
  1.943E+00  1.491E+04
  1.943E+00  1.435E+04
  1.944E+00  1.381E+04
  1.944E+00  1.382E+04
  1.945E+00  1.616E+04
  1.946E+00  1.561E+04
  1.946E+00  1.563E+04
  1.947E+00  1.854E+04
  1.947E+00  2.434E+04
  1.948E+00  4.403E+04
  1.948E+00  6.717E+04
  1.949E+00  8.510E+04
  1.949E+00  9.149E+04
  1.950E+00  8.689E+04
  1.951E+00  7.593E+04
  1.951E+00  6.266E+04
  1.952E+00  4.881E+04
  1.952E+00  3.844E+04
  1.953E+00  2.805E+04
  1.953E+00  2.286E+04
  1.954E+00  1.942E+04
  1.954E+00  1.944E+04
  1.955E+00  2.758E+04
  1.956E+00  3.627E+04
  1.957E+00  4.728E+04
  1.957E+00  6.465E+04
  1.958E+00  8.895E+04
  1.958E+00  1.231E+05
  1.959E+00  1.497E+05
  1.959E+00  1.780E+05
  1.960E+00  1.775E+05
  1.961E+00  1.631E+05
  1.961E+00  1.400E+05
  1.962E+00  1.226E+05
  1.962E+00  1.302E+05
  1.963E+00  1.545E+05
  1.963E+00  1.973E+05
  1.964E+00  2.198E+05
  1.964E+00  2.251E+05
  1.964E+00  2.297E+05
  1.965E+00  2.332E+05
  1.965E+00  2.182E+05
  1.966E+00  1.910E+05
  1.967E+00  1.650E+05
  1.967E+00  1.466E+05
  1.968E+00  1.200E+05
  1.968E+00  1.090E+05
  1.969E+00  9.866E+04
  1.969E+00  9.636E+04
  1.970E+00  9.581E+04
  1.971E+00  9.816E+04
  1.971E+00  1.080E+05
  1.972E+00  1.231E+05
  1.972E+00  1.468E+05
  1.973E+00  1.798E+05
  1.974E+00  2.012E+05
  1.974E+00  2.307E+05
  1.975E+00  2.457E+05
  1.975E+00  2.423E+05
  1.976E+00  2.307E+05
  1.976E+00  2.007E+05
  1.977E+00  1.840E+05
  1.977E+00  1.620E+05
  1.978E+00  1.303E+05
  1.979E+00  1.083E+05
  1.979E+00  8.406E+04
  1.980E+00  7.079E+04
  1.980E+00  7.428E+04
  1.981E+00  9.165E+04
  1.981E+00  1.142E+05
  1.982E+00  1.402E+05
  1.982E+00  1.547E+05
  1.983E+00  1.524E+05
  1.983E+00  1.403E+05
  1.984E+00  1.166E+05
  1.985E+00  9.411E+04
  1.985E+00  7.564E+04
  1.986E+00  6.122E+04
  1.986E+00  5.257E+04
  1.987E+00  4.450E+04
  1.987E+00  4.105E+04
  1.988E+00  3.704E+04
  1.989E+00  3.532E+04
  1.989E+00  3.535E+04
  1.990E+00  3.999E+04
  1.990E+00  5.446E+04
  1.991E+00  7.067E+04
  1.991E+00  8.862E+04
  1.992E+00  9.442E+04
  1.992E+00  9.328E+04
  1.993E+00  8.117E+04
  1.994E+00  6.616E+04
  1.994E+00  5.174E+04
  1.995E+00  4.193E+04
  1.995E+00  4.139E+04
  1.996E+00  4.603E+04
  1.997E+00  4.028E+04
  1.997E+00  4.318E+04
  1.997E+00  4.724E+04
  1.997E+00  4.840E+04
  1.998E+00  5.304E+04
  1.998E+00  5.537E+04
  1.998E+00  5.481E+04
  1.999E+00  4.848E+04
  2.000E+00  3.234E+04
  2.001E+00  2.485E+04
  2.001E+00  2.025E+04
  2.002E+00  1.680E+04
  2.002E+00  1.683E+04
  2.003E+00  1.743E+04
  2.004E+00  1.687E+04
  2.004E+00  1.978E+04
  2.005E+00  1.981E+04
ENDDATA            128
ENDSUBENT          143
SUBENT        E0149003   20051025   20051109                  E033
BIB                  6          6
REACTION   (20-CA-48(P,N)21-SC-48,,SPC,,REL)
EN-SEC     (E,G)
INC-SOURCE Beam intensity is 1.0 to 1.5 micro-Ampere.
DETECTOR   (NAICR)
STATUS     (CURVE) Data scanned from Fig.1, p326 in reference
HISTORY    (20050928A) At. Re-digitized
ENDBIB               6
COMMON               1          3
E
KEV
 779.0
ENDCOMMON            3
DATA                 2        122
EN         DATA
MEV        ARB-UNITS
  1.936E+00  4.759E+03
  1.936E+00  4.766E+03
  1.937E+00  4.773E+03
  1.938E+00  5.066E+03
  1.938E+00  5.072E+03
  1.939E+00  5.078E+03
  1.939E+00  5.083E+03
  1.940E+00  5.088E+03
  1.940E+00  5.384E+03
  1.941E+00  5.388E+03
  1.941E+00  5.107E+03
  1.942E+00  5.115E+03
  1.942E+00  5.119E+03
  1.943E+00  5.125E+03
  1.944E+00  4.844E+03
  1.944E+00  4.851E+03
  1.945E+00  4.856E+03
  1.945E+00  5.725E+03
  1.946E+00  5.729E+03
  1.946E+00  5.450E+03
  1.947E+00  5.456E+03
  1.947E+00  5.747E+03
  1.948E+00  7.479E+03
  1.949E+00  9.782E+03
  1.949E+00  1.266E+04
  1.950E+00  1.295E+04
  1.950E+00  1.296E+04
  1.951E+00  1.096E+04
  1.951E+00  1.010E+04
  1.952E+00  8.381E+03
  1.952E+00  6.952E+03
  1.953E+00  6.957E+03
  1.953E+00  5.526E+03
  1.954E+00  4.957E+03
  1.955E+00  4.965E+03
  1.955E+00  4.394E+03
  1.956E+00  4.976E+03
  1.956E+00  5.269E+03
  1.957E+00  6.136E+03
  1.957E+00  8.442E+03
  1.958E+00  1.362E+04
  1.958E+00  2.052E+04
  1.959E+00  2.684E+04
  1.960E+00  3.231E+04
  1.960E+00  3.289E+04
  1.961E+00  3.060E+04
  1.961E+00  2.486E+04
  1.962E+00  2.056E+04
  1.962E+00  2.315E+04
  1.963E+00  3.465E+04
  1.964E+00  5.534E+04
  1.964E+00  6.885E+04
  1.965E+00  7.689E+04
  1.965E+00  8.265E+04
  1.966E+00  7.806E+04
  1.966E+00  6.916E+04
  1.967E+00  5.997E+04
  1.967E+00  5.365E+04
  1.968E+00  4.475E+04
  1.969E+00  4.189E+04
  1.969E+00  3.988E+04
  1.970E+00  3.903E+04
  1.971E+00  4.163E+04
  1.971E+00  4.795E+04
  1.972E+00  5.657E+04
  1.972E+00  6.865E+04
  1.973E+00  8.819E+04
  1.973E+00  1.066E+05
  1.974E+00  1.250E+05
  1.975E+00  1.345E+05
  1.975E+00  1.345E+05
  1.976E+00  1.284E+05
  1.976E+00  1.170E+05
  1.977E+00  9.944E+04
  1.977E+00  8.766E+04
  1.978E+00  6.957E+04
  1.979E+00  5.579E+04
  1.979E+00  4.373E+04
  1.980E+00  2.994E+04
  1.980E+00  2.880E+04
  1.981E+00  3.340E+04
  1.981E+00  4.030E+04
  1.982E+00  4.864E+04
  1.982E+00  5.181E+04
  1.983E+00  4.951E+04
  1.983E+00  4.464E+04
  1.984E+00  3.602E+04
  1.985E+00  2.885E+04
  1.985E+00  2.541E+04
  1.986E+00  2.110E+04
  1.986E+00  1.996E+04
  1.987E+00  1.767E+04
  1.987E+00  1.767E+04
  1.988E+00  1.653E+04
  1.989E+00  1.711E+04
  1.989E+00  1.741E+04
  1.990E+00  1.999E+04
  1.990E+00  2.546E+04
  1.991E+00  3.322E+04
  1.991E+00  4.041E+04
  1.992E+00  4.329E+04
  1.992E+00  4.215E+04
  1.993E+00  3.526E+04
  1.994E+00  2.866E+04
  1.994E+00  2.119E+04
  1.995E+00  1.574E+04
  1.995E+00  1.575E+04
  1.996E+00  1.776E+04
  1.996E+00  1.547E+04
  1.997E+00  1.577E+04
  1.997E+00  2.008E+04
  1.998E+00  2.152E+04
  1.998E+00  2.124E+04
  2.000E+00  1.120E+04
  2.001E+00  9.199E+03
  2.001E+00  7.193E+03
  2.002E+00  6.340E+03
  2.002E+00  5.770E+03
  2.003E+00  5.489E+03
  2.004E+00  4.633E+03
  2.004E+00  4.639E+03
  2.005E+00  4.646E+03
ENDDATA            124
ENDSUBENT          139
SUBENT        E0149004   20051025   20051109                  E033
BIB                  6          6
REACTION   (20-CA-48(P,G)21-SC-49,,SPC,,REL)
EN-SEC     (E,G)
INC-SOURCE Beam intensity is 1.0 to 1.5 micro-Ampere.
DETECTOR   (NAICR)
STATUS     (CURVE) Data scanned from Fig.1, p326 in reference
HISTORY    (20050928A) At. Re-digitized
ENDBIB               6
COMMON               1          3
E-MIN
MEV
 2.6
ENDCOMMON            3
DATA                 2        125
EN         DATA
MEV        ARB-UNITS
  1.936E+00  2.605E+03
  1.937E+00  2.616E+03
  1.937E+00  2.482E+03
  1.938E+00  2.349E+03
  1.938E+00  2.213E+03
  1.939E+00  2.510E+03
  1.939E+00  2.519E+03
  1.940E+00  2.960E+03
  1.940E+00  3.689E+03
  1.941E+00  3.984E+03
  1.941E+00  3.852E+03
  1.942E+00  3.571E+03
  1.943E+00  3.296E+03
  1.943E+00  3.305E+03
  1.944E+00  3.169E+03
  1.944E+00  3.032E+03
  1.945E+00  3.189E+03
  1.945E+00  3.198E+03
  1.946E+00  3.207E+03
  1.946E+00  3.362E+03
  1.947E+00  3.369E+03
  1.947E+00  4.528E+03
  1.948E+00  5.976E+03
  1.948E+00  8.431E+03
  1.949E+00  1.002E+04
  1.950E+00  1.032E+04
  1.950E+00  9.756E+03
  1.951E+00  8.758E+03
  1.951E+00  7.473E+03
  1.952E+00  6.474E+03
  1.952E+00  5.334E+03
  1.953E+00  4.338E+03
  1.954E+00  3.630E+03
  1.954E+00  3.494E+03
  1.955E+00  3.362E+03
  1.955E+00  3.369E+03
  1.956E+00  4.539E+03
  1.957E+00  5.269E+03
  1.957E+00  6.282E+03
  1.958E+00  8.304E+03
  1.959E+00  1.379E+04
  1.960E+00  1.610E+04
  1.960E+00  1.655E+04
  1.961E+00  1.540E+04
  1.961E+00  1.354E+04
  1.962E+00  1.212E+04
  1.962E+00  1.342E+04
  1.963E+00  1.832E+04
  1.964E+00  2.768E+04
  1.964E+00  3.244E+04
  1.964E+00  3.532E+04
  1.965E+00  3.648E+04
  1.966E+00  3.333E+04
  1.966E+00  2.845E+04
  1.967E+00  2.414E+04
  1.967E+00  2.099E+04
  1.968E+00  1.754E+04
  1.969E+00  1.626E+04
  1.969E+00  1.497E+04
  1.970E+00  1.469E+04
  1.970E+00  1.513E+04
  1.971E+00  1.572E+04
  1.971E+00  1.789E+04
  1.972E+00  2.121E+04
  1.972E+00  2.639E+04
  1.973E+00  3.403E+04
  1.973E+00  4.310E+04
  1.974E+00  5.462E+04
  1.975E+00  5.923E+04
  1.975E+00  5.939E+04
  1.976E+00  5.681E+04
  1.976E+00  5.034E+04
  1.977E+00  4.230E+04
  1.977E+00  3.612E+04
  1.978E+00  2.807E+04
  1.979E+00  2.262E+04
  1.979E+00  1.658E+04
  1.980E+00  1.285E+04
  1.980E+00  1.257E+04
  1.981E+00  1.301E+04
  1.981E+00  1.316E+04
  1.981E+00  1.561E+04
  1.982E+00  1.864E+04
  1.982E+00  1.952E+04
  1.983E+00  1.852E+04
  1.984E+00  1.738E+04
  1.984E+00  1.393E+04
  1.985E+00  1.279E+04
  1.985E+00  9.782E+03
  1.986E+00  8.496E+03
  1.986E+00  7.501E+03
  1.987E+00  7.079E+03
  1.988E+00  6.655E+03
  1.988E+00  6.380E+03
  1.989E+00  6.674E+03
  1.989E+00  6.685E+03
  1.990E+00  7.270E+03
  1.990E+00  8.431E+03
  1.991E+00  1.118E+04
  1.991E+00  1.348E+04
  1.992E+00  1.392E+04
  1.993E+00  1.350E+04
  1.993E+00  1.193E+04
  1.993E+00  1.136E+04
  1.993E+00  1.078E+04
  1.994E+00  9.639E+03
  1.994E+00  8.066E+03
  1.995E+00  6.348E+03
  1.995E+00  6.070E+03
  1.996E+00  6.509E+03
  1.996E+00  5.945E+03
  1.997E+00  6.527E+03
  1.997E+00  7.689E+03
  1.998E+00  7.987E+03
  1.999E+00  7.279E+03
  1.999E+00  6.856E+03
  2.000E+00  5.724E+03
  2.001E+00  4.729E+03
  2.002E+00  4.308E+03
  2.002E+00  4.315E+03
  2.002E+00  3.746E+03
  2.003E+00  3.615E+03
  2.004E+00  3.766E+03
  2.004E+00  3.631E+03
  2.005E+00  3.783E+03
ENDDATA            127
ENDSUBENT          142
SUBENT        E0149005   20051025   20051109                  E033
BIB                  6         28
REL-REF    (N,,M.Adachi+,J,JPJ,35,317,1973)
           Spin and parity taken from this reference
REACTION   (20-CA-48(P,G),PAR,WID)
LEVEL-PROP ((1.)21-SC-49,E-LVL=0.000,SPIN=3.5,PARITY=-1.)
           ((2.)21-SC-49,E-LVL=2.226,SPIN=0.5,PARITY=+1.)
           ((3.)21-SC-49,E-LVL=2.371,SPIN=1.5,PARITY=+1.)
           ((4.)21-SC-49,E-LVL=3.082,SPIN=1.5,PARITY=-1.)
           ((5.)21-SC-49,E-LVL=3.515,SPIN=1.5,PARITY=-1.)
           ((6.)21-SC-49,E-LVL=3.804,SPIN=2.5/3.5,PARITY=-1.)
           ((7.)21-SC-49,E-LVL=4.068,SPIN=2.5,PARITY=-1.)
           ((8.)21-SC-49,E-LVL=4.491,SPIN=0.5/1.5,PARITY=-1.)
           ((9.)21-SC-49,E-LVL=4.736,SPIN=2.5,PARITY=-1.)
           ((10.)21-SC-49,E-LVL=6.306,SPIN=2.5)
           ((11.)21-SC-49,E-LVL=6.504,SPIN=1.5,PARITY=-1.)
           ((12.)21-SC-49,E-LVL=6.728,SPIN=1.5,PARITY=-1.)
           ((13.)21-SC-49,E-LVL=6.984,SPIN=2.5,PARITY=-1.)
           ((14.)21-SC-49,E-LVL=7.062,SPIN=0.5,PARITY=-1.)
           ((15.)21-SC-49,E-LVL=7.192,SPIN=2.5)
           ((16.)21-SC-49,E-LVL=7.226,SPIN=2.5)
DETECTOR   (GELI) To measure gamma rays
ERR-ANALYS The uncertainties on the Gamma(gamma) are dominated by
           the uncertainties on Gamma(n), which sum up to about
           30% in the cases of 1964- and 1975-keV resonances. In
           other three resonances, the uncertainties on the
           Gamma(gamma) are due to the uncertainties on Gamma(n)
           and intensities of gamma rays. The uncertainty on the
           individual Gamma(gamma) ranged from 20 to 100%.
STATUS     (TABLE) Data taken from Table II, p327 in reference
ENDBIB              28
NOCOMMON             0          0
DATA                 5         84
EN-RES     EN-RES-ERR E-LVL-FIN  DATA       LVL-FLAG
KEV        KEV        KEV        MILLI-EV   NO-DIM
 1959.6     0.5        0.0        5.0        1.0
 1959.6     0.5        2226.0     16.0       2.0
 1959.6     0.5        2371.0     25.0       3.0
 1959.6     0.5        3082.0     10.0       4.0
 1959.6     0.5        3515.0     23.0       5.0
 1959.6     0.5        3804.0     22.0       6.0
 1959.6     0.5        3991.0     27.0
 1959.6     0.5        4068.0     25.0       7.0
 1959.6     0.5        4736.0     40.0       9.0
 1959.6     0.5        6306.0     38.0       10.0
 1959.6     0.5        6412.0     71.0
 1959.6     0.5        6504.0     58.0       11.0
 1959.6     0.5        6728.0     87.0       12.0
 1959.6     0.5        6984.0     69.0       13.0
 1959.6     0.5        7062.0     59.0       14.0
 1959.6     0.5        7192.0     58.0       15.0
 1959.6     0.5        7226.0     41.0       16.0
 1964.2     0.7        2226.0     66.0       2.0
 1964.2     0.7        2371.0     36.0       3.0
 1964.2     0.7        3082.0     85.0       4.0
 1964.2     0.7        3515.0     81.0       5.0
 1964.2     0.7        3804.0     63.0       6.0
 1964.2     0.7        3991.0     51.0
 1964.2     0.7        4068.0     156.0      7.0
 1964.2     0.7        4491.0     69.0       8.0
 1964.2     0.7        4736.0     80.0       9.0
 1964.2     0.7        6306.0     71.0       10.0
 1964.2     0.7        6412.0     124.0
 1964.2     0.7        6504.0     196.0      11.0
 1964.2     0.7        6728.0     214.0      12.0
 1964.2     0.7        6984.0     303.0      13.0
 1964.2     0.7        7062.0     160.0      14.0
 1964.2     0.7        7192.0     118.0      15.0
 1964.2     0.7        7226.0     131.0      16.0
 1974.7     0.5        0.0        127.0      1.0
 1974.7     0.5        2226.0     82.0       2.0
 1974.7     0.5        2371.0     59.0       3.0
 1974.7     0.5        3082.0     34.0       4.0
 1974.7     0.5        3515.0     58.0       5.0
 1974.7     0.5        3804.0     146.0      6.0
 1974.7     0.5        3991.0     147.0
 1974.7     0.5        4068.0     259.0      7.0
 1974.7     0.5        4491.0     78.0       8.0
 1974.7     0.5        4736.0     182.0      9.0
 1974.7     0.5        6306.0     67.0       10.0
 1974.7     0.5        6412.0     292.0
 1974.7     0.5        6504.0     538.0      11.0
 1974.7     0.5        6728.0     431.0      12.0
 1974.7     0.5        6984.0     593.0      13.0
 1974.7     0.5        7062.0     331.0      14.0
 1974.7     0.5        7192.0     246.0      15.0
 1974.7     0.5        7226.0     268.0      16.0
 1982.0     0.7        0.0        4.0        1.0
 1982.0     0.7        2226.0     3.0        2.0
 1982.0     0.7        2371.0     4.0        3.0
 1982.0     0.7        3082.0     5.0        4.0
 1982.0     0.7        3515.0     16.0       5.0
 1982.0     0.7        3804.0     16.0       6.0
 1982.0     0.7        3991.0     14.0
 1982.0     0.7        4068.0     39.0       7.0
 1982.0     0.7        4736.0     43.0       9.0
 1982.0     0.7        6306.0     42.0       10.0
 1982.0     0.7        6412.0     55.0
 1982.0     0.7        6504.0     66.0       11.0
 1982.0     0.7        6728.0     64.0       12.0
 1982.0     0.7        6984.0     40.0       13.0
 1982.0     0.7        7062.0     34.0       14.0
 1982.0     0.7        7192.0     28.0       15.0
 1982.0     0.7        7226.0     48.0       16.0
 1991.3     1.0        2226.0     6.0        2.0
 1991.3     1.0        3082.0     28.0       4.0
 1991.3     1.0        3515.0     29.0       5.0
 1991.3     1.0        3804.0     48.0       6.0
 1991.3     1.0        3991.0     34.0
 1991.3     1.0        4068.0     54.0       7.0
 1991.3     1.0        4736.0     30.0       9.0
 1991.3     1.0        6306.0     40.0       10.0
 1991.3     1.0        6412.0     31.0
 1991.3     1.0        6504.0     53.0       11.0
 1991.3     1.0        6728.0     42.0       12.0
 1991.3     1.0        6984.0     36.0       13.0
 1991.3     1.0        7062.0     41.0       14.0
 1991.3     1.0        7192.0     26.0       15.0
 1991.3     1.0        7226.0     42.0       16.0
ENDDATA             86
ENDSUBENT          119
ENDENTRY             5
