ENTRY            14027   20250815   20260115   20260115       1524
SUBENT        14027001   20250815   20260115   20260115       1524
BIB                 13         33
TITLE      Measurements of (n,g) cross sections for very small
           stable and radioactive samples of interest to the s-
           and p-process
AUTHOR     (P.E.Koehler,F.Kappeler)
REFERENCE  (C,94GATLIN,,179,1994)
INSTITUTE  (1USALAS,2GERKFK)
FACILITY   (LINAC,1USALAS) The Los Alamos Neutron Scattering
           Center (LANSCE).
INC-SOURCE Spallation from proton + W.
DETECTOR   (SCIN) A pair of deuterated benzene C6D6 scintillators.
SAMPLE     Both the 191,193Ir samples were highly enriched.
           191Ir and 193Ir were measured using 1 mg and 2 mg
           samples, respectively. The samples consisted of
           metallic powder which had been "super-glued" to 0.8
           microm-thick aluminum backing foils.
METHOD     The gamma-ray yield as a function of energy was
           measured down to thermal energy and the measured
           thermal cross sections were used to normalize the
           yields to absolute cross sections. The total beam
           time was about 1 day for each sample. The experiment
           was performed on flight path 4 at LANSCE to
           demonstrate the feasibility of measurements on very
           small samples.
ERR-ANALYS (DATA-ERR) The uncertainties are 1-sigma in barns.
CORRECTION The data have not been corrected for self shielding
           and multiple scattering. The 191Ir data have been
           corrected for the small amount of 193Ir in the
           enriched 191Ir sample and vice versa.
STATUS     (APRVD) Approved by P.E.Koehler on August 21, 2025.
HISTORY    (20050710C) DR
           (20250815A) BP: Updated INSTITUTE and SAMPLE, added
           METHOD, ERR-ANALYS, CORRECTION, replaced digitized
           data with the original.
ENDBIB              33
NOCOMMON             0          0
ENDSUBENT           36
SUBENT        14027002   20250815   20260115   20260115       1524
BIB                  3          5
REACTION   (77-IR-191(N,G)77-IR-192,,SIG)
HISTORY    (20250815A) BP: Replaced digitized with the original
           data, updated STATUS.
STATUS     (TABLE,,P.E.Koehler+,C,94GATLIN,,179,1994) Fig. - 4
           Data were provided by P.E.Koehler on August 14, 2025.
ENDBIB               5
NOCOMMON             0          0
DATA                 3       3432
EN         DATA       DATA-ERR
EV         B          B
  0.0100159  1503.3298    28.2380
  0.0100440  1460.4763    27.7501
  0.0100723  1510.9636    28.0181
  0.0101007  1517.3318    27.9688
  0.0101293  1528.8219    27.9286
  0.0101579  1512.6566    27.7995
  0.0101867  1471.8796    27.2956
  0.0102156  1495.9354    27.4484
  0.0102446  1489.1469    27.2472
  0.0102737  1496.2521    27.2142
  0.0103030  1514.2809    27.2469
  0.0103324  1470.2355    26.8061
  0.0103619  1485.4706    26.9584
  0.0103916  1467.3308    26.6121
  0.0104214  1485.6381    26.7652
  0.0104513  1474.8472    26.5908
  0.0104813  1507.4919    26.6316
  0.0105114  1447.0458    26.1192
  0.0105417  1499.9512    26.4117
  0.0105722  1481.8176    26.2583
  0.0106027  1462.5680    25.9621
  0.0106334  1454.3778    25.8037
  0.0106642  1446.4840    25.6115
  0.0106952  1501.8931    25.9619
  0.0107263  1457.1844    25.5147
  0.0107575  1423.5779    25.1420
  0.0107888  1470.2001    25.4692
  0.0108203  1455.1169    25.2501
  0.0108520  1456.7974    25.1678
  0.0108838  1468.2443    25.1205
  0.0109157  1442.0151    24.9315
  0.0109477  1467.2963    24.9603
  0.0109799  1408.8290    24.3514
  0.0110123  1471.3538    24.7266
  0.0110448  1457.4333    24.7156
  0.0110774  1464.6292    24.6189
  0.0111102  1447.7310    24.4469
  0.0111431  1438.8800    24.2141
  0.0111761  1471.2721    24.4021
  0.0112093  1448.4014    24.1432
  0.0112427  1444.9553    23.9666
  0.0112762  1438.3436    23.8864
  0.0113099  1456.5134    23.9100
  0.0113437  1428.9054    23.5514
  0.0113776  1434.9525    23.5620
  0.0114118  1441.3743    23.5633
  0.0114460  1454.5642    23.5948
  0.0114804  1412.0203    23.2003
  0.0115150  1433.9426    23.2452
  0.0115498  1436.7435    23.0234
  0.0115847  1404.5421    22.8170
  0.0116197  1465.1814    23.2269
  0.0116549  1423.9154    22.8628
  0.0116903  1416.9580    22.7505
  0.0117258  1398.4420    22.3781
  0.0117615  1382.3829    22.2344
  0.0117974  1446.2943    22.6263
  0.0118334  1466.7451    22.7402
  0.0118696  1383.5466    22.0211
  0.0119059  1394.9412    22.0016
  0.0119424  1399.6234    21.9367
  0.0119791  1387.0548    21.8202
  0.0120160  1429.8707    22.0839
  0.0120530  1411.4069    21.8587
  0.0120902  1386.0247    21.5760
  0.0121276  1367.1848    21.4245
  0.0121651  1389.2390    21.4593
  0.0122028  1417.0349    21.5982
  0.0122407  1411.0073    21.4932
  0.0122788  1386.3535    21.1695
  0.0123171  1388.4110    21.1594
  0.0123555  1381.6694    21.0519
  0.0123941  1370.8766    20.9167
  0.0124329  1381.2229    20.8719
  0.0124719  1378.7166    20.8126
  0.0125110  1369.5858    20.6488
  0.0125504  1350.8542    20.4720
  0.0125899  1355.4474    20.3803
  0.0126296  1327.8003    20.1185
  0.0126695  1294.0011    19.8076
  0.0127096  1343.9434    20.1107
  0.0127499  1266.1858    19.4866
  0.0127903  1308.1471    19.7629
  0.0128310  1301.2587    19.6080
  0.0128719  1343.2932    19.8923
  0.0129129  1309.6808    19.4969
  0.0129542  1346.9667    19.7509
  0.0129956  1343.8580    19.6371
  0.0130373  1342.1938    19.6449
  0.0130791  1317.9025    19.3428
  0.0131212  1348.3864    19.5049
  0.0131634  1326.8009    19.2827
  0.0132059  1327.2968    19.1597
  0.0132486  1298.9670    18.8698
  0.0132914  1294.9261    18.8330
  0.0133345  1290.3060    18.7261
  0.0133778  1341.0890    18.9746
  0.0134213  1324.3528    18.8707
  0.0134650  1313.1987    18.7308
  0.0135090  1347.0723    18.8590
  0.0135531  1297.8705    18.4770
  0.0135975  1301.2717    18.3920
  0.0136421  1297.9719    18.3076
  0.0136869  1279.1259    18.1959
  0.0137319  1272.4877    18.0136
  0.0137771  1250.7531    17.8295
  0.0138226  1259.5078    17.8177
  0.0138683  1310.4374    18.1493
  0.0139142  1253.9171    17.6528
  0.0139603  1307.5149    17.9520
  0.0140067  1329.1451    18.0249
  0.0140533  1278.6976    17.6252
  0.0141002  1278.1034    17.5550
  0.0141472  1279.0767    17.4865
  0.0141946  1285.2426    17.4435
  0.0142421  1266.8411    17.2563
  0.0142899  1289.7113    17.3109
  0.0143379  1267.7578    17.1618
  0.0143862  1282.2472    17.2260
  0.0144347  1257.3207    16.9550
  0.0144835  1282.0454    17.0579
  0.0145325  1286.1472    16.9859
  0.0145818  1263.0265    16.8478
  0.0146313  1250.4316    16.6631
  0.0146810  1268.3474    16.7050
  0.0147310  1252.5465    16.5392
  0.0147813  1277.7273    16.6224
  0.0148318  1265.4071    16.5045
  0.0148826  1267.7566    16.4617
  0.0149337  1275.4961    16.4654
  0.0149850  1269.4272    16.3414
  0.0150366  1261.4598    16.2455
  0.0150884  1258.0133    16.1505
  0.0151406  1236.3884    15.9722
  0.0151929  1253.8398    16.0290
  0.0152456  1254.6730    15.9282
  0.0152985  1251.6116    15.8506
  0.0153517  1265.3132    15.8821
  0.0154052  1257.8300    15.7646
  0.0154590  1234.7987    15.5652
  0.0155130  1242.4305    15.5736
  0.0155674  1220.1975    15.3915
  0.0156220  1246.3646    15.5045
  0.0156769  1230.2565    15.3137
  0.0157321  1236.7191    15.3179
  0.0157876  1233.5709    15.2273
  0.0158434  1219.7268    15.0786
  0.0158995  1214.1787    15.0040
  0.0159558  1235.1068    15.0835
  0.0160125  1226.4390    14.9382
  0.0160695  1216.7831    14.7977
  0.0161268  1232.4254    14.8616
  0.0161844  1219.5199    14.7470
  0.0162423  1226.1000    14.6993
  0.0163005  1236.0774    14.7139
  0.0163590  1205.8917    14.4789
  0.0164179  1236.7983    14.5768
  0.0164770  1210.8868    14.3944
  0.0165365  1195.3402    14.2569
  0.0165963  1212.4835    14.3069
  0.0166564  1195.0411    14.1478
  0.0167169  1186.3131    13.9969
  0.0167777  1209.5437    14.1196
  0.0168388  1192.1064    13.9412
  0.0169002  1214.5811    14.0348
  0.0169620  1199.2566    13.8597
  0.0170242  1196.8993    13.8094
  0.0170866  1172.3163    13.5978
  0.0171494  1189.6670    13.6569
  0.0172126  1167.8138    13.4905
  0.0172761  1164.6213    13.4036
  0.0173400  1152.0963    13.2640
  0.0174042  1183.6677    13.3943
  0.0174688  1167.1316    13.2598
  0.0175337  1151.7162    13.0790
  0.0175990  1148.0854    13.0458
  0.0176647  1161.3727    13.0351
  0.0177307  1151.7161    12.9758
  0.0177971  1135.6176    12.7964
  0.0178639  1149.2673    12.8209
  0.0179310  1150.0240    12.7808
  0.0179986  1112.4680    12.5374
  0.0180665  1136.1423    12.5812
  0.0181348  1132.8009    12.5474
  0.0182035  1136.9778    12.4978
  0.0182725  1133.5135    12.4464
  0.0183420  1126.4156    12.3517
  0.0184119  1127.7058    12.2913
  0.0184822  1101.0809    12.1024
  0.0185528  1106.1167    12.0832
  0.0186239  1110.7810    12.0480
  0.0186954  1099.7474    11.9450
  0.0187673  1105.5024    11.9192
  0.0188396  1095.6609    11.8319
  0.0189123  1120.2268    11.9258
  0.0189855  1081.3907    11.6632
  0.0190591  1093.3008    11.6653
  0.0191331  1113.6951    11.7395
  0.0192075  1120.3779    11.7401
  0.0192824  1106.9075    11.6265
  0.0193577  1085.8861    11.4585
  0.0194335  1081.3364    11.3704
  0.0195097  1091.4995    11.3992
  0.0195864  1093.3423    11.3727
  0.0196635  1098.2329    11.3518
  0.0197410  1061.5140    11.1071
  0.0198190  1061.4156    11.0596
  0.0198975  1079.2766    11.1091
  0.0199765  1042.5234    10.8757
  0.0200559  1069.5129    10.9758
  0.0201358  1066.4725    10.8966
  0.0202162  1061.0931    10.8637
  0.0202970  1077.3826    10.8919
  0.0203784  1054.9536    10.7300
  0.0204602  1067.2825    10.7534
  0.0205426  1048.1760    10.6028
  0.0206254  1053.5830    10.5828
  0.0207087  1062.3948    10.6025
  0.0207926  1060.0447    10.5484
  0.0208769  1055.8945    10.4842
  0.0209618  1066.1366    10.4952
  0.0210471  1043.3732    10.3295
  0.0211330  1048.7297    10.3298
  0.0212195  1039.7689    10.2191
  0.0213064  1035.0723    10.1533
  0.0213939  1024.7836    10.0732
  0.0214820  1043.7612    10.0963
  0.0215705  1023.8603     9.9699
  0.0216597  1043.2772    10.0354
  0.0217493  1033.6394     9.9473
  0.0218396  1030.5170     9.8966
  0.0219304  1039.0522     9.8884
  0.0220218  1017.4385     9.7591
  0.0221137  1018.6556     9.7155
  0.0222062  1023.8274     9.7132
  0.0222993  1006.3459     9.5869
  0.0223930  1011.5248     9.5706
  0.0224873  1013.1466     9.5310
  0.0225822  1018.6782     9.5274
  0.0226776  1005.0486     9.4235
  0.0227737  1025.4548     9.4754
  0.0228704  1008.9159     9.3832
  0.0229677  1011.3042     9.3484
  0.0230657  1007.5555     9.2898
  0.0231642   985.8807     9.1610
  0.0232634   982.0872     9.1096
  0.0233633   987.3225     9.0946
  0.0234638   994.8323     9.0879
  0.0235649   987.5333     9.0161
  0.0236667   992.2418     8.9998
  0.0237691   987.1853     8.9396
  0.0238722   992.9135     8.9297
  0.0239760   968.8932     8.7844
  0.0240805   975.1689     8.7729
  0.0241856   985.9514     8.7982
  0.0242915   973.9398     8.7130
  0.0243980   974.3231     8.6615
  0.0245052   954.5878     8.5393
  0.0246132   969.5027     8.5805
  0.0247218   958.2224     8.4917
  0.0248312   958.2667     8.4678
  0.0249413   945.1257     8.3624
  0.0250522   957.0553     8.3768
  0.0251637   930.3547     8.2183
  0.0252761   934.4656     8.2162
  0.0253892   958.9770     8.2948
  0.0255030   951.4700     8.2270
  0.0256176   944.2910     8.1492
  0.0257330   934.7310     8.0746
  0.0258492   927.3786     8.0162
  0.0259661   936.0518     8.0288
  0.0260839   924.2704     7.9480
  0.0262024   917.0519     7.8749
  0.0263218   936.3350     7.9313
  0.0264420   928.3371     7.8678
  0.0265630   923.7618     7.8124
  0.0266848   927.7033     7.8137
  0.0268075   922.3632     7.7537
  0.0269310   926.2770     7.7430
  0.0270554   918.3116     7.6825
  0.0271807   932.8090     7.7159
  0.0273068   920.3232     7.6350
  0.0274338   915.3662     7.5913
  0.0275617   911.4008     7.5384
  0.0276904   916.0246     7.5232
  0.0278201   923.2803     7.5253
  0.0279507   915.3422     7.4706
  0.0280823   919.9018     7.4606
  0.0282147   910.3019     7.3909
  0.0283481   912.9927     7.3734
  0.0284824   904.1180     7.3116
  0.0286177   902.2018     7.2704
  0.0287540   891.5302     7.1977
  0.0288912   889.9286     7.1553
  0.0290295   885.2036     7.1119
  0.0291687   897.4986     7.1325
  0.0293089   885.9330     7.0610
  0.0294502   870.0686     6.9623
  0.0295924   873.1751     6.9482
  0.0297357   874.1035     6.9256
  0.0298800   869.0985     6.8777
  0.0300254   875.3571     6.8728
  0.0301719   861.3561     6.7940
  0.0303194   863.5876     6.7781
  0.0304680   858.1703     6.7324
  0.0306177   856.2567     6.6922
  0.0307686   851.2389     6.6501
  0.0309205   851.1930     6.6256
  0.0310735   854.9290     6.6304
  0.0312277   841.8176     6.5401
  0.0313831   852.8447     6.5669
  0.0315396   835.8676     6.4652
  0.0316973   838.8818     6.4636
  0.0318562   842.4077     6.4449
  0.0320162   834.2991     6.3949
  0.0321775   835.8698     6.3774
  0.0323400   830.7164     6.3296
  0.0325037   832.3260     6.3161
  0.0326687   830.3047     6.2845
  0.0328350   829.3846     6.2605
  0.0330025   833.5942     6.2564
  0.0331713   823.0696     6.1860
  0.0333414   824.5278     6.1644
  0.0335128   819.9754     6.1260
  0.0336855   820.4401     6.1169
  0.0338596   819.6575     6.0827
  0.0340350   815.0714     6.0417
  0.0342118   811.6882     6.0050
  0.0343899   804.2133     5.9525
  0.0345695   804.5088     5.9321
  0.0347505   798.7411     5.8896
  0.0349329   805.6135     5.8941
  0.0351167   802.4323     5.8594
  0.0353020   794.9583     5.8131
  0.0354888   808.6159     5.8445
  0.0356770   798.1792     5.7807
  0.0358668   792.6920     5.7404
  0.0360581   796.4651     5.7341
  0.0362509   790.8401     5.6927
  0.0364452   799.9788     5.7149
  0.0366412   788.4799     5.6484
  0.0368387   780.3739     5.5921
  0.0370378   782.2247     5.5793
  0.0372385   782.6243     5.5607
  0.0374409   781.7051     5.5367
  0.0376449   783.5798     5.5249
  0.0378506   767.9198     5.4519
  0.0380580   777.6162     5.4711
  0.0382671   778.0257     5.4503
  0.0384779   771.9330     5.4040
  0.0386904   761.0735     5.3453
  0.0389048   764.7314     5.3401
  0.0391209   763.2783     5.3145
  0.0393388   759.7184     5.2859
  0.0395586   757.9514     5.2566
  0.0397802   755.0255     5.2280
  0.0400036   763.3966     5.2390
  0.0402290   740.8658     5.1358
  0.0404562   747.0102     5.1420
  0.0406854   736.0549     5.0828
  0.0409166   742.1017     5.0847
  0.0411497   737.0511     5.0499
  0.0413848   741.2761     5.0491
  0.0416220   741.5256     5.0373
  0.0418611   726.5187     4.9686
  0.0421024   727.6594     4.9578
  0.0423457   725.4706     4.9368
  0.0425912   722.1855     4.9082
  0.0428388   716.2231     4.8674
  0.0430886   723.7018     4.8911
  0.0433405   715.4418     4.8401
  0.0435947   719.9228     4.8411
  0.0438511   707.5961     4.7834
  0.0441098   707.3506     4.7662
  0.0443708   705.5778     4.7483
  0.0446341   706.0740     4.7331
  0.0448997   704.7355     4.7186
  0.0451678   704.1193     4.7007
  0.0454382   696.9127     4.6588
  0.0457111   694.7893     4.6404
  0.0459864   690.5219     4.6088
  0.0462642   688.7437     4.5903
  0.0465446   685.0773     4.5649
  0.0468275   683.1398     4.5392
  0.0471130   682.5861     4.5255
  0.0474012   676.0555     4.4829
  0.0476919   678.3842     4.4822
  0.0479854   678.9482     4.4699
  0.0482816   677.6744     4.4574
  0.0485805   671.9048     4.4253
  0.0488822   666.5188     4.3978
  0.0491867   672.4168     4.4097
  0.0494941   669.4470     4.3940
  0.0498044   666.2755     4.3701
  0.0501176   664.9489     4.3592
  0.0504338   662.7924     4.3406
  0.0507529   659.6382     4.3163
  0.0510751   658.6475     4.3036
  0.0514004   656.7268     4.2930
  0.0517288   652.4688     4.2645
  0.0520604   655.8232     4.2709
  0.0523951   647.4780     4.2294
  0.0527331   643.1675     4.2041
  0.0530744   636.3478     4.1709
  0.0534190   636.5098     4.1650
  0.0537670   636.1457     4.1542
  0.0541184   626.4172     4.1073
  0.0544732   632.5416     4.1204
  0.0548315   625.3480     4.0851
  0.0551934   623.8308     4.0735
  0.0555589   626.6241     4.0702
  0.0559280   616.9113     4.0295
  0.0563008   623.4506     4.0473
  0.0566774   613.5594     4.0067
  0.0570577   622.3619     4.0330
  0.0574419   617.8730     4.0096
  0.0578300   606.6874     3.9637
  0.0582220   606.7051     3.9599
  0.0586181   611.9373     3.9734
  0.0590181   604.8997     3.9424
  0.0594223   609.9558     3.9572
  0.0598307   604.1604     3.9300
  0.0602433   603.6608     3.9222
  0.0606601   598.0976     3.8981
  0.0610813   593.7611     3.8773
  0.0615069   593.6604     3.8710
  0.0619370   590.1376     3.8570
  0.0623716   587.0356     3.8359
  0.0628108   590.9669     3.8463
  0.0632546   582.9446     3.8112
  0.0637032   580.9171     3.8011
  0.0641565   577.8301     3.7840
  0.0646147   576.9708     3.7729
  0.0650779   575.4556     3.7652
  0.0655460   575.5092     3.7627
  0.0660192   561.2543     3.7089
  0.0664975   567.6472     3.7313
  0.0669811   564.9647     3.7189
  0.0674699   557.9514     3.6926
  0.0679642   561.3359     3.7029
  0.0684639   561.0512     3.7037
  0.0689691   562.7457     3.7085
  0.0694799   556.6125     3.6834
  0.0699964   547.8980     3.6529
  0.0705187   551.7724     3.6675
  0.0710469   540.7344     3.6249
  0.0715810   549.6743     3.6544
  0.0721211   539.7079     3.6184
  0.0726674   543.6569     3.6331
  0.0732200   538.6839     3.6153
  0.0737788   531.0740     3.5838
  0.0743441   533.6242     3.5927
  0.0749159   531.1874     3.5830
  0.0754944   524.0857     3.5540
  0.0760795   528.8590     3.5731
  0.0766715   515.3257     3.5202
  0.0772704   521.9879     3.5505
  0.0778764   517.3792     3.5384
  0.0784895   515.0179     3.5338
  0.0791099   515.8401     3.5391
  0.0797376   509.8306     3.5247
  0.0803729   510.6679     3.5292
  0.0810158   508.1208     3.5241
  0.0816665   506.1060     3.5227
  0.0823250   504.3969     3.5218
  0.0829915   504.3710     3.5269
  0.0836661   499.4290     3.5107
  0.0843490   498.7045     3.5109
  0.0850403   493.9024     3.4980
  0.0857401   493.3508     3.5011
  0.0864486   491.2084     3.4970
  0.0871660   488.4005     3.4887
  0.0878922   481.1491     3.4642
  0.0886276   486.4028     3.4934
  0.0893723   477.1802     3.4585
  0.0901264   478.0475     3.4706
  0.0908901   475.8738     3.4720
  0.0916635   472.8309     3.4652
  0.0924468   471.6601     3.4672
  0.0932403   466.8869     3.4587
  0.0940439   466.6513     3.4583
  0.0948581   458.2567     3.4346
  0.0956828   459.5580     3.4509
  0.0965183   461.6042     3.4658
  0.0973648   457.4157     3.4534
  0.0982226   453.6019     3.4538
  0.0990917   447.3536     3.4306
  0.0999723   450.0698     3.4499
  0.1008648   445.6313     3.4381
  0.1017693   438.8246     3.4191
  0.1026860   443.5127     3.4493
  0.1036152   439.5503     3.4402
  0.1045570   444.4028     3.4702
  0.1055117   435.7071     3.4423
  0.1064795   434.4704     3.4555
  0.1074607   432.1103     3.4497
  0.1084556   433.5573     3.4700
  0.1094644   426.2235     3.4487
  0.1104872   422.1202     3.4414
  0.1115245   429.0917     3.4881
  0.1125764   426.9464     3.4869
  0.1136433   425.6775     3.4956
  0.1147255   413.4295     3.4497
  0.1158232   413.0916     3.4573
  0.1169367   413.0635     3.4793
  0.1180663   405.5670     3.4536
  0.1192124   407.7910     3.4772
  0.1203753   404.5791     3.4756
  0.1215552   405.0741     3.4904
  0.1227526   402.0485     3.4897
  0.1239678   401.2417     3.5030
  0.1252011   395.7044     3.4898
  0.1264529   393.1762     3.4928
  0.1277236   391.6521     3.4916
  0.1290135   396.8855     3.5304
  0.1303230   389.5401     3.5082
  0.1316526   384.6554     3.5006
  0.1330027   386.1883     3.5255
  0.1343736   376.9657     3.4901
  0.1357658   380.3989     3.5225
  0.1371798   378.2703     3.5255
  0.1386160   377.3966     3.5395
  0.1400749   379.1529     3.5655
  0.1415569   372.2556     3.5474
  0.1430625   372.7278     3.5639
  0.1445923   368.9927     3.5515
  0.1461468   371.2541     3.5786
  0.1477265   368.5122     3.5751
  0.1493319   362.1683     3.5531
  0.1509637   367.0249     3.5970
  0.1526223   365.0207     3.5993
  0.1543084   363.1413     3.6036
  0.1560227   360.6037     3.5961
  0.1577656   356.0912     3.5911
  0.1595379   357.2073     3.6069
  0.1613403   353.3833     3.6034
  0.1631733   350.9662     3.5995
  0.1650378   353.0202     3.6217
  0.1669344   348.9307     3.6148
  0.1688639   346.2625     3.6107
  0.1708271   345.3382     3.6131
  0.1728247   346.3840     3.6291
  0.1748575   340.6386     3.6068
  0.1769264   341.4005     3.6060
  0.1790322   335.9467     3.5870
  0.1811759   333.5089     3.5792
  0.1833583   340.6346     3.6308
  0.1855804   335.2582     3.6067
  0.1878431   338.5921     3.6308
  0.1901474   331.3851     3.6057
  0.1924945   333.3199     3.6188
  0.1948852   328.7940     3.6042
  0.1973207   327.7202     3.5962
  0.1998022   321.8759     3.5765
  0.2023308   324.7755     3.5909
  0.2049077   328.8437     3.6157
  0.2075342   324.9312     3.6026
  0.2102115   322.8645     3.6013
  0.2129409   322.8655     3.6008
  0.2157238   323.1142     3.6190
  0.2185616   323.5958     3.6153
  0.2214559   319.9619     3.6090
  0.2244079   324.6765     3.6450
  0.2274195   321.3895     3.6231
  0.2304920   318.1516     3.6065
  0.2336272   320.1308     3.6165
  0.2368269   324.4643     3.6414
  0.2400926   310.7783     3.5503
  0.2434265   316.7666     3.5883
  0.2468302   322.3746     3.6191
  0.2503059   324.3412     3.6253
  0.2538555   318.5404     3.5886
  0.2574811   316.9626     3.5727
  0.2611850   312.9691     3.5572
  0.2649693   319.4984     3.5885
  0.2688365   319.0547     3.5847
  0.2727890   315.3226     3.5538
  0.2768293   315.5752     3.5480
  0.2809601   322.4653     3.5901
  0.2851839   319.5095     3.5684
  0.2895038   320.5558     3.5692
  0.2939226   320.4357     3.5657
  0.2984433   326.8630     3.5987
  0.3030690   325.3319     3.5903
  0.3078032   328.4337     3.6106
  0.3126492   330.2546     3.6130
  0.3176106   335.7218     3.6488
  0.3226910   331.2268     3.6141
  0.3278942   337.5255     3.6575
  0.3332244   340.7883     3.6676
  0.3386855   345.6934     3.6951
  0.3442820   353.2245     3.7502
  0.3500184   364.2636     3.8105
  0.3558994   362.5841     3.8008
  0.3619299   368.1305     3.8366
  0.3681149   378.2196     3.9019
  0.3744598   390.1618     3.9790
  0.3809702   399.5702     4.0398
  0.3876519   406.5740     4.0846
  0.3945109   423.6445     4.1973
  0.4015535   434.6260     4.2733
  0.4053720   469.2170    13.2989
  0.4058248   423.6577    12.7486
  0.4062783   431.5918    12.8673
  0.4067326   444.0108    13.0408
  0.4071877   433.9985    12.9148
  0.4076436   473.6067    13.3701
  0.4081002   450.6690    13.1241
  0.4085575   425.3452    12.7606
  0.4090157   428.6048    12.7740
  0.4094746   460.5504    13.1474
  0.4099343   457.5020    13.0806
  0.4103948   469.7869    13.3756
  0.4108560   449.4528    13.0607
  0.4113181   465.1447    13.1989
  0.4117808   445.1329    12.9814
  0.4122444   464.1454    13.2204
  0.4127088   438.4719    12.9192
  0.4131739   483.6722    13.5976
  0.4136399   453.7614    13.0711
  0.4141066   461.5388    13.2243
  0.4145741   462.5741    13.1604
  0.4150424   448.4299    13.0352
  0.4155115   462.6525    13.1560
  0.4159814   454.0223    13.0745
  0.4164521   473.4844    13.2384
  0.4169236   461.3390    13.1544
  0.4173959   474.3813    13.3042
  0.4178690   466.7250    13.2312
  0.4183429   478.3954    13.3483
  0.4188176   457.6653    13.1035
  0.4192931   488.5632    13.4511
  0.4197695   476.0377    13.3948
  0.4202466   476.3033    13.2188
  0.4207246   452.2580    13.0147
  0.4212033   483.4948    13.4429
  0.4216829   490.9913    13.5422
  0.4221634   474.7367    13.2008
  0.4226446   485.1194    13.4713
  0.4231266   463.0724    13.1373
  0.4236095   472.0879    13.3148
  0.4240932   454.6846    13.1835
  0.4245778   506.2574    13.6021
  0.4250631   480.5495    13.4986
  0.4255493   477.0634    13.2883
  0.4260364   502.7375    13.6498
  0.4265242   509.4547    13.7355
  0.4270130   478.1142    13.3680
  0.4275025   453.6144    13.0498
  0.4279929   462.8983    13.1835
  0.4284841   500.7682    13.5583
  0.4289762   501.5521    13.5423
  0.4294691   483.8267    13.3866
  0.4299629   501.0671    13.5929
  0.4304575   505.9743    13.7069
  0.4309530   517.9659    13.8133
  0.4314494   513.0182    13.7594
  0.4319466   487.5220    13.4786
  0.4324446   527.1373    13.8513
  0.4329436   532.3785    14.1038
  0.4334434   508.2372    13.6653
  0.4339440   497.5344    13.6471
  0.4344455   485.2327    13.3666
  0.4349479   507.2604    13.7424
  0.4354512   508.5091    13.7335
  0.4359553   505.2063    13.7194
  0.4364603   498.7132    13.4983
  0.4369662   498.8555    13.6529
  0.4374730   520.4969    13.8502
  0.4379806   491.8616    13.4666
  0.4384892   510.0590    13.8456
  0.4389986   507.7842    13.7518
  0.4395089   533.6138    13.9829
  0.4400201   532.5952    14.0883
  0.4405322   558.1771    14.2421
  0.4410452   528.4155    13.9531
  0.4415591   514.8022    13.7144
  0.4420738   527.4872    13.9671
  0.4425895   543.2979    13.9680
  0.4431061   530.5338    13.9218
  0.4436236   559.6155    14.2409
  0.4441420   518.7389    13.8339
  0.4446613   539.8192    14.0374
  0.4451815   562.0151    14.2791
  0.4457026   535.6671    14.0021
  0.4462247   550.3245    14.1309
  0.4467477   546.9094    14.0696
  0.4472716   588.1868    14.6632
  0.4477964   575.9188    14.4165
  0.4483221   540.9731    14.1622
  0.4488488   560.8721    14.2503
  0.4493763   535.9088    13.9581
  0.4499049   553.8141    14.1812
  0.4504343   553.4258    14.2581
  0.4509647   560.4511    14.2433
  0.4514960   566.7885    14.3642
  0.4520283   593.0087    14.5874
  0.4525615   569.6840    14.4354
  0.4530956   581.5628    14.5719
  0.4536308   585.8486    14.5436
  0.4541668   585.5577    14.5543
  0.4547038   599.7506    14.7529
  0.4552417   567.9993    14.3678
  0.4557806   563.0823    14.3159
  0.4563205   591.0623    14.5692
  0.4568613   589.6210    14.6248
  0.4574031   588.0275    14.5334
  0.4579458   581.7177    14.4120
  0.4584895   567.8561    14.3918
  0.4590342   617.9138    14.8555
  0.4595799   595.6037    14.6084
  0.4601265   619.8120    14.9262
  0.4606741   599.8051    14.7010
  0.4612227   609.2691    14.7922
  0.4617722   596.7575    14.6218
  0.4623228   586.5893    14.5120
  0.4628743   598.2279    14.6748
  0.4634268   608.3985    14.8401
  0.4639803   595.3455    14.6926
  0.4645348   586.7942    14.5459
  0.4650903   627.9799    14.8649
  0.4656468   639.6295    15.1140
  0.4662043   611.8135    14.7958
  0.4667628   647.6194    15.1839
  0.4673223   636.8782    15.1200
  0.4678828   629.5593    15.0004
  0.4684443   623.9553    14.9736
  0.4690068   661.4819    15.3601
  0.4695704   653.4670    15.2500
  0.4701349   642.7387    15.2228
  0.4707005   643.0882    15.1698
  0.4712671   645.6414    15.2040
  0.4718347   658.4310    15.3207
  0.4724033   651.3559    15.2150
  0.4729730   663.6390    15.3503
  0.4735437   646.2689    15.2450
  0.4741155   669.5400    15.4413
  0.4746882   649.4893    15.1955
  0.4752620   691.6549    15.7207
  0.4758369   678.7186    15.5647
  0.4764128   681.3448    15.6727
  0.4769897   670.5652    15.4864
  0.4775677   702.1891    15.8343
  0.4781467   677.1410    15.4703
  0.4787268   720.1196    15.9746
  0.4793080   696.1635    15.7701
  0.4798902   685.2602    15.6461
  0.4804735   697.6292    15.7822
  0.4810578   694.6854    15.6704
  0.4816432   691.6124    15.6721
  0.4822297   688.2654    15.5704
  0.4828172   705.6260    15.7818
  0.4834058   744.6169    16.1700
  0.4839955   684.4016    15.5705
  0.4845863   708.4193    15.7697
  0.4851781   726.5406    16.0959
  0.4857711   736.0159    16.2779
  0.4863651   732.7991    16.1460
  0.4869603   746.6983    16.4328
  0.4875565   776.4905    16.6265
  0.4881538   735.8087    16.2004
  0.4887522   733.4665    16.0511
  0.4893517   743.2635    16.1876
  0.4899523   730.0444    16.0770
  0.4905540   777.7643    16.5719
  0.4911568   806.5670    16.8887
  0.4917608   787.1269    16.7832
  0.4923658   746.7778    16.2121
  0.4929720   751.3015    16.2897
  0.4935793   777.5496    16.5997
  0.4941877   783.6289    16.6557
  0.4947972   783.3698    16.6723
  0.4954079   771.3702    16.4509
  0.4960197   779.2784    16.5869
  0.4966326   778.6346    16.5088
  0.4972467   782.5554    16.5753
  0.4978619   798.3398    16.7386
  0.4984783   795.5965    16.7641
  0.4990957   828.2053    17.0716
  0.4997144   799.1416    16.7714
  0.5003342   829.5138    17.1192
  0.5009552   798.0419    16.8369
  0.5015773   838.2191    17.1463
  0.5022005   852.1985    17.2464
  0.5028249   816.5195    16.9769
  0.5034505   801.0453    16.8271
  0.5040773   856.4305    17.3465
  0.5047052   871.1609    17.4715
  0.5053343   872.4370    17.5269
  0.5059646   831.6256    17.1119
  0.5065961   878.3143    17.5380
  0.5072287   867.1450    17.4572
  0.5078626   858.0585    17.4448
  0.5084975   858.5015    17.2974
  0.5091338   880.5505    17.5811
  0.5097712   899.7505    17.7716
  0.5104098   881.5862    17.5940
  0.5110496   905.9086    17.8480
  0.5116906   919.3929    18.0291
  0.5123328   961.8610    18.3542
  0.5129762   903.3224    17.9051
  0.5136209   906.0894    17.9017
  0.5142667   969.1400    18.4050
  0.5149139   944.0935    18.1439
  0.5155621   932.1786    18.0316
  0.5162116   992.2791    18.7116
  0.5168624   959.0027    18.3462
  0.5175144   968.2220    18.4923
  0.5181676   968.8090    18.5054
  0.5188220   950.0316    18.2430
  0.5194777   997.3256    18.7028
  0.5201346   990.3365    18.6532
  0.5207928   976.7301    18.4748
  0.5214523   977.2001    18.5534
  0.5221130  1061.9180    19.2795
  0.5227749  1011.5948    18.8579
  0.5234381  1035.8815    19.0808
  0.5241026  1014.0111    18.8155
  0.5247683  1009.2833    18.8595
  0.5254353  1048.6169    19.1826
  0.5261036  1080.5142    19.4668
  0.5267731  1054.3560    19.2546
  0.5274439  1063.8428    19.3328
  0.5281161  1062.9905    19.3056
  0.5287895  1116.5657    19.8393
  0.5294641  1065.1068    19.3506
  0.5301401  1098.0493    19.7418
  0.5308174  1125.6107    19.8677
  0.5314960  1113.3146    19.7944
  0.5321758  1134.8787    20.0502
  0.5328570  1093.3254    19.5861
  0.5335395  1146.1005    20.0992
  0.5342233  1105.6757    19.7486
  0.5349084  1156.4814    20.1732
  0.5355949  1127.7117    19.9289
  0.5362826  1203.1842    20.5990
  0.5369717  1184.1119    20.3998
  0.5376621  1209.0126    20.6487
  0.5383539  1169.5347    20.2561
  0.5390469  1179.0313    20.4199
  0.5397413  1208.5623    20.6723
  0.5404371  1223.7424    20.8227
  0.5411342  1249.5181    21.0257
  0.5418327  1229.0634    20.8653
  0.5425324  1232.6481    20.9189
  0.5432336  1234.3108    20.8727
  0.5439362  1267.7856    21.1792
  0.5446401  1262.5199    21.1775
  0.5453453  1262.9124    21.2032
  0.5460519  1289.4415    21.3970
  0.5467599  1298.6075    21.4947
  0.5474693  1279.6406    21.3125
  0.5481801  1320.5698    21.6325
  0.5488923  1351.7847    21.9514
  0.5496058  1326.0631    21.6860
  0.5503207  1366.4833    22.0822
  0.5510370  1338.6036    21.8414
  0.5517548  1333.6147    21.7783
  0.5524738  1362.5154    22.0851
  0.5531944  1427.4736    22.6676
  0.5539163  1459.3723    22.9015
  0.5546397  1487.0182    23.1581
  0.5553645  1491.7778    23.1961
  0.5560907  1451.1649    22.8179
  0.5568183  1507.3079    23.3752
  0.5575474  1519.7153    23.4793
  0.5582778  1496.0118    23.2276
  0.5590097  1507.4496    23.3095
  0.5597431  1586.1281    24.0743
  0.5604779  1555.0463    23.7470
  0.5612142  1549.0938    23.7352
  0.5619519  1586.5969    24.0373
  0.5626910  1618.5734    24.2932
  0.5634316  1617.9348    24.2686
  0.5641738  1673.9799    24.8065
  0.5649173  1679.0397    24.8279
  0.5656623  1629.3782    24.4276
  0.5664088  1688.5154    24.9125
  0.5671568  1705.8816    25.1025
  0.5679063  1741.5214    25.3741
  0.5686572  1736.4451    25.3198
  0.5694096  1756.5760    25.5090
  0.5701635  1772.1150    25.6644
  0.5709190  1840.5493    26.2099
  0.5716759  1871.1357    26.4919
  0.5724343  1847.3594    26.3244
  0.5731943  1818.9133    26.0154
  0.5739558  1867.3411    26.4060
  0.5747187  1887.9911    26.6173
  0.5754832  1984.9369    27.4881
  0.5762492  1919.4945    26.8803
  0.5770168  1994.4102    27.5458
  0.5777859  1943.0208    27.0996
  0.5785565  2024.0363    27.8368
  0.5793287  2079.5623    28.2900
  0.5801024  2055.9492    28.0449
  0.5808777  2074.0098    28.2005
  0.5816545  2103.6655    28.4566
  0.5824329  2109.4727    28.5155
  0.5832129  2190.6882    29.1774
  0.5839944  2176.4170    29.1015
  0.5847775  2300.5388    30.1003
  0.5855621  2275.3008    29.9338
  0.5863483  2345.5493    30.5065
  0.5871362  2355.2456    30.5960
  0.5879256  2320.1189    30.2824
  0.5887166  2349.7573    30.4926
  0.5895092  2469.8423    31.5617
  0.5903034  2384.7434    30.7929
  0.5910993  2482.3123    31.6982
  0.5918967  2502.2126    31.8123
  0.5926957  2523.9216    32.0302
  0.5934964  2524.6519    32.0487
  0.5942987  2575.9866    32.3974
  0.5951026  2628.8357    32.8389
  0.5959082  2625.1248    32.8487
  0.5967153  2753.0073    33.8944
  0.5975242  2758.9924    33.9786
  0.5983346  2801.1169    34.2798
  0.5991467  2745.4456    33.8333
  0.5999605  2911.4050    35.2195
  0.6007760  2876.6406    34.9323
  0.6015930  2993.3171    35.8488
  0.6024118  2868.4187    34.8512
  0.6032323  3093.4348    36.7047
  0.6040543  3107.5063    36.7955
  0.6048781  3084.4055    36.6270
  0.6057036  3157.3120    37.2214
  0.6065308  3170.3762    37.3087
  0.6073597  3223.5876    37.7834
  0.6081902  3240.3315    37.8992
  0.6090225  3313.2898    38.4891
  0.6098565  3356.2781    38.8483
  0.6106922  3445.7935    39.5816
  0.6115296  3464.2114    39.7338
  0.6123688  3434.3779    39.5062
  0.6132096  3468.0515    39.7854
  0.6140522  3564.4810    40.5338
  0.6148966  3604.2021    40.8622
  0.6157426  3685.2136    41.5107
  0.6165904  3751.0261    42.0619
  0.6174400  3723.4971    41.8378
  0.6182914  3830.6411    42.7097
  0.6191445  3850.8899    42.8747
  0.6199993  3950.7581    43.6697
  0.6208560  3825.4587    42.6612
  0.6217145  3974.6443    43.8653
  0.6225746  4038.4724    44.3977
  0.6234366  4016.3411    44.2078
  0.6243004  4134.9995    45.1771
  0.6251659  4051.8926    44.4887
  0.6260334  4194.3984    45.6549
  0.6269025  4218.8174    45.8683
  0.6277735  4258.2759    46.1512
  0.6286463  4297.6860    46.4892
  0.6295209  4298.4692    46.4895
  0.6303974  4356.2695    46.9877
  0.6312756  4425.0132    47.5253
  0.6321558  4415.9531    47.4804
  0.6330377  4468.6567    47.8818
  0.6339216  4479.8447    47.9826
  0.6348072  4405.5718    47.3973
  0.6356947  4600.2671    48.9283
  0.6365842  4626.7847    49.1643
  0.6374754  4685.0967    49.6260
  0.6383685  4623.0889    49.1831
  0.6392636  4669.0864    49.5191
  0.6401604  4645.3745    49.3453
  0.6410592  4739.8999    50.1039
  0.6419599  4800.8862    50.6008
  0.6428624  4818.6050    50.7553
  0.6437669  4938.6230    51.7171
  0.6446733  4795.0176    50.5764
  0.6455816  4860.5806    51.1076
  0.6464918  4812.8301    50.7134
  0.6474040  4896.5610    51.4185
  0.6483180  4894.7539    51.3980
  0.6492341  4826.4478    50.8487
  0.6501520  4798.6211    50.6223
  0.6510720  4968.1211    52.0109
  0.6519938  5012.4897    52.3617
  0.6529176  4956.6685    51.9156
  0.6538434  5027.4746    52.4757
  0.6547711  4939.5747    51.7812
  0.6557009  4946.5762    51.8559
  0.6566326  4875.6851    51.2903
  0.6575663  4927.0459    51.7131
  0.6585020  4870.6719    51.2862
  0.6594397  4858.8179    51.1757
  0.6603794  4983.5996    52.1916
  0.6613211  4876.7119    51.3375
  0.6622648  5011.2813    52.4150
  0.6632106  4876.9648    51.3395
  0.6641583  4941.2451    51.8786
  0.6651081  4844.2676    51.1007
  0.6660600  4905.5259    51.5975
  0.6670139  4696.2324    49.9202
  0.6679698  4815.7158    50.8913
  0.6689278  4721.7441    50.1350
  0.6698879  4765.4355    50.4956
  0.6708500  4745.2500    50.3420
  0.6718142  4666.3823    49.6939
  0.6727805  4580.9976    49.0358
  0.6737488  4711.4033    50.0811
  0.6747193  4652.2095    49.6246
  0.6756918  4519.8584    48.5613
  0.6766665  4430.9243    47.8553
  0.6776433  4419.1675    47.7452
  0.6786222  4443.0005    47.9446
  0.6796032  4423.6621    47.8077
  0.6805863  4330.7896    47.0443
  0.6815716  4334.1582    47.0667
  0.6825591  4245.9399    46.3753
  0.6835486  4159.6826    45.6600
  0.6845403  4243.3911    46.3463
  0.6855342  4147.9277    45.5776
  0.6865302  4080.7502    45.0011
  0.6875285  4074.0830    44.9834
  0.6885288  3990.8042    44.2811
  0.6895314  3946.3425    43.9018
  0.6905362  3841.3743    43.0633
  0.6915432  3906.2510    43.5886
  0.6925523  3740.6748    42.2364
  0.6935637  3747.8040    42.3131
  0.6945773  3755.2209    42.3717
  0.6955932  3663.1912    41.5935
  0.6966112  3589.0769    40.9666
  0.6976315  3461.3374    39.9321
  0.6986540  3388.7634    39.3100
  0.6996788  3404.3381    39.4356
  0.7007059  3352.3298    39.0178
  0.7017351  3258.1934    38.2422
  0.7027667  3219.4690    37.8941
  0.7038006  3215.4900    37.8467
  0.7048367  3117.9978    37.0773
  0.7058752  3098.9263    36.8843
  0.7069159  3007.1870    36.1397
  0.7079589  3014.6482    36.2169
  0.7090042  2919.9434    35.3829
  0.7100518  2922.3354    35.4280
  0.7111018  2845.1111    34.7608
  0.7121542  2814.7634    34.4843
  0.7132087  2810.1064    34.4704
  0.7142658  2653.7874    33.1207
  0.7153251  2609.2485    32.7473
  0.7163868  2573.4307    32.3921
  0.7174509  2504.4983    31.8545
  0.7185172  2466.0356    31.4988
  0.7195861  2426.8967    31.1411
  0.7206573  2383.2358    30.7864
  0.7217309  2377.8979    30.7356
  0.7228069  2325.6912    30.2495
  0.7238852  2236.6682    29.5481
  0.7249661  2221.1042    29.3729
  0.7260494  2248.8530    29.5848
  0.7271350  2145.6887    28.6867
  0.7282231  2073.3379    28.0259
  0.7293136  2074.0103    28.0877
  0.7304067  2053.5706    27.8566
  0.7315021  2020.9071    27.5887
  0.7326000  1984.5280    27.2617
  0.7337004  1991.1482    27.2964
  0.7348033  1901.1234    26.4999
  0.7359088  1816.2153    25.7400
  0.7370166  1822.9331    25.8419
  0.7381269  1843.5837    25.9892
  0.7392399  1741.4575    25.0443
  0.7403553  1733.4851    24.9887
  0.7414731  1693.3983    24.6588
  0.7425936  1687.8903    24.5692
  0.7437166  1613.9484    23.8681
  0.7448422  1640.6404    24.1217
  0.7459703  1593.1083    23.6911
  0.7471009  1532.4282    23.1885
  0.7482342  1480.9196    22.6301
  0.7493700  1487.4329    22.6728
  0.7505085  1490.4031    22.7525
  0.7516494  1428.2026    22.1780
  0.7527931  1415.9347    22.0644
  0.7539393  1386.2474    21.7578
  0.7550881  1402.6699    21.9742
  0.7562397  1324.6936    21.1982
  0.7573937  1350.8185    21.4332
  0.7585505  1289.3077    20.8892
  0.7597098  1256.4343    20.5117
  0.7608719  1233.9559    20.3366
  0.7620367  1241.1338    20.3428
  0.7632041  1224.6816    20.2391
  0.7643742  1190.7842    19.9195
  0.7655470  1143.4744    19.4344
  0.7667225  1144.6594    19.3911
  0.7679007  1138.4150    19.3332
  0.7690816  1111.2269    19.0883
  0.7702652  1042.6312    18.4952
  0.7714517  1100.3542    18.9926
  0.7726408  1025.9010    18.3342
  0.7738326  1031.9386    18.3720
  0.7750272  1036.1373    18.3923
  0.7762246  1001.4429    18.0172
  0.7774249   982.3778    17.8091
  0.7786278   954.9052    17.5419
  0.7798336   952.7471    17.4726
  0.7810421   986.9990    17.7908
  0.7822534   920.2729    17.1560
  0.7834677   928.3916    17.2727
  0.7846847   878.0375    16.7500
  0.7859045   864.6568    16.6540
  0.7871273   871.2365    16.6976
  0.7883528   828.2334    16.1846
  0.7895813   830.5914    16.2268
  0.7908125   801.7999    15.9135
  0.7920467   804.9810    15.9820
  0.7932839   790.3090    15.8225
  0.7945238   778.9785    15.6952
  0.7957667   729.3832    15.2616
  0.7970125   762.3668    15.5305
  0.7982612   742.6809    15.2696
  0.7995129   730.5711    15.1496
  0.8007675   743.1865    15.2685
  0.8020251   723.2604    15.0281
  0.8032856   721.5554    15.0782
  0.8045491   698.2355    14.8244
  0.8058156   664.9071    14.3951
  0.8070851   674.7565    14.5235
  0.8083576   637.0298    14.1062
  0.8096331   659.1334    14.3150
  0.8109116   634.7856    14.1497
  0.8121932   631.5256    14.1178
  0.8134778   621.8941    13.9926
  0.8147654   617.5258    13.9161
  0.8160561   627.1060    13.9095
  0.8173499   576.0937    13.4618
  0.8186467   573.5828    13.4227
  0.8199467   535.1372    12.9548
  0.8212497   578.3748    13.4821
  0.8225558   547.3657    13.0783
  0.8238651   533.6028    12.9051
  0.8251775   532.4291    12.8993
  0.8264930   547.1046    13.0548
  0.8278117   536.1564    12.9105
  0.8291336   514.6556    12.7540
  0.8304586   491.5561    12.4555
  0.8317868   526.9263    12.8053
  0.8331181   499.6757    12.4724
  0.8344527   486.5106    12.3307
  0.8357905   495.9649    12.4832
  0.8371315   473.9875    12.1245
  0.8384757   482.1359    12.2137
  0.8398232   460.0049    12.0427
  0.8411739   468.3038    12.1700
  0.8425279   460.0468    12.0069
  0.8438852   476.0568    12.1859
  0.8452457   432.8498    11.7145
  0.8466095   426.6114    11.5726
  0.8479766   446.6409    11.8852
  0.8493471   421.0457    11.5349
  0.8507209   421.7091    11.5141
  0.8520980   429.0850    11.5723
  0.8534784   407.5574    11.3531
  0.8548622   403.3067    11.2977
  0.8562495   406.1476    11.3348
  0.8576400   401.0279    11.3077
  0.8590339   367.1802    10.8372
  0.8604314   397.7531    11.1893
  0.8618321   396.8416    11.1722
  0.8632363   371.5251    10.8973
  0.8646439   369.3031    10.7974
  0.8660549   346.9023    10.7079
  0.8674696   359.1108    10.7642
  0.8688875   348.9396    10.5167
  0.8703090   353.2246    10.6794
  0.8717340   357.1763    10.6259
  0.8731624   340.0676    10.3688
  0.8745945   342.0947    10.4667
  0.8760299   351.0998    10.5665
  0.8774689   354.8590    10.5734
  0.8789115   337.0371    10.4400
  0.8803577   337.4483    10.4744
  0.8818075   310.6135    10.1439
  0.8832607   323.2369    10.2212
  0.8847176   339.9534    10.3932
  0.8861781   322.0495    10.2251
  0.8876423   301.1348     9.9817
  0.8891101   316.5223    10.1159
  0.8905815   316.4698    10.0730
  0.8920565   294.0122     9.8994
  0.8935353   290.4928     9.8032
  0.8950177   288.9306     9.6796
  0.8965038   280.9557     9.7221
  0.8979936   270.2981     9.5392
  0.8994871   297.9104     9.8689
  0.9009844   278.4162     9.5808
  0.9024854   292.2091     9.8655
  0.9039902   277.5233     9.5893
  0.9054986   261.7868     9.3890
  0.9070109   265.4378     9.4085
  0.9085271   261.6397     9.3823
  0.9100469   257.8990     9.3059
  0.9115706   244.4680     9.1568
  0.9130982   249.3640     9.3045
  0.9146295   249.5439     9.2065
  0.9161648   229.4125     8.9481
  0.9177039   241.3176     9.1267
  0.9192468   244.9496     9.0358
  0.9207937   225.2970     8.9603
  0.9223445   233.8373     9.0118
  0.9238993   230.4831     9.0095
  0.9254579   232.0003     9.0658
  0.9270205   237.4756     8.9593
  0.9285871   226.1319     8.8390
  0.9301577   234.0500     8.8706
  0.9317321   219.8528     8.8341
  0.9333106   233.4491     8.9654
  0.9348931   222.7860     8.8499
  0.9364798   229.2819     8.9577
  0.9380704   214.5334     8.7264
  0.9396650   212.5517     8.5717
  0.9412637   217.9701     8.7589
  0.9428665   215.2974     8.5803
  0.9444735   199.9783     8.5434
  0.9460845   203.1610     8.6045
  0.9476996   203.2378     8.6122
  0.9493189   201.2329     8.5101
  0.9509423   212.1346     8.6876
  0.9525700   195.5887     8.3877
  0.9542018   217.3468     8.6371
  0.9558377   195.5223     8.5053
  0.9574779   184.2681     8.1647
  0.9591223   184.3716     8.2665
  0.9607710   187.7065     8.2601
  0.9624239   190.7023     8.3123
  0.9640811   194.8446     8.3709
  0.9657427   191.6892     8.3215
  0.9674084   180.4547     8.3315
  0.9690785   176.8465     8.2324
  0.9707528   171.6166     8.1732
  0.9724316   191.1255     8.3842
  0.9741148   184.8167     8.1797
  0.9758022   170.7020     8.1267
  0.9774941   168.8829     8.1316
  0.9791903   163.2064     8.0024
  0.9808910   170.8256     8.1324
  0.9825962   161.2873     7.9839
  0.9843058   178.9799     8.3020
  0.9860199   158.0212     7.9040
  0.9877384   159.3463     7.9495
  0.9894614   161.9880     7.9497
  0.9911889   154.5051     7.8508
  0.9929210   157.2691     7.9423
  0.9946576   165.6229     7.9678
  0.9963988   147.0598     7.7123
  0.9981445   151.3469     7.7322
  0.9998949   157.9299     7.8993
  1.0016499   152.7429     7.8019
  1.0034094   125.6066     7.4852
  1.0051737   152.2956     7.8001
  1.0069425   154.5538     7.8033
  1.0087160   142.2921     7.6458
  1.0104942   158.0467     7.8095
  1.0122771   141.5013     7.7780
  1.0140649   134.2197     7.6281
  1.0158573   150.1212     7.8561
  1.0176544   146.8616     7.7751
  1.0194564   140.2621     7.6978
  1.0212630   134.1604     7.6003
  1.0230746   139.3226     7.6625
  1.0248910   132.2363     7.5170
  1.0267122   130.8573     7.6407
  1.0285382   125.0288     7.5017
  1.0303690   131.6940     7.6239
  1.0322050   143.9705     7.7738
  1.0340457   127.0793     7.4337
  1.0358913   125.4259     7.4838
  1.0377419   131.4684     7.6214
  1.0395975   132.0201     7.5569
  1.0414581   125.8595     7.4944
  1.0433236   121.9257     7.4052
  1.0451941   134.1693     7.5322
  1.0470698   122.5271     7.5306
  1.0489504   121.3024     7.4570
  1.0508362   122.0588     7.5557
  1.0527270   107.7940     7.3192
  1.0546229   120.3128     7.3604
  1.0565240   114.1213     7.2782
  1.0584302   114.8591     7.4198
  1.0603416   116.6381     7.3983
  1.0622581   114.2464     7.4079
  1.0641798   100.8117     7.1274
  1.0661068   112.3408     7.4011
  1.0680391   110.7938     7.2931
  1.0699765   106.0864     7.4067
  1.0719192   114.5961     7.3255
  1.0738672   115.3901     7.3170
  1.0758206   110.5626     7.2137
  1.0777793   112.4404     7.2821
  1.0797433   105.4113     7.1511
  1.0817126   101.2794     7.1616
  1.0836874   105.0894     7.2921
  1.0856677    92.7710     7.0640
  1.0876534   101.4463     7.2924
  1.0896444   101.3054     7.1249
  1.0916409   107.2776     7.2870
  1.0936431    98.6762     7.0984
  1.0956507   102.7345     7.1624
  1.0976638   104.1084     7.1820
  1.0996825    99.8891     7.0333
  1.1017067    91.8739     7.1520
  1.1037365    91.3634     7.0918
  1.1057720    95.9349     7.1090
  1.1078130    90.8709     7.0462
  1.1098597    96.7337     7.0808
  1.1119123    97.8719     7.0284
  1.1139704   103.2995     7.2048
  1.1160341    94.8267     7.0368
  1.1181037    84.2733     6.9698
  1.1201791    81.3780     6.8995
  1.1222602    77.3216     6.8638
  1.1243471    87.8462     6.9853
  1.1264398    90.6327     7.0045
  1.1285385    85.7779     6.9021
  1.1306429    84.8198     6.9470
  1.1327534    85.8652     6.8524
  1.1348696    93.1378     7.0585
  1.1369917    88.1493     7.0096
  1.1391200    77.9800     6.7936
  1.1412541    80.1703     6.7603
  1.1433943    74.3302     6.8691
  1.1455405    72.7312     6.7871
  1.1476927    83.6696     6.8992
  1.1498511    91.8371     7.0443
  1.1520154    77.2057     6.8652
  1.1541859    82.2650     6.9439
  1.1563625    76.0755     6.8838
  1.1585454    71.1333     6.7296
  1.1607344    83.5018     6.9576
  1.1629296    67.8702     6.8180
  1.1651310    76.3413     6.8093
  1.1673387    71.7058     6.9125
  1.1695527    85.3676     6.9747
  1.1717731    69.6778     6.9381
  1.1739997    81.9951     6.8780
  1.1762326    62.7832     6.7013
  1.1784719    72.4488     6.9138
  1.1807176    77.6014     6.8414
  1.1829699    71.8855     6.9415
  1.1852285    69.7260     6.8949
  1.1874936    64.5865     6.7272
  1.1897651    68.8861     6.8869
  1.1920432    66.0275     6.7025
  1.1943279    67.7073     6.7637
  1.1966192    61.2140     6.8616
  1.1989170    58.2681     6.7929
  1.2012216    55.7413     6.7986
  1.2035327    45.0422     6.7667
  1.2058505    57.9316     6.9480
  1.2081749    62.3658     6.8732
  1.2105061    75.6347     7.1622
  1.2128441    74.5579     7.0713
  1.2151889    52.0531     6.7849
  1.2175405    51.7985     6.9789
  1.2198988    55.0837     6.9666
  1.2222640    53.0900     6.9733
  1.2246363    51.9968     7.0579
  1.2270153    47.2064     6.8767
  1.2294012    63.4948     7.1311
  1.2317942    57.4578     7.0166
  1.2341942    50.1461     7.0081
  1.2366012    45.7103     6.9316
  1.2390152    50.1297     6.9461
  1.2414362    44.0354     7.0626
  1.2438644    55.9934     7.2166
  1.2462997    48.4294     7.0747
  1.2487423    48.2699     7.2527
  1.2511920    47.3323     7.2664
  1.2536489    50.4299     7.3759
  1.2561132    54.6036     7.4092
  1.2585845    45.1716     7.2541
  1.2610632    60.9948     7.4505
  1.2635492    51.8215     7.4640
  1.2660426    47.5941     7.4091
  1.2685435    50.8235     7.5183
  1.2710517    45.4597     7.4676
  1.2735672    56.5078     7.6496
  1.2760904    47.9444     7.5620
  1.2786210    53.9951     7.7047
  1.2811593    49.4464     7.6788
  1.2837049    61.9972     7.8865
  1.2862582    51.7326     7.7314
  1.2888192    60.3968     7.7744
  1.2913877    53.6961     7.7192
  1.2939642    51.5292     7.7725
  1.2965481    56.1786     7.8762
  1.2991399    55.4318     7.8202
  1.3017394    57.4161     7.7492
  1.3043468    70.1335     7.9448
  1.3069619    68.0342     7.8703
  1.3095850    56.6859     7.8152
  1.3122160    49.6020     7.6350
  1.3148549    48.1189     7.6670
  1.3175018    49.1100     7.6838
  1.3201566    50.6389     7.6267
  1.3228196    40.7468     7.4718
  1.3254906    52.4647     7.5671
  1.3281696    45.0536     7.4798
  1.3308568    57.6963     7.5417
  1.3335521    30.0876     7.1837
  1.3362558    40.3660     7.2827
  1.3389676    49.1178     7.2341
  1.3416876    39.7855     7.0642
  1.3444159    38.8552     7.0175
  1.3471526    33.5268     6.9666
  1.3498977    36.0888     6.8925
  1.3526511    52.3535     7.0501
  1.3554130    39.6971     6.8768
  1.3581833    31.8721     6.7279
  1.3609622    32.0553     6.7277
  1.3637496    45.8880     6.7472
  1.3665456    31.4778     6.5819
  1.3693501    31.3879     6.5447
  1.3721633    46.7835     6.6747
  1.3749852    32.8441     6.4773
  1.3778158    32.2624     6.4732
  1.3806551    34.3052     6.3930
  1.3835032    33.8690     6.4525
  1.3863602    41.0240     6.5281
  1.3892261    23.6253     6.2859
  1.3921008    26.2596     6.1842
  1.3949844    37.1245     6.3064
  1.3978770    33.5138     6.3430
  1.4007786    52.3532     6.4936
  1.4036893    35.8393     6.1951
  1.4066091    41.2018     6.3693
  1.4095378    26.3414     6.0885
  1.4124759    35.1291     6.0953
  1.4154232    43.6819     6.2838
  1.4183796    41.2442     6.2090
  1.4213452    39.0079     6.2224
  1.4243203    33.1620     6.0551
  1.4273047    33.1822     6.1879
  1.4302986    39.5534     6.1021
  1.4333017    35.3316     6.1303
  1.4363143    32.9017     5.9987
  1.4393365    40.1389     6.0969
  1.4423684    32.1834     6.1373
  1.4454097    45.9276     6.0457
  1.4484606    36.5609     6.0741
  1.4515212    44.1006     5.9972
  1.4545915    30.9055     5.9994
  1.4576716    33.8603     5.9986
  1.4607614    42.1362     6.0549
  1.4638611    36.5973     6.0249
  1.4669707    39.4159     6.0469
  1.4700903    34.8205     5.9453
  1.4732197    30.2320     5.9122
  1.4763593    36.3191     5.9591
  1.4795086    40.3563     6.0368
  1.4826683    34.7480     5.7894
  1.4858382    29.8793     5.9576
  1.4890180    41.0711     5.8956
  1.4922081    38.4504     5.8684
  1.4954084    31.3486     5.9313
  1.4986192    32.1949     5.7751
  1.5018403    42.2737     5.8331
  1.5050718    36.9800     5.9194
  1.5083135    31.2943     5.9159
  1.5115660    33.8591     5.8370
  1.5148289    38.0928     5.9212
  1.5181024    30.6957     5.7833
  1.5213865    40.0850     5.8654
  1.5246812    33.3082     5.6831
  1.5279868    33.7556     5.7610
  1.5313031    35.7205     5.7160
  1.5346301    34.3179     5.8310
  1.5379679    31.1330     5.7219
  1.5413168    30.7097     5.7663
  1.5446765    41.9229     5.8541
  1.5480473    37.7458     5.7964
  1.5514290    32.3579     5.7412
  1.5548220    30.9751     5.7346
  1.5582260    39.4265     5.6946
  1.5616413    38.6722     5.8287
  1.5650678    37.3419     5.7523
  1.5685055    35.9666     5.7734
  1.5719545    29.6415     5.6282
  1.5754151    41.4081     5.8333
  1.5788871    23.7597     5.5624
  1.5823705    37.2458     5.6339
  1.5858654    37.3192     5.8226
  1.5893720    36.1870     5.6174
  1.5928903    33.0728     5.6544
  1.5964201    38.6820     5.6275
  1.5999616    34.2271     5.7056
  1.6035150    34.3876     5.5547
  1.6070805    30.3291     5.6651
  1.6106577    41.9152     5.7155
  1.6142467    41.7863     5.6397
  1.6178479    23.3932     5.4867
  1.6214610    33.7429     5.5339
  1.6250864    31.9110     5.6664
  1.6287241    34.7062     5.6349
  1.6323737    36.9291     5.6092
  1.6360357    37.4758     5.5415
  1.6397102    30.0977     5.6388
  1.6433970    31.5484     5.5840
  1.6470962    24.0552     5.5232
  1.6508077    32.1998     5.5913
  1.6545320    41.3849     5.6458
  1.6582689    31.9846     5.4831
  1.6620185    28.7756     5.5220
  1.6657808    34.0804     5.6280
  1.6695558    27.8807     5.4257
  1.6733438    27.1217     5.5220
  1.6771447    32.9702     5.4666
  1.6809584    36.6313     5.5549
  1.6847853    31.2660     5.4379
  1.6886251    24.8924     5.4703
  1.6924782    32.5352     5.3727
  1.6963445    26.2032     5.4251
  1.7002239    31.0878     5.4822
  1.7041167    37.0925     5.5025
  1.7080228    27.5625     5.4183
  1.7119426    30.4601     5.5149
  1.7158759    27.8790     5.3829
  1.7198225    32.3074     5.4765
  1.7237829    38.0806     5.5209
  1.7277570    34.3104     5.4826
  1.7317449    28.1815     5.4236
  1.7357465    23.6464     5.4283
  1.7397619    22.7633     5.2886
  1.7437915    16.6072     5.2603
  1.7478350    32.1099     5.5366
  1.7518927    37.5712     5.4673
  1.7559643    31.1559     5.4030
  1.7600502    34.9748     5.4757
  1.7641504    31.1488     5.4003
  1.7682650    37.5767     5.3998
  1.7723941    23.3254     5.3214
  1.7765374    26.8181     5.3385
  1.7806954    31.8660     5.4045
  1.7848681    34.8385     5.5385
  1.7890555    30.6111     5.3256
  1.7932575    29.8728     5.3252
  1.7974743    25.1230     5.3998
  1.8017060    25.1407     5.3064
  1.8059528    36.0741     5.3846
  1.8102146    32.1442     5.4186
  1.8144914    35.7048     5.5545
  1.8187834    29.7700     5.4050
  1.8230908    34.0429     5.4913
  1.8274134    31.0892     5.3904
  1.8317514    22.5602     5.2574
  1.8361048    26.3816     5.3594
  1.8404738    31.6631     5.4138
  1.8448584    39.3586     5.4630
  1.8492588    34.7688     5.5015
  1.8536748    24.6915     5.3751
  1.8581066    25.3805     5.3982
  1.8625544    25.0650     5.3367
  1.8670182    31.8203     5.4176
  1.8714982    31.0835     5.3920
  1.8759942    24.0497     5.3755
  1.8805064    27.9034     5.4164
  1.8850349    31.4183     5.3793
  1.8895799    29.9520     5.4319
  1.8941412    28.0326     5.4557
  1.8987191    30.2748     5.4174
  1.9033135    27.6901     5.3731
  1.9079249    21.1827     5.3113
  1.9125530    31.8302     5.5105
  1.9171977    31.4696     5.3850
  1.9218594    21.0572     5.4862
  1.9265384    29.1120     5.2234
  1.9312344    27.4037     5.4258
  1.9359474    22.6159     5.5150
  1.9406778    33.7754     5.4348
  1.9454254    23.3253     5.1956
  1.9501907    20.6624     5.3652
  1.9549735    28.9440     5.4141
  1.9597738    30.2733     5.3678
  1.9645917    24.5806     5.1912
  1.9694275    32.1170     5.2474
  1.9742813    21.7055     5.2671
  1.9791530    21.2297     5.3272
  1.9840426    33.0629     5.3123
  1.9889505    26.0305     5.3385
  1.9938767    23.7112     5.3287
  1.9988213    27.5460     5.3894
  2.0037839    27.2554     5.3255
  2.0087652    20.7120     5.4042
  2.0137651    24.8325     5.4521
  2.0187838    27.9863     5.2887
  2.0238214    24.9067     5.3005
  2.0288775    26.0004     5.3624
  2.0339527    32.0258     5.3893
  2.0390470    26.6634     5.3736
  2.0441606    25.5188     5.4115
  2.0492935    32.6038     5.3126
  2.0544455    27.7850     5.4435
  2.0596170    27.0424     5.3565
  2.0648084    14.7683     5.2211
  2.0700193    30.2011     5.3524
  2.0752497    23.6764     5.2426
  2.0804999    28.9531     5.3014
  2.0857701    19.4873     5.2723
  2.0910606    27.3508     5.2783
  2.0963712    19.5094     5.1670
  2.1017020    19.1707     5.2104
  2.1070530    28.6804     5.2839
  2.1124246    19.7819     5.2510
  2.1178169    22.3559     5.2297
  2.1232297    21.2947     5.1451
  2.1286633    28.4449     5.2087
  2.1341178    22.3534     5.1169
  2.1395934    35.3398     5.2118
  2.1450901    18.1240     5.1361
  2.1506078    22.4061     5.1518
  2.1561468    14.5179     5.0991
  2.1617074    20.5208     5.1065
  2.1672895    24.8659     5.1335
  2.1728933    15.9717     5.1100
  2.1785188    16.2323     5.0100
  2.1841662    20.6740     5.2005
  2.1898356    26.4911     5.0959
  2.1955271    18.0735     5.1710
  2.2012408    25.4905     5.0535
  2.2055407    23.1684     7.2203
  2.2084143    14.4438     7.1040
  2.2112935    20.3013     7.2225
  2.2141783    26.9351     7.2261
  2.2170687    14.7769     7.1997
  2.2199650    29.1237     7.1450
  2.2228668    28.9259     7.2625
  2.2257743    14.3713     7.0624
  2.2286875    22.2641     7.2975
  2.2316065    17.4985     7.1641
  2.2345314    23.0663     7.0249
  2.2374618    21.1321     7.1468
  2.2403982    19.5560     7.2290
  2.2433403     9.3092     7.1037
  2.2462881    26.7368     6.9668
  2.2492416    25.3393     7.0719
  2.2522011    19.9841     7.0713
  2.2551663    24.6455     7.1715
  2.2581377    20.5038     6.8956
  2.2611146    20.1585     7.0490
  2.2640977    13.7323     6.8902
  2.2670863    28.1179     7.1139
  2.2700810    23.5104     6.9661
  2.2730820    25.7372     7.0504
  2.2760885    29.9488     7.0227
  2.2791011    14.6187     7.0753
  2.2821198    25.7830     7.1600
  2.2851443    20.6912     7.1261
  2.2881751    26.0111     7.1219
  2.2912118    17.2260     6.8436
  2.2942545    22.1606     7.0090
  2.2973032    21.5082     6.8986
  2.3003581    31.9717     7.1988
  2.3034191    34.5033     6.9823
  2.3064861    18.4044     7.1467
  2.3095593    28.6575     7.0925
  2.3126388    14.6336     6.8715
  2.3157244    12.5414     6.9071
  2.3188159    20.0015     6.9189
  2.3219137    15.9241     6.9450
  2.3250179     7.9405     6.8190
  2.3281283    15.6847     6.7572
  2.3312449    20.5669     6.8215
  2.3343678    10.8504     6.9704
  2.3374968    20.1948     6.9490
  2.3406322    26.1733     7.1007
  2.3437741    21.3801     7.0434
  2.3469219    16.9598     6.9196
  2.3500764    27.1478     6.9228
  2.3532372    22.6420     6.9129
  2.3564041    19.6029     6.9171
  2.3595779    21.8421     6.9051
  2.3627577    22.7902     6.9398
  2.3659441    25.8058     6.8237
  2.3691371    22.7642     6.8013
  2.3723362    16.1043     6.9447
  2.3755422    28.6039     6.9908
  2.3787544    17.6552     6.8042
  2.3819733    22.9930     7.0240
  2.3851986    20.7050     7.0174
  2.3884306    12.6947     6.7942
  2.3916690    22.1147     6.9892
  2.3949142    12.7940     6.7065
  2.3981657    18.2772     7.0065
  2.4014242    34.2786     7.0928
  2.4046891    28.0333     6.8916
  2.4079607    12.0716     6.6485
  2.4112389    22.1030     7.0180
  2.4145238    26.2323     6.8034
  2.4178157    16.7888     6.7907
  2.4211142    28.3278     6.7535
  2.4244194    22.9229     6.9925
  2.4277313    16.0929     6.7186
  2.4310501    20.8298     6.7551
  2.4343758    24.7476     6.9202
  2.4377081    18.6243     6.7687
  2.4410472    22.7114     6.8473
  2.4443934    19.7115     6.9543
  2.4477463    27.2763     6.9455
  2.4511063    18.2199     6.6402
  2.4544733    26.8858     6.9694
  2.4578469    18.2041     6.9447
  2.4612277    21.3972     6.7703
  2.4646153    15.3629     6.8381
  2.4680102    20.8297     6.5739
  2.4714119    22.8313     6.8423
  2.4748206    24.2970     6.7836
  2.4782367    24.5467     6.8380
  2.4816594    19.9963     6.7276
  2.4850895    17.0096     6.7741
  2.4885266    26.4843     6.9046
  2.4919708     8.7494     6.5892
  2.4954224    15.5848     6.7497
  2.4988809    27.8231     6.7848
  2.5023465    19.4834     6.6248
  2.5058196    10.7344     6.6123
  2.5092998    25.7936     6.9021
  2.5127873    11.2010     6.4415
  2.5162821    12.8464     6.4908
  2.5197842    23.2947     6.6809
  2.5232935    31.4323     7.0696
  2.5268102    18.9311     6.6834
  2.5303342    27.0473     6.7783
  2.5338657    30.9726     6.8421
  2.5374045    27.7616     6.6489
  2.5409508    22.8807     6.6953
  2.5445044    28.7492     6.6213
  2.5480657    16.7944     6.7656
  2.5516343     9.9838     6.5167
  2.5552103    22.1294     6.6651
  2.5587943    22.9150     6.6371
  2.5623856    19.3711     6.7767
  2.5659843     9.7729     6.7299
  2.5695906    24.0078     6.7464
  2.5732045    17.6288     6.6124
  2.5768261    20.1628     6.6359
  2.5804553    17.0749     6.5629
  2.5840924    19.3908     6.5577
  2.5877369    15.8284     6.6739
  2.5913892    17.4747     6.7955
  2.5950494    22.0477     6.8213
  2.5987172    19.6906     6.7673
  2.6023927    17.2598     6.4824
  2.6060762    19.1561     6.6094
  2.6097674    22.9705     6.6820
  2.6134667    27.4525     6.7214
  2.6171734    16.6124     6.7923
  2.6208885    30.4162     6.7456
  2.6246111    20.1957     6.7192
  2.6283417    14.8382     6.5260
  2.6320806    22.3444     6.8235
  2.6358273    17.9942     6.6230
  2.6395819    18.7358     6.6099
  2.6433446    17.3340     6.6713
  2.6471155     6.7838     6.6793
  2.6508942    29.9752     6.6735
  2.6546810    19.5967     6.4708
  2.6584759    21.0864     6.6056
  2.6622794    22.8494     6.6723
  2.6660907    21.3603     6.5893
  2.6699102    23.2815     6.6651
  2.6737378    24.8598     6.5240
  2.6775737    25.6348     6.7200
  2.6814182    26.6849     6.5212
  2.6852705    23.7228     6.8777
  2.6891315    23.2824     6.5608
  2.6930006    11.3912     6.4536
  2.6968780    21.1645     6.4842
  2.7007642    17.0639     6.6637
  2.7046585    14.9351     6.6623
  2.7085612    36.4499     6.6743
  2.7124722    11.3776     6.5185
  2.7163918    16.6790     6.5609
  2.7203202    20.8414     6.6026
  2.7242567    20.8614     6.4723
  2.7282021    26.7467     6.5905
  2.7321560    22.8462     6.5258
  2.7361186    19.8332     6.4997
  2.7400894    26.8286     6.5820
  2.7440691    14.8590     6.4559
  2.7480574    13.1244     6.5307
  2.7520547    12.4248     6.4711
  2.7560606    17.9102     6.4274
  2.7600751    19.1781     6.5941
  2.7640984    20.3845     6.5206
  2.7681303    15.8923     6.4386
  2.7721715    23.0056     6.4933
  2.7762213    27.0295     6.5088
  2.7802801    20.7241     6.3264
  2.7843475    31.3653     6.6335
  2.7884240    19.8911     6.2895
  2.7925098    13.6492     6.3961
  2.7966042    17.1107     6.6509
  2.8007078    15.4940     6.5944
  2.8048203     9.1313     6.4133
  2.8089418    29.9559     6.5390
  2.8130727    19.2400     6.4334
  2.8172123    15.2857     6.4215
  2.8213613    11.2190     6.4713
  2.8255198    22.7599     6.3873
  2.8296869    12.5915     6.4273
  2.8338635    15.2721     6.3125
  2.8380492    11.9517     6.3914
  2.8422444    22.0142     6.4446
  2.8464489    15.2509     6.4425
  2.8506627    18.1862     6.4890
  2.8548856    24.4172     6.5378
  2.8591182    21.3655     6.3971
  2.8633599    23.2603     6.4366
  2.8676117    14.8387     6.3645
  2.8718724    19.3117     6.5020
  2.8761427    26.0062     6.2916
  2.8804223    11.2550     6.2915
  2.8847117    24.3098     6.5376
  2.8890111    15.4310     6.4216
  2.8933196    24.7821     6.5633
  2.8976378    15.5202     6.3962
  2.9019659    25.4295     6.3066
  2.9063034    20.7631     6.4470
  2.9106510     9.7009     6.3027
  2.9150081    15.0195     6.5055
  2.9193749    11.9960     6.3311
  2.9237521    11.9804     6.4797
  2.9281385    19.5289     6.3869
  2.9325349    21.9303     6.3806
  2.9369414    20.1955     6.4169
  2.9413576    13.1524     6.4014
  2.9457843    12.1863     6.2983
  2.9502206     9.5894     6.2877
  2.9546669    22.5247     6.3178
  2.9591231    19.6756     6.4359
  2.9635897    19.3073     6.2992
  2.9680664    23.5974     6.3709
  2.9725530     9.0584     6.2674
  2.9770501    20.7720     6.3149
  2.9815571    14.1342     6.4448
  2.9860744    15.7895     6.3654
  2.9906025    22.1879     6.3571
  2.9951403    18.9292     6.4672
  2.9996886    16.7305     6.4086
  3.0042472    16.4926     6.3930
  3.0088162    23.9651     6.3649
  3.0133960    12.2400     6.3990
  3.0179858    17.1295     6.2735
  3.0225864    20.6957     6.1916
  3.0271974    25.2702     6.4525
  3.0318189    20.6605     6.4491
  3.0364511     8.1536     6.1079
  3.0410938    23.4197     6.4785
  3.0457473    24.9059     6.4838
  3.0504117    20.4672     6.3778
  3.0550864    24.6255     6.3399
  3.0597720    12.1573     6.2273
  3.0644684    28.9096     6.2458
  3.0691755    28.2319     6.4647
  3.0738938    20.2737     6.2361
  3.0786226    25.9986     6.3682
  3.0833626    17.1334     6.1562
  3.0881133    18.4122     6.1738
  3.0928750    19.9244     6.3638
  3.0976481    11.7211     6.0572
  3.1024320    23.0053     6.4363
  3.1072269    21.5909     6.2096
  3.1120329    16.6691     6.2356
  3.1168501    15.2213     6.0760
  3.1216788    11.6644     6.1112
  3.1265185    21.3595     6.1979
  3.1313693    12.7065     6.2106
  3.1362317    12.2252     6.2241
  3.1411052    13.7764     6.2727
  3.1459904    16.8758     6.2177
  3.1508865    28.4794     6.3152
  3.1557944    15.2218     6.1874
  3.1607139     8.7413     6.2420
  3.1656446    21.1804     6.3072
  3.1705868    29.6430     6.3071
  3.1755407    19.7407     6.2001
  3.1805062     9.7916     6.1805
  3.1854837     7.4097     6.2068
  3.1904726    20.9450     6.2195
  3.1954730    18.0731     6.2033
  3.2004855    16.5701     6.1862
  3.2055094    15.3091     6.0958
  3.2105458    25.3529     6.0939
  3.2155936    13.0744     6.3021
  3.2206533    16.1370     6.2451
  3.2257252    24.2532     6.2583
  3.2308087    20.6883     6.0173
  3.2359049    20.4906     6.1796
  3.2410126    27.0088     6.2840
  3.2461326     8.4494     6.0893
  3.2512646    21.1428     6.1143
  3.2564087    13.3758     5.9940
  3.2615655    25.1538     6.1202
  3.2667341    23.2350     6.2265
  3.2719152    10.4535     6.0739
  3.2771089    25.8217     6.1829
  3.2823145     7.6167     6.0429
  3.2875326    15.8901     6.0648
  3.2927632    18.9264     5.9979
  3.2980063    16.2778     6.1740
  3.3032622    18.3047     6.1294
  3.3085303    30.1034     6.4281
  3.3138111    17.6732     6.1180
  3.3191047    20.8596     6.0112
  3.3244107     9.9209     6.0592
  3.3297298    13.5715     6.1213
  3.3350615    25.9339     6.1343
  3.3404059    17.5418     6.0673
  3.3457632    16.7443     6.0385
  3.3511336    10.4929     6.0761
  3.3565171    20.6705     6.1162
  3.3619132    19.3411     6.0697
  3.3673222    24.6831     6.3146
  3.3727446    17.4462     6.1666
  3.3781798    16.8659     6.1817
  3.3836286    20.9211     6.1418
  3.3890903    18.9915     6.3717
  3.3945651    21.7738     6.1311
  3.4000537    21.2377     6.2120
  3.4055552    21.8219     6.2645
  3.4110701    23.6087     6.2336
  3.4165983    21.7077     6.1780
  3.4221401    27.3852     6.3259
  3.4276955    17.6941     6.2597
  3.4332643    21.1483     6.1570
  3.4388466    13.2567     6.0884
  3.4444427    30.1226     6.3909
  3.4500523    24.4598     6.2084
  3.4556761    29.4670     6.2295
  3.4613130    24.7333     6.2356
  3.4669640    33.3189     6.4287
  3.4726288    11.5476     5.9242
  3.4783075    27.7222     6.2087
  3.4840004    23.3298     6.0777
  3.4897070    21.2220     6.2786
  3.4954276    24.5766     6.1240
  3.5011623    25.3678     6.1800
  3.5069110    19.0747     6.2116
  3.5126743    18.8386     6.2128
  3.5184517    24.3647     6.1780
  3.5242431    14.3328     6.0847
  3.5300493    36.4418     6.3695
  3.5358694    22.1474     6.2160
  3.5417039    28.0309     6.2403
  3.5475528    11.2938     6.0538
  3.5534165    20.8181     5.9556
  3.5592949    12.3572     5.9918
  3.5651874    14.1888     6.1171
  3.5710947    19.1946     6.1536
  3.5770168    21.4954     6.1486
  3.5829535    18.6164     6.1069
  3.5889053    25.0978     6.1279
  3.5948718    25.7498     6.0943
  3.6008530    21.7723     6.2501
  3.6068492    16.8843     6.1661
  3.6128604    20.3869     6.1569
  3.6188869    21.4412     6.0726
  3.6249282    19.7423     6.0794
  3.6309848    31.9571     6.0740
  3.6370563    25.0245     6.1709
  3.6431434    17.9839     6.0140
  3.6492460    27.3984     6.2089
  3.6553633    10.2316     5.9619
  3.6614964    31.3733     6.1209
  3.6676450    25.8052     6.3008
  3.6738091    19.3028     6.0693
  3.6799884    23.5663     6.1652
  3.6861835    22.2286     6.1932
  3.6923940    26.4858     6.1341
  3.6986208    20.2780     6.1783
  3.7048631    27.0996     6.2620
  3.7111211    27.5844     6.1856
  3.7173948    27.7910     6.0921
  3.7236846    25.9591     6.3636
  3.7299907    18.7736     6.0332
  3.7363126    19.5888     6.1682
  3.7426503    20.1164     6.1601
  3.7490044    29.2853     6.1299
  3.7553747    33.8646     6.2244
  3.7617614    31.9400     6.1086
  3.7681642    26.9149     6.1948
  3.7745833    27.1528     6.0004
  3.7810187    36.6497     6.2611
  3.7874708    28.9886     6.0809
  3.7939398    31.5698     6.1162
  3.8004248    18.2754     6.0858
  3.8069267    33.7329     6.2529
  3.8134451    33.2854     6.2071
  3.8199804    22.2990     6.1524
  3.8265326    24.6333     6.1999
  3.8331015    10.9957     6.1255
  3.8396874    21.9203     6.0578
  3.8462906    23.9258     6.1987
  3.8529105    25.0954     6.0540
  3.8595476    24.5242     6.1966
  3.8662016    28.8496     6.1336
  3.8728731    17.0549     6.0150
  3.8795621    23.0929     6.2525
  3.8862681    43.1029     6.2755
  3.8929913    25.0890     6.2587
  3.8997323    28.0005     6.1633
  3.9064906    24.7649     6.0113
  3.9132669    30.3227     6.2163
  3.9200606    28.5429     6.1477
  3.9268720    18.9616     6.0254
  3.9337010    22.3013     6.1996
  3.9405479    25.9992     5.8870
  3.9474132    27.4928     6.2095
  3.9542959    20.3721     6.1706
  3.9611967    35.5583     6.1792
  3.9681156    28.9705     6.2545
  3.9750526    26.9428     6.0607
  3.9820082    33.8387     6.2180
  3.9889815    22.5919     6.0698
  3.9959733    41.6742     6.3526
  4.0029841    26.0321     6.1825
  4.0100126    33.4314     6.2434
  4.0170598    29.4654     6.1979
  4.0241256    29.9620     6.1320
  4.0312100    32.8365     6.1298
  4.0383139    25.4352     6.0513
  4.0454359    31.4388     6.2261
  4.0525765    33.0385     6.3038
  4.0597363    28.4183     6.1346
  4.0669150    30.8551     6.1837
  4.0741134    32.0435     6.2060
  4.0813303    24.0335     6.0459
  4.0885663    41.8837     6.3933
  4.0958219    19.6475     6.0339
  4.1030965    23.3633     6.1382
  4.1103907    22.0889     6.1137
  4.1177044    32.4809     6.1657
  4.1250377    35.0083     6.1213
  4.1323905    26.1199     6.1706
  4.1397629    28.0715     6.0909
  4.1471553    20.3531     6.1584
  4.1545672    26.2948     6.0804
  4.1619992    34.6153     6.1469
  4.1694512    25.2094     6.1021
  4.1769233    31.8444     6.0028
  4.1844153    29.6957     6.0960
  4.1919274    40.8441     6.1764
  4.1994596    28.2419     6.0503
  4.2070127    33.5526     6.0580
  4.2145858    18.5371     6.0522
  4.2221794    33.8416     6.1018
  4.2297936    34.5583     6.0712
  4.2374282    36.7222     6.1293
  4.2450838    27.1082     5.8944
  4.2527604    49.5570     6.3090
  4.2604570    28.3205     6.0283
  4.2681751    32.1161     6.0414
  4.2759142    39.8424     6.0829
  4.2836742    39.8508     6.2734
  4.2914557    38.9646     6.1959
  4.2992578    28.7366     6.0214
  4.3070817    46.4932     6.3411
  4.3149266    32.9573     6.1980
  4.3227935    36.5441     6.1264
  4.3306813    21.7190     5.9746
  4.3385911    44.4880     6.1817
  4.3465228    31.0303     5.9673
  4.3544760    38.0045     6.1490
  4.3624506    50.3173     6.2601
  4.3704476    47.9684     6.2349
  4.3784666    32.0128     6.1485
  4.3865080    52.4046     6.3103
  4.3945708    44.7098     6.2758
  4.4026566    42.2027     6.1703
  4.4107642    49.5568     6.3296
  4.4188943    35.5343     6.0055
  4.4270473    50.4891     6.2716
  4.4352226    54.4709     6.3573
  4.4434204    46.8416     6.2416
  4.4516411    45.7296     6.2808
  4.4598842    55.2791     6.3932
  4.4681511    63.1265     6.4597
  4.4764404    69.2648     6.5605
  4.4847531    42.0339     6.0771
  4.4930887    60.0929     6.4666
  4.5014477    64.8625     6.3359
  4.5098305    60.3469     6.3613
  4.5182362    65.7773     6.4725
  4.5266652    66.2873     6.2984
  4.5351186    58.3596     6.3495
  4.5435948    74.2538     6.4972
  4.5520954    59.3566     6.3939
  4.5606193    51.3396     6.4373
  4.5691676    70.8319     6.5473
  4.5777402    71.0146     6.6075
  4.5863366    58.0395     6.3248
  4.5949573    66.7241     6.5097
  4.6036024    67.7362     6.4463
  4.6122718    63.7640     6.3392
  4.6209660    76.1021     6.5237
  4.6296845    73.4888     6.5264
  4.6384277    74.1285     6.3458
  4.6471953    79.1577     6.5816
  4.6559882    55.4875     6.4000
  4.6648064    73.8182     6.4262
  4.6736493    90.7732     6.7297
  4.6825175    90.4659     6.7203
  4.6914110    99.8304     6.9448
  4.7003293    90.4812     6.6813
  4.7092743   100.6058     6.8832
  4.7182436    89.2407     6.9094
  4.7272391   100.6358     6.7749
  4.7362609   116.1883     7.1086
  4.7453075    95.0687     6.7597
  4.7543807   116.4207     7.1527
  4.7634792   106.5542     6.9595
  4.7726045   127.8948     7.2722
  4.7817564   105.8576     6.7984
  4.7909341   118.5531     7.0857
  4.8001380   126.0605     7.3597
  4.8093686   166.9504     7.8151
  4.8186259   140.4895     7.3655
  4.8279109   158.2426     7.6640
  4.8372216   186.0111     8.0770
  4.8465595   176.8465     7.9418
  4.8559246   175.4759     7.9242
  4.8653164   197.1228     8.0862
  4.8747363   204.5934     8.2922
  4.8841834   199.2676     8.2893
  4.8936577   219.5244     8.5726
  4.9031591   233.5949     8.7319
  4.9126887   262.6723     9.0783
  4.9222469   239.0969     8.8662
  4.9318323   286.5972     9.4048
  4.9414454   273.6878     9.2209
  4.9510875   291.9444     9.4963
  4.9607573   318.1151     9.8514
  4.9704552   299.5714     9.5797
  4.9801817   363.4147    10.4050
  4.9899368   359.9529    10.3691
  4.9997210   402.7369    10.9546
  5.0095339   429.9242    11.3234
  5.0193753   425.6183    11.2966
  5.0292458   457.3329    11.7173
  5.0391455   520.4025    12.5193
  5.0490751   571.4147    13.1432
  5.0590334   548.3549    12.9114
  5.0690212   564.3342    13.1113
  5.0790386   616.5513    13.7680
  5.0890856   696.9966    14.8862
  5.0991631   724.1432    15.2427
  5.1092701   785.4390    16.0303
  5.1194072   849.2227    16.8513
  5.1295743   902.9329    17.5041
  5.1397719  1007.7650    18.8742
  5.1500006  1045.2961    19.3284
  5.1602588  1162.0381    20.8711
  5.1705480  1305.0021    22.6686
  5.1808682  1411.6180    24.0420
  5.1912193  1588.4482    26.3171
  5.2016015  1773.5670    28.6749
  5.2120152  1909.7180    30.4394
  5.2224598  2132.9622    33.3002
  5.2329354  2388.0652    36.5929
  5.2434430  2639.1670    39.8033
  5.2539825  2934.5320    43.6035
  5.2645535  3323.7151    48.5861
  5.2751565  3663.1565    52.9576
  5.2857914  4017.5142    57.5069
  5.2964587  4276.8242    60.8528
  5.3071585  4679.0571    66.0318
  5.3178906  4870.3359    68.5240
  5.3286552  4955.9424    69.6629
  5.3394523  5127.0254    71.8926
  5.3502827  5073.4912    71.2584
  5.3611460  4972.5854    70.0148
  5.3720422  4935.0562    69.5738
  5.3829718  4742.4346    67.1505
  5.3939347  4490.5693    63.9557
  5.4049311  4231.0688    60.6592
  5.4159617  3831.4377    55.5445
  5.4270253  3443.3792    50.5593
  5.4381232  3066.6350    45.7156
  5.4492550  2727.7451    41.3549
  5.4604211  2358.8286    36.6086
  5.4716220  2014.5721    32.1684
  5.4828567  1769.7975    28.9810
  5.4941263  1519.2936    25.6701
  5.5054307  1279.6768    22.6185
  5.5167704  1147.1539    20.8770
  5.5281448   985.3918    18.7595
  5.5395541   865.9599    17.1154
  5.5509992   778.6099    15.9796
  5.5624800   695.6608    14.8424
  5.5739961   609.0707    13.6942
  5.5855479   579.1848    13.2772
  5.5971360   509.2424    12.3571
  5.6087599   461.4011    11.6517
  5.6204200   430.3750    11.2475
  5.6321173   383.0893    10.6242
  5.6438503   360.5044    10.2440
  5.6556201   344.8394    10.1362
  5.6674271   314.8755     9.7272
  5.6792707   312.9729     9.6650
  5.6911516   296.0260     9.4634
  5.7030697   272.8336     9.0341
  5.7150254   255.0341     8.8507
  5.7270188   237.8622     8.5455
  5.7390504   232.3698     8.4304
  5.7511191   222.4972     8.3947
  5.7632265   225.0296     8.3367
  5.7753716   199.6690     7.9496
  5.7875557   209.3693     8.1483
  5.7997785   189.4421     7.8648
  5.8120398   204.7027     8.0734
  5.8243399   182.7184     7.7478
  5.8366795   196.3628     8.0122
  5.8490582   191.2407     7.9107
  5.8614759   201.8962     8.0665
  5.8739333   199.2400     7.9753
  5.8864307   209.2266     8.0832
  5.8989682   207.4588     8.0496
  5.9115458   205.6358     8.0809
  5.9241629   231.9921     8.4797
  5.9368210   237.3812     8.4810
  5.9495201   232.8773     8.5094
  5.9622598   261.2922     8.9364
  5.9750400   290.2844     9.3350
  5.9878612   314.1218     9.6814
  6.0007238   352.0677    10.1404
  6.0136285   394.6193    10.8755
  6.0265746   458.0658    11.6794
  6.0395627   525.7406    12.6620
  6.0525923   611.8811    13.8650
  6.0656643   677.7760    14.7577
  6.0787787   725.6224    15.4127
  6.0919361   776.1300    16.1004
  6.1051359   810.3812    16.5505
  6.1183786   803.4191    16.4673
  6.1316647   787.2929    16.2516
  6.1449943   722.8190    15.3208
  6.1583672   642.1409    14.2633
  6.1717835   568.5326    13.1832
  6.1852436   499.0388    12.2751
  6.1987481   386.9242    10.6508
  6.2122970   322.4822     9.6472
  6.2258902   270.8434     9.0691
  6.2395277   212.3474     8.1009
  6.2532105   184.0825     7.7537
  6.2669382   156.2113     7.3187
  6.2807116   132.3608     6.9647
  6.2945299   114.0253     6.7615
  6.3083940   118.5312     6.7924
  6.3223043    95.8014     6.3262
  6.3362603    75.9479     6.1413
  6.3502626    71.3378     6.0138
  6.3643112    61.5659     5.9820
  6.3784065    61.2088     5.9228
  6.3925490    57.7718     5.7852
  6.4067388    59.4413     5.7559
  6.4209752    52.5470     5.6606
  6.4352593    53.3667     5.7036
  6.4495916    51.5424     5.5733
  6.4639716    48.4422     5.5555
  6.4783998    42.8110     5.5158
  6.4928756    45.2097     5.4885
  6.5074005    44.1198     5.4138
  6.5219746    34.7264     5.2259
  6.5365977    44.3660     5.5192
  6.5512695    24.0495     5.2151
  6.5659905    34.1931     5.3337
  6.5807614    44.0475     5.4287
  6.5955830    27.4696     5.2433
  6.6104541    31.4564     5.2851
  6.6253757    36.5162     5.3055
  6.6403475    34.8842     5.2807
  6.6553707    41.7434     5.3566
  6.6704450    31.6096     5.2419
  6.6855698    30.4196     5.1732
  6.7007465    29.8681     5.2557
  6.7159748    28.0351     5.1433
  6.7312555    35.1798     5.2851
  6.7465882    28.0341     5.0847
  6.7619734    25.7537     4.9605
  6.7774105    25.5126     5.1282
  6.7929015    22.7626     4.9616
  6.8084459    32.1579     5.0554
  6.8240428    25.4102     5.1369
  6.8396935    30.0956     5.1234
  6.8553982    31.2425     5.0746
  6.8711576    15.0824     4.8127
  6.8869710    24.1931     5.0485
  6.9028392    24.5055     4.9234
  6.9187617    23.2246     5.0098
  6.9347396    24.5704     5.1155
  6.9507737    17.4735     4.9480
  6.9668632    19.3539     4.8522
  6.9830079    24.3909     5.0147
  6.9992089    16.3108     5.0100
  7.0154672    24.5713     4.9899
  7.0317817    14.8922     4.8555
  7.0481529    23.7897     5.0775
  7.0645814    29.9362     4.9712
  7.0810676    16.9911     4.7588
  7.0976119    12.6054     4.7916
  7.1142139    21.3285     4.8670
  7.1308742    33.4700     5.0221
  7.1475930    25.5956     5.0383
  7.1643710    29.5462     4.9826
  7.1812081    29.1813     4.8839
  7.1981044    12.4157     4.8837
  7.2150602    20.1613     4.8047
  7.2320762     8.7553     4.6571
  7.2491527    11.7096     4.7944
  7.2662897    20.9169     4.7520
  7.2834873    22.0724     4.8661
  7.3007460    22.1872     4.8396
  7.3180661    19.5819     4.8826
  7.3354483    19.8049     4.9000
  7.3528924    16.1961     4.7839
  7.3703985    22.6606     4.9507
  7.3879671    19.3523     4.8564
  7.4055991    16.9945     4.8481
  7.4232945     8.7595     4.6812
  7.4410529    23.9874     4.9754
  7.4588747    16.5996     4.7830
  7.4767609    11.4065     4.7440
  7.4947119    17.8383     4.7762
  7.5127277    20.8433     4.8656
  7.5308080    17.8290     4.8709
  7.5489535     6.9456     4.7066
  7.5671649    20.5387     4.8935
  7.5854430    14.1429     4.8323
  7.6037869    22.0099     4.7663
  7.6221971    15.5270     4.8359
  7.6406741    27.6265     5.0128
  7.6592193    18.6689     4.8236
  7.6778316    15.0819     4.7473
  7.6965118    18.5830     4.7479
  7.7152600    26.4079     4.8681
  7.7340765    19.9960     4.7967
  7.7529631    23.0872     4.8352
  7.7719183    28.5417     4.9637
  7.7909432    20.5270     4.7902
  7.8100376    24.5464     4.8173
  7.8292031    24.6966     4.8203
  7.8484387    26.0046     4.8631
  7.8677454    18.4182     4.8479
  7.8871231    26.4523     4.9313
  7.9065723    24.4107     4.8919
  7.9260945    26.1909     4.9349
  7.9456887    24.8396     4.8709
  7.9653554    19.8287     4.7884
  7.9850950    28.0445     4.8923
  8.0049086    35.0651     4.9603
  8.0247955    27.5492     4.9098
  8.0447578    27.7908     4.8816
  8.0647936    40.9169     5.1679
  8.0849037    47.4087     5.1364
  8.1050911    33.2967     5.0529
  8.1253529    40.0998     5.0963
  8.1456909    28.7505     4.9352
  8.1661053    40.5698     5.1034
  8.1865959    49.1497     5.1746
  8.2071648    48.7505     5.2664
  8.2278118    47.5959     5.2482
  8.2485352    46.4437     5.2362
  8.2693377    49.2409     5.3115
  8.2902193    51.1637     5.2888
  8.3111801    55.4521     5.2909
  8.3322201    65.6593     5.4567
  8.3533401    64.2906     5.4562
  8.3745403    69.8171     5.5597
  8.3958225    79.7338     5.7186
  8.4171848    90.0103     5.8070
  8.4386292   101.1904     5.9362
  8.4601555   103.9345     5.9940
  8.4817638   110.0223     6.0257
  8.5034561   112.9608     6.1721
  8.5252314   140.8854     6.5742
  8.5470896   154.0087     6.6458
  8.5690327   171.0496     6.9430
  8.5910597   183.2830     7.1583
  8.6131735   202.0691     7.3332
  8.6353712   213.1029     7.6056
  8.6576548   245.6386     8.0633
  8.6800241   258.2740     8.2473
  8.7024822   272.1412     8.4594
  8.7250271   313.4384     9.0292
  8.7476587   347.8119     9.5534
  8.7703791   418.5765    10.5527
  8.7931871   466.6570    11.3088
  8.8160858   559.8610    12.6353
  8.8390741   657.5600    14.0911
  8.8621512   777.2465    15.8501
  8.8853188  1007.8230    19.2202
  8.9085789  1232.9504    22.5135
  8.9319296  1565.8021    27.3760
  8.9553719  1914.5436    32.4695
  8.9789057  2300.4539    38.1116
  9.0025339  2607.3955    42.6056
  9.0262556  2814.2275    45.6158
  9.0500708  2783.9807    45.1802
  9.0739794  2550.3435    41.7444
  9.0979834  2210.8618    36.7628
  9.1220837  1787.3184    30.5347
  9.1462793  1356.8992    24.2354
  9.1705713  1017.6996    19.2332
  9.1949596   725.5681    14.9637
  9.2194462   510.5041    11.7695
  9.2440300   389.8019     9.9594
  9.2687140   286.4562     8.4890
  9.2934952   237.4683     7.6664
  9.3183756   197.3157     7.1080
  9.3433571   165.6441     6.6107
  9.3684387   150.3673     6.3267
  9.3936224   139.1398     6.1665
  9.4189062   128.9108     5.9350
  9.4442930   118.7580     5.8496
  9.4697828   102.8570     5.5841
  9.4953766    94.9913     5.4858
  9.5210733   102.4049     5.5410
  9.5468740    98.3048     5.5193
  9.5727806   109.0636     5.6277
  9.5987930   108.3270     5.6828
  9.6249113   118.5378     5.7661
  9.6511354   116.3233     5.7342
  9.6774674   127.6288     5.9277
  9.7039080   162.9231     6.4428
  9.7304573   191.0845     6.8568
  9.7571144   232.4869     7.4847
  9.7838812   309.0682     8.5662
  9.8107586   389.4539     9.7303
  9.8377476   457.2509    10.7833
  9.8648481   521.4763    11.7380
  9.8920603   533.8170    11.9535
  9.9193850   498.7908    11.3672
  9.9468231   394.3974     9.8973
  9.9743757   327.7312     8.8527
 10.0020437   239.0179     7.5323
 10.0298252   160.2989     6.4109
 10.0577231   112.6266     5.6803
 10.0857382    92.4589     5.3809
 10.1138706    84.5237     5.2169
 10.1421204    80.4825     5.1494
 10.1704884    69.8371     5.0198
 10.1989756    77.3768     4.9974
 10.2275839    86.8374     5.2312
 10.2563124    90.6537     5.2999
 10.2851610   121.5078     5.7113
 10.3141317   154.1554     6.3043
 10.3432255   172.3399     6.5353
 10.3724432   195.5241     6.8708
 10.4017839   199.5654     6.8759
 10.4312487   171.5963     6.4666
 10.4608393   119.1540     5.7728
 10.4905567    99.2164     5.4126
 10.5204010    68.5993     4.9231
 10.5503721    46.5753     4.6743
 10.5804720    41.8722     4.4588
 10.6106997    25.6416     4.3340
 10.6410589    24.1460     4.2065
 10.6715479    23.4585     4.1992
 10.7021675    20.4830     4.2650
 10.7329197    15.0598     4.1768
 10.7638044    23.6712     4.2363
 10.7948237    19.6139     4.1917
 10.8259754    14.6431     4.2073
 10.8572626    13.2755     4.1429
 10.8886862     6.3395     4.0032
 10.9202461    12.7526     3.9992
 10.9519444    16.9070     4.1751
 10.9837799    10.4179     4.0040
 11.0157538    12.2517     4.0519
 11.0478678    13.9180     4.0676
 11.0801239    15.5233     4.1521
 11.1125212     8.0022     4.0266
 11.1450596     7.6199     3.9162
 11.1777411     9.8130     4.0103
 11.2105675    11.3657     4.0455
 11.2435389     6.1574     4.0849
 11.2766552    14.6322     4.0741
 11.3433285     3.8217     2.3051
 11.4105949    14.1771     4.0477
 11.4444523    11.1685     3.9883
 11.4784603     8.4300     3.9931
 11.5126219     7.1443     4.0143
 11.5469360    11.5050     4.0199
 11.5814018    13.0166     3.9980
 11.6160231    11.0047     4.0371
 11.6507997     8.0692     4.0643
 11.6857338    10.5686     3.9025
 11.7208252    13.9186     4.0479
 11.7560739     6.4111     3.8960
 11.7914810    12.1847     4.0686
 11.8270493     9.7085     3.9766
 11.8627796     7.8356     4.0023
 11.8986721     5.0948     3.8758
 11.9347267     9.3797     3.9828
 12.0255842     3.3560     1.9706
 12.1359892     5.8560     2.7745
 12.2104397     4.4213     2.7855
 12.2855778     3.0485     2.7732
 12.3423872     4.1733     3.8923
 12.3804798     8.1262     4.0080
 12.4187479    10.0799     3.8863
 12.4571934    10.8684     3.9282
 12.4958181     5.1575     3.8316
 12.5346241     9.5108     3.9751
 12.5736113     8.1238     3.8782
 12.6127787     5.8764     3.9781
 12.6521301    10.4691     4.0268
 12.7513180     2.3398     1.9359
 12.9124632     3.6031     1.9225
 13.0147352     8.3730     3.9777
 13.0766830     4.6367     2.7595
 13.1599703     4.0914     2.7193
 13.2440557     3.0689     2.7014
 13.3076496     6.7657     3.8196
 13.3502998     5.4098     3.8906
 13.3931551    11.4586     3.8778
 13.4362173     5.1796     3.8292
 13.5447874     2.6665     1.9115
 13.6768179     4.3603     2.7338
 13.7883234     3.7793     2.1897
 13.9011974     4.2825     2.6698
 14.4387045     0.8758     0.7970
 15.1362123     1.5866     1.3621
 15.3447952     7.2345     3.5882
 15.4241247     3.6906     2.5389
 15.5040741     7.4116     3.6022
 15.6658468     1.6911     1.5877
 15.8855104     3.2805     2.0373
 15.9970799     6.8869     3.4998
 16.0533066     8.0176     3.5234
 16.1382027     5.7614     2.5111
 16.2237740     8.7547     3.5650
 16.2812004     6.1573     3.4654
 16.5139809     2.0649     1.3154
 16.7517891     3.5025     3.4489
 16.9030380     1.9335     1.7361
 17.1182518     3.4521     1.9716
 17.2430821     8.2341     3.4659
 17.3060093    11.7959     3.5230
 17.3692818     9.1658     3.4213
 17.4329033     3.5161     3.4383
 17.5289898     5.1658     2.4467
 17.6258736     7.0378     3.5292
 17.6909123     8.8635     3.4938
 17.7563095     9.1647     3.4509
 17.8220692     8.3363     3.4204
 17.8881950    17.6787     3.5056
 17.9546909    17.9160     3.5206
 18.0215588    20.3589     3.6099
 18.0887985    15.1888     3.5742
 18.1564159    26.9174     3.6848
 18.2244129    28.3821     3.7094
 18.2927952    31.6639     3.7360
 18.3615608    36.1708     3.8080
 18.4307156    36.1114     3.7900
 18.5002613    45.7683     3.9027
 18.5702019    46.3252     3.9844
 18.6405411    64.0632     4.1895
 18.7112770    72.1087     4.3597
 18.7824192    92.3049     4.5761
 18.8539658   128.8786     5.1861
 18.9259243   176.0157     5.9666
 18.9982967   266.4828     7.4816
 19.0710812   458.7612    10.7178
 19.1442852   678.6718    14.5441
 19.2179127   764.6063    16.0512
 19.2919674   639.7428    13.8798
 19.3664494   344.2622     8.7905
 19.4413624   175.6783     5.8979
 19.5167122    88.1965     4.5185
 19.5925026    66.2352     4.1750
 19.6687336    63.3377     4.0609
 19.7454109    70.4132     4.2355
 19.8032112    81.4740     6.0648
 19.8418865   107.1900     6.4249
 19.8806763   102.4422     6.3870
 19.9195805   132.9257     6.8168
 19.9585972   165.5344     7.5538
 19.9977283   212.3205     8.3519
 20.0369759   252.8917     9.0674
 20.0763397   342.8053    10.7055
 20.1158180   412.5238    11.9725
 20.1554146   492.8497    13.3867
 20.1951256   512.7843    13.7816
 20.2349567   471.9665    13.0677
 20.2749062   447.3944    12.5521
 20.3149719   349.5093    10.8942
 20.3551579   253.3518     9.0920
 20.3954620   170.5091     7.5684
 20.4358864   100.1053     6.3775
 20.4764328    77.6377     5.7894
 20.5170975    40.8343     5.1206
 20.5578842    34.7372     5.0473
 20.5987930    28.4683     4.9735
 20.6398239    20.1826     4.8625
 20.6809788    12.0710     4.6637
 20.7222557    17.1021     4.7726
 20.7636547    21.2979     4.7163
 20.8051815    15.0287     4.6576
 20.8468323     6.5125     4.5184
 20.8886051     9.8831     4.5973
 20.9305057     8.7617     4.5762
 20.9725323    14.0608     4.7218
 21.0146847    11.9707     4.6322
 21.0781555     7.5419     3.1974
 21.1419125     7.4733     4.5013
 21.1845760     7.7209     4.4539
 21.2273712    11.5445     4.6941
 21.2702942     4.5106     4.4188
 21.3349266     5.5993     3.2017
 21.3998528     5.6587     4.5361
 21.4433003     9.0477     4.3519
 21.4868832    18.0953     4.6222
 21.5305977     8.7872     4.5400
 21.6625443     3.7632     1.9847
 21.8180199     6.4830     3.1781
 21.9076157     3.3665     3.1270
 21.9751759     7.7968     4.3592
 22.0203896    11.6010     4.5136
 22.0657425    11.8899     4.5171
 22.1112366     6.8285     4.3940
 22.1568718     6.2504     4.4114
 22.2026463     6.2599     4.2578
 22.2485638     9.7269     4.5623
 22.3177090     5.4893     3.0815
 22.3871765    15.9150     4.5493
 22.4336681    10.5415     4.5254
 22.4803047    15.7193     4.5210
 22.5270863     8.8893     4.3769
 22.5740166    19.2593     4.3873
 22.6210918    13.8481     4.4567
 22.6683140     7.5615     4.5259
 22.7156830    11.5701     4.3604
 22.7632046     8.5469     4.3106
 22.8108730    16.7117     4.4613
 22.8586903    19.5308     4.4465
 22.9066601    23.5741     4.4768
 22.9547787    11.7903     4.3308
 23.0030518    13.4985     4.5848
 23.0514774    23.1238     4.5525
 23.1000538    15.4666     4.6295
 23.1487846    18.5797     4.5264
 23.1976719    28.1457     4.6223
 23.2467136    22.1405     4.6601
 23.2959080    26.6840     4.7004
 23.3452606    21.1320     4.6055
 23.3947697    24.2316     4.6841
 23.4444370    25.0985     4.7116
 23.4942646    31.9675     4.7864
 23.5442486    21.2489     4.7159
 23.5943909    43.2294     4.8758
 23.6446972    51.3053     4.9837
 23.6951637    48.9357     5.0899
 23.7457905    53.7983     5.1523
 23.7965794    54.1323     5.1604
 23.8475323    61.4239     5.3182
 23.8986492    81.4790     5.7099
 23.9499321    88.4331     5.8842
 24.0013790   116.9577     6.3445
 24.0529900   126.4990     6.5426
 24.1047688   161.2404     7.1459
 24.1567173   174.2371     7.3409
 24.2088318   167.9870     7.3019
 24.2611141   138.5630     6.7424
 24.3135681   131.2445     6.6323
 24.3661919   109.4554     6.3855
 24.4189873   109.7822     6.3200
 24.4719524   112.4813     6.3517
 24.5250912   116.7783     6.4548
 24.5784016   142.2650     6.8850
 24.6318893   169.5343     7.3250
 24.6855507   191.0553     7.7394
 24.7393856   233.5496     8.4857
 24.7933979   289.7455     9.5442
 24.8475876   357.5113    10.7595
 24.9019547   453.2285    12.5717
 24.9565029   614.0281    15.5099
 25.0112267   825.6556    19.4068
 25.0661335  1064.8821    23.8510
 25.1212196  1303.3964    28.2975
 25.1764908  1440.5750    30.8192
 25.2319412  1425.1969    30.5757
 25.2875748  1179.6108    26.0094
 25.3433914   876.6138    20.3673
 25.3993969   563.5923    14.5813
 25.4555874   308.7191     9.8127
 25.5119629   178.8208     7.3575
 25.5685272   113.6893     6.2993
 25.6252804    83.0833     5.6359
 25.6822224    57.8004     5.2579
 25.7393532    38.9944     4.8433
 25.7966747    40.6625     4.9494
 25.8541870    30.8181     4.7070
 25.9118938    35.2412     4.8146
 25.9697952    21.9457     4.5740
 26.0278893    18.0463     4.6945
 26.0861778    14.3851     4.6131
 26.1446609    16.4762     4.5863
 26.2033443    12.6751     4.4945
 26.2622261     8.5276     4.4875
 26.3213043     8.0454     4.4577
 26.3805809    14.1109     4.3800
 26.4400616    13.9005     4.4429
 26.4997425    20.2451     4.4925
 26.5596237    22.5964     4.4699
 26.6197090    15.1939     4.4361
 26.6799984    12.4759     4.3967
 26.7404938    29.8520     4.5103
 26.8011951    19.8076     4.3323
 26.8621025    28.8878     4.6532
 26.9232178    28.2422     4.5101
 26.9845429    21.8058     4.4613
 27.0460777    18.1312     4.4031
 27.1078224    18.4873     4.3396
 27.1697769    21.7509     4.3981
 27.2319450    13.5334     4.3258
 27.2943306    13.5066     4.3352
 27.3569279     7.6316     4.1316
 27.4197407    24.3964     4.3696
 27.4827690    19.6621     4.4134
 27.5460148    24.1407     4.4755
 27.6094818    21.8589     4.4647
 27.6731682    25.4641     4.6008
 27.7370739    24.5277     4.5317
 27.8012009    38.1742     4.7607
 27.8655510    28.2195     4.6581
 27.9301262    29.7859     4.6386
 27.9949246    30.2579     4.6652
 28.0599480    33.0589     4.7768
 28.1251984    34.3939     4.7422
 28.1906795    34.4460     4.6665
 28.2563877    47.8583     4.9442
 28.3223248    46.8187     4.9988
 28.3884926    54.0668     5.0213
 28.4548931    61.4420     5.2182
 28.5215302    66.0255     5.2865
 28.5883999    63.8418     5.1977
 28.6555023    74.7980     5.4883
 28.7228432    81.1092     5.4649
 28.7904224    83.1118     5.5024
 28.8582401    94.2701     5.7922
 28.9262962    96.1155     5.8528
 28.9945946   117.4979     6.2388
 29.0631332   133.0610     6.5375
 29.1319179   144.6927     6.8150
 29.2009468   177.7473     7.3676
 29.2702198   203.8627     7.8571
 29.3397408   240.6286     8.6333
 29.4095097   327.0174    10.2903
 29.4795284   423.3543    12.1541
 29.5497952   525.7232    14.1693
 29.6203156   752.2070    18.5652
 29.6910858   975.9816    22.9832
 29.7621136  1295.5741    29.3040
 29.8333969  1480.9261    32.9753
 29.9049339  1562.2477    34.5686
 29.9767284  1317.6532    29.7418
 30.0487804   941.2206    22.3020
 30.1210976   575.6203    15.1152
 30.1936741   325.3821    10.1701
 30.2665119   198.2672     7.6928
 30.3396130   135.1843     6.4448
 30.4129810   100.0747     5.9104
 30.4866161    80.9210     5.5242
 30.5605164    72.9023     5.4327
 30.6346874    57.3978     5.1469
 30.7091274    76.8821     5.3462
 30.7838402    69.7467     5.2219
 30.8588276    72.4432     5.2903
 30.9340858    88.3419     5.5690
 31.0096207    99.8165     5.7906
 31.0854359   112.5598     6.0843
 31.1615276   127.9002     6.3399
 31.2378979   179.0296     7.2525
 31.3145485   231.7295     8.3539
 31.3914814   360.0962    10.8235
 31.4687004   499.9154    13.6019
 31.5462055   626.4194    16.1139
 31.6239948   714.8143    17.8857
 31.7020721   634.7789    16.2707
 31.7804394   443.0199    12.4645
 31.8590984   242.5655     8.4669
 31.9380512   118.1618     6.1291
 32.0172958    60.5083     5.0041
 32.0968361    26.3224     4.3811
 32.1766739    26.6784     4.3057
 32.2568092    20.3090     4.1230
 32.3372421    14.8557     4.0764
 32.4179802     8.2969     3.9652
 32.5396500     7.6323     2.8123
 32.6620102    10.9745     4.0219
 32.7439652     5.6656     3.9450
 32.8262291    10.9222     4.0749
 32.9088059    10.5261     3.9767
 32.9916954    11.2389     4.0458
 33.0748978     5.3018     4.0050
 33.1584129     9.2915     3.9568
 33.2422447    14.2330     4.0783
 33.3263969    14.9900     4.1632
 33.4108696     4.3451     4.0106
 33.6234589     2.7287     1.9599
 33.8380814     9.6964     3.9978
 33.9245033     6.7303     3.9324
 34.0112610     9.4737     3.9094
 34.0983543     7.0945     4.0134
 34.1857796    12.2418     3.9869
 34.2735405    15.8804     3.9945
 34.3616371     3.9708     3.9422
 34.4500771    15.6441     4.0192
 34.5388603    13.8698     4.1305
 34.6279869    10.3223     3.9995
 34.7174568    11.1361     4.1052
 34.8072739    16.1059     4.1088
 34.8974419    21.7918     4.1064
 34.9879608    18.4992     4.0842
 35.0788345    19.0146     4.0945
 35.1700592    18.9367     4.1965
 35.2616386    19.2314     4.0838
 35.3535805    18.7845     4.1788
 35.4458809    27.4815     4.2938
 35.5385437    30.1631     4.3680
 35.6315651    30.2161     4.4309
 35.7249565    50.5277     4.6086
 35.8187180    54.0931     4.8036
 35.9128456    67.5607     4.9973
 36.0073471    82.1495     5.2202
 36.1022186   115.7576     5.9786
 36.1974678   167.6417     6.9543
 36.2930985   246.9893     8.5571
 36.3891029   363.3904    10.9131
 36.4854889   426.8798    12.2405
 36.5822563   410.4407    11.8726
 36.6794167   295.4255     9.5172
 36.7769623   155.5139     6.7199
 36.8748932    68.2488     5.0463
 36.9732170    25.5277     4.2074
 37.0719337    12.9622     4.0521
 37.1710510    19.3077     4.0134
 37.2705688    11.0011     3.9641
 37.3704796    14.5303     4.0568
 37.4707947     6.9773     4.0102
 37.5715141     4.3045     3.8321
 37.6726417    10.1423     4.0071
 37.7741775    13.4301     4.0222
 37.8761215     9.2887     3.8954
 37.9784813     9.3429     3.9288
 38.0812569    11.1572     4.0245
 38.1844521    12.5654     3.9736
 38.2880630    10.8043     4.0533
 38.3920975    16.8788     4.0767
 38.4965591    18.0718     4.0915
 38.6014481    16.5553     4.0838
 38.7067642    16.8111     4.1234
 38.8125076    22.4481     4.1684
 38.9186897    19.4285     4.1461
 39.0253105    25.4276     4.2497
 39.1323662    20.1873     4.1256
 39.2398643    22.3742     4.1520
 39.3478050    33.0787     4.3504
 39.4561882    48.1574     4.5653
 39.5650253    52.8320     4.7684
 39.6743164    58.9396     4.7915
 39.7840538    76.8981     5.2051
 39.8942490   106.7250     5.7255
 40.0049057   149.3069     6.5852
 40.1160240   221.1954     8.0660
 40.2276001   326.3128    10.2688
 40.3396454   456.9012    12.9952
 40.4521561   462.7588    13.1412
 40.5651436   353.8759    10.8199
 40.6786041   183.1895     7.3214
 40.7925415    83.6773     5.3046
 40.9069557    51.5374     4.6215
 41.0218506    29.6218     4.3396
 41.1372337    48.1337     4.5330
 41.2531090    57.9410     4.8144
 41.3694649    76.3005     5.2067
 41.4863167    76.3632     5.1697
 41.6036682    49.1772     4.6914
 41.7215195    32.0015     4.3530
 41.8398666    12.8151     3.9657
 41.9587174     5.7973     3.8804
 42.1379509     4.1260     2.7640
 42.7437553     2.1472     1.4512
 43.3002205     6.4244     4.4642
 43.4253578    11.7792     4.2768
 43.5510330    13.3451     4.0228
 43.6772575    11.9174     3.9744
 43.8040276    15.2678     3.8737
 43.9313583    23.7377     4.0489
 44.0592422    22.9632     4.0480
 44.1876831    43.4686     4.4031
 44.3166847    57.9248     4.6347
 44.4462547    72.0860     5.0026
 44.5763969    95.6497     5.3754
 44.7071075    71.9929     4.9608
 44.8383903    48.9966     4.4899
 44.9702568    34.5364     4.2898
 45.1027069    55.4625     4.5160
 45.2357445    61.2144     4.7427
 45.3693657    80.7144     5.1580
 45.5035820   134.2895     6.1551
 45.6383972   163.4968     6.7399
 45.7738152   164.2036     6.8029
 45.9098282   104.5387     5.5576
 46.0464516    47.9287     4.4924
 46.1836853    22.9901     3.9539
 46.3215370    17.3485     3.9305
 46.4600067     9.6279     3.7770
 46.5990944     7.3108     3.7075
 46.7388077     9.1187     3.6779
 46.8791504     9.2455     3.6297
 47.0201302     9.9339     3.7762
 47.1617470    11.5751     3.7248
 47.3040009    15.7749     3.8154
 47.4468956    15.3585     3.8641
 47.5904465    15.7161     3.7098
 47.7346497    24.9448     3.9131
 47.8795052    18.3832     3.8294
 48.0250206    20.0129     3.8382
 48.1711998    28.9953     3.9391
 48.3180542    32.5693     4.0552
 48.4655800    38.6174     4.0958
 48.6137772    41.5227     4.1226
 48.7626534    43.9528     4.1267
 48.9122238    50.6355     4.2817
 49.0624771    54.0142     4.4722
 49.2134247    53.9362     4.3749
 49.3650665    72.0086     4.6190
 49.5174141    76.9912     4.8007
 49.6704712    93.1488     5.0822
 49.8242378   110.1426     5.4228
 49.9787140   135.1759     6.0368
 50.1339111   194.1961     7.1931
 50.2898331   241.1261     8.1636
 50.4464874   349.9618    10.5060
 50.6038742   542.3580    14.6779
 50.7619934   865.5277    21.8401
 50.9208565  1159.5854    28.3690
 51.0804710  1192.4374    29.1009
 51.2408371   820.5468    20.8200
 51.4019547   384.5787    11.2043
 51.5638351   164.2142     6.4729
 51.7264786    96.9264     5.1128
 51.8899002    77.1431     4.7083
 52.0540962    70.8986     4.6011
 52.2190666   100.4482     5.1500
 52.3848228   135.5598     5.8538
 52.5513725   220.7079     7.6539
 52.7187195   280.1924     8.8813
 52.8868675   260.1780     8.4582
 53.0558166   134.4340     5.7889
 53.2255783    49.9903     4.1285
 53.3961601    11.4439     3.4276
 53.5675621    14.5343     3.5101
 53.7397881     6.2927     3.5009
 53.9128418     6.7974     3.5501
 54.1740036     4.7448     2.4315
 54.4370651    11.3097     3.4062
 54.6135063     6.9560     3.2697
 54.7908020    10.1537     3.2419
 54.9689713     8.8790     3.3242
 55.1480064    11.1193     3.3662
 55.3279152    14.6089     3.4025
 55.5087051     7.5021     3.3059
 55.6903839    14.2055     3.3777
 55.8729591    15.2619     3.5177
 56.0564385    21.5946     3.5864
 56.2408142    21.5892     3.6379
 56.4260979    47.1390     4.0553
 56.6123047    72.8209     4.4932
 56.7994385    84.0812     4.6693
 56.9874992    65.2027     4.3668
 57.1764908    29.9652     3.6178
 57.3664246     9.5655     3.3571
 57.6531105     4.3292     2.3209
 57.9419518     7.0195     3.2353
 58.1357155     3.7675     3.3081
 58.3304520     5.1006     3.2373
 58.5261765     8.1131     3.2820
 58.7228889    10.4659     3.2884
 58.9205856    13.6932     3.3788
 59.1192818     9.1060     3.3842
 59.3189926     5.1413     3.3764
 59.5197182     8.6161     3.2723
 59.7214584    19.9836     3.4345
 59.9242249    15.0334     3.4374
 60.1280250     6.8070     3.4114
 60.3328705    10.8603     3.3777
 60.5387688    12.0362     3.4073
 60.7457161    14.9783     3.4623
 60.9537239    20.1252     3.4955
 61.1628037    18.0985     3.4633
 61.3729668    27.5558     3.6376
 61.5842171    28.2213     3.7486
 61.7965508    47.6788     4.0656
 62.0099869    44.0831     4.0169
 62.2245369    70.2983     4.4255
 62.4402008   117.8389     5.4180
 62.6569824   193.4403     7.0721
 62.8748932   228.5107     7.9156
 63.0939446   172.5682     6.6461
 63.3141479    79.0302     4.6337
 63.5355072    45.7150     3.9996
 63.7580223    54.7527     4.2204
 63.9817085    66.8839     4.4602
 64.2065735   103.8554     5.1576
 64.4326325   185.6079     6.8825
 64.6598892   263.7090     8.6591
 64.8883438   288.7709     9.2588
 65.1180115   238.2991     8.0409
 65.3488998   224.1587     7.7376
 65.5810318   275.2334     8.9363
 65.8143845   268.8646     8.7709
 66.0489883   147.6642     6.0350
 66.2848511    49.3130     4.0209
 66.5219879    38.7603     3.7699
 66.7603912    34.5338     3.6607
 67.0000763    45.9246     3.9540
 67.2410584    69.7187     4.3898
 67.4833450   124.3344     5.4671
 67.7269440   199.3495     7.1813
 67.9718628   265.8757     8.7132
 68.2181091   212.3244     7.4883
 68.4656906    82.1456     4.6427
 68.7146378    21.0423     3.5797
 68.9649353     4.8612     3.4317
 69.2166061     4.0545     3.5140
 69.4696503     5.9540     3.4397
 69.7240906    17.1221     3.4228
 69.9799347    11.2210     3.3381
 70.2371902    16.2219     3.2504
 70.4958572     5.8167     3.1752
 70.7559586     4.7105     3.1043
 71.1488266     6.2197     2.2054
 71.5449677     4.9261     3.1807
 71.8109055     6.8284     3.0912
 72.0783234     5.3187     3.0873
 72.3472443     6.6587     3.1751
 72.6176758     6.6880     3.1164
 72.8896179     7.1670     3.1246
 73.1630936    11.8006     3.1534
 73.4381180    10.2470     3.1135
 73.7146912    15.5411     3.2052
 73.9928284    12.5336     3.2064
 74.2725372    16.1175     3.2340
 74.5538406    17.7721     3.3235
 74.8367462    28.7228     3.3824
 75.1212692    33.4217     3.5308
 75.4074097    41.5995     3.6964
 75.6951904    63.8713     4.0853
 75.9846191    97.2477     4.7612
 76.2757187   155.7119     6.0444
 76.5684967   176.8445     6.5617
 76.8629532   121.9416     5.3284
 77.1591110    64.3910     4.0893
 77.4569931    53.2261     3.9715
 77.7566071    65.6901     4.2323
 78.0579453   105.8831     5.0290
 78.3610458   197.6762     7.0669
 78.6659164   329.2571    10.1341
 78.9725723   324.0819    10.0021
 79.2810288   172.9645     6.4342
 79.5912857    81.4709     4.4067
 79.9033737    88.9546     4.6077
 80.2173004   153.1595     6.0171
 80.5330887   193.7103     6.9273
 80.8507309   131.9960     5.4892
 81.1702576    51.5945     3.7440
 81.4916763    48.4779     3.7007
 81.8150253    60.8083     4.0018
 82.1403046    51.7349     3.8154
 82.4675140    26.5127     3.2223
 82.7966766    13.2341     3.0423
 83.1278229    11.2862     3.0013
 83.4609604     5.0291     2.8691
 83.7961121    11.1492     3.0215
 84.1332779     7.2116     2.9190
 84.4724884    10.5524     3.0106
 84.8137512    11.2717     3.1109
 85.1570816    11.4697     3.0319
 85.5025101    16.5338     3.1614
 85.8500366    22.7501     3.1738
 86.1996841    44.8162     3.5277
 86.5514831    76.7439     4.2347
 86.9054337   127.8020     5.3923
 87.2615585   198.3026     6.9986
 87.6198807   121.2089     5.2140
 87.9804153    39.4893     3.5205
 88.3431702    15.2999     3.0685
 88.7081757    12.9269     2.9676
 89.0754547     8.1049     2.9278
 89.4450150     8.8579     2.9625
 89.8168869     9.7968     2.9375
 90.1910782     9.1157     2.9468
 90.5676117     4.6448     2.8234
 90.9465027     4.5826     2.8610
 91.3277817    11.5230     2.9587
 91.7114716     8.6296     2.9232
 92.0975723     9.2542     3.0101
 92.4861221     8.6703     2.9240
 92.8771362    13.9446     3.0120
 93.2706375    11.5386     2.9748
 93.6666336    25.0968     3.0840
 94.0651627    25.2623     3.1083
 94.4662476    29.1632     3.2092
 94.8698959    25.4942     3.1595
 95.2761383    37.2794     3.3809
 95.6849976    44.9381     3.5432
 96.0964966    65.1757     3.9529
 96.5106583    95.2200     4.5923
 96.9274979   185.8533     6.7111
 97.3470383   297.5226     9.4842
 97.7693100   249.5594     8.2954
 98.1943436    99.5792     4.6621
 98.6221466    53.4670     3.6880
 99.0527573    85.0936     4.3112
 99.4861908   147.6793     5.8003
 99.9224777   135.3888     5.5069
100.3616333    77.3142     4.1775
100.8037033    39.6817     3.3746
101.2486954    33.5090     3.2888
101.6966400    44.5052     3.4562
102.1475601    67.0366     3.9375
102.6014938   100.6112     4.7132
103.0584564   195.8181     7.0401
103.5184708   279.1950     9.1916
103.9815826   238.9071     8.1305
104.4478073   204.0010     7.2888
104.9171677   161.4803     6.2075
105.3897095    58.8372     3.7837
105.8654480    24.1172     3.1634
106.3444138    32.0972     3.2681
106.8266296    14.4622     3.0043
107.5561295     5.9063     2.0397
109.0377502     3.5326     1.4519
110.2959442     6.8354     2.9886
110.8053207    10.8422     2.9761
111.3182297     7.0901     2.9070
111.8347244    14.3336     3.0543
112.3548126    12.4160     3.0436
112.8785400    25.6883     3.2630
113.4059372    53.0577     3.7992
113.9370422    89.0445     4.5481
114.4718781    70.6478     4.1833
115.0104904    39.9244     3.5355
115.5529175    24.1302     3.2913
116.0991898    57.9828     3.9304
116.6493454    81.3294     4.4871
117.2034226    48.2536     3.7418
118.0419617     8.3935     2.1413
118.8895416     3.9184     2.9055
119.4596710     4.9801     2.8715
120.0339203     4.9410     2.9061
120.6123123     8.4666     2.9007
121.1949005     5.2730     2.9196
121.7817154     7.3427     2.8861
122.3728027     8.7619     2.9577
122.9682083     4.9062     2.9131
123.5679627     8.4596     2.8554
124.1721115    18.2755     3.0418
124.7807159    20.1300     3.0936
125.3937988    27.6100     3.2099
126.0114136    46.0132     3.5459
126.6335983    60.1875     3.8416
127.2604065    62.0182     3.9182
127.8918839    72.8332     4.1986
128.5280609    76.0200     4.1508
129.1690063    87.9532     4.4841
129.8147583   121.6033     5.3100
130.4653626    61.8812     3.8401
131.1208649    19.9218     3.0719
131.7813263    24.7192     3.0451
132.4467926    41.2383     3.3599
133.1172943    70.5046     4.0342
133.7929230   122.1112     5.3286
134.4736938   112.0772     5.0849
135.1596832    41.5085     3.3529
135.8509369    28.9650     3.1079
136.5475006    52.4338     3.5883
137.2494354    71.8204     4.0662
137.9567871    46.7580     3.4909
138.6696320    15.4659     2.8444
139.3880157    17.2642     2.8456
140.1119995    28.0009     3.0349
140.8416443    43.3265     3.3257
141.5769959    73.8455     4.0281
142.3181305   141.9559     5.7945
143.0650787   123.9495     5.3046
143.8179474    43.0639     3.3230
144.5767517    16.0794     2.8623
145.3415833    30.5562     3.0514
146.1125030    58.3622     3.6400
146.8895874   116.4788     5.0690
147.6728668   188.9337     7.0369
148.4624329    82.0790     4.2036
149.2583618    22.1968     2.8716
150.0606842    19.4146     2.8451
150.8695068    40.6518     3.2099
151.6848907    50.8925     3.3987
152.5068970    28.3483     3.0037
153.3356018    28.8056     2.9328
154.1710968    45.1298     3.2124
155.0134125   101.9948     4.6346
155.8626556   161.3199     6.2003
156.7189026   108.2463     4.7857
157.5822296    34.4549     2.9988
158.4527130    27.0655     2.8434
159.3304291    35.5568     3.0325
160.2154541    70.4112     3.7872
161.1078644   114.6079     4.9392
162.0077515    82.5312     4.1113
162.9152069    31.7396     2.9529
163.8303070    44.4880     3.2142
164.7531433    84.9550     4.1188
165.6837921   116.2178     4.9310
166.6223602   108.7966     4.7309
167.5689240    77.6793     3.9279
168.5235596   128.2363     5.2064
169.4863892   116.2402     4.8767
170.4574890    77.9572     3.9089
171.4369659    38.2407     2.9628
172.4248962    10.8034     2.4246
173.4214020     5.9696     2.3835
174.4265747     7.2393     2.4323
175.4405060    18.2304     2.5329
176.4633179    26.2410     2.6354
177.4950714    41.4529     2.9525
178.5359192    46.5408     3.1045
179.5859528    23.5397     2.5882
180.6452637     9.2470     2.3048
181.7139893    17.4742     2.4256
182.7922211    23.1871     2.5930
183.8800812    36.0560     2.7724
184.9776611    90.5167     4.1300
186.0851135   113.3449     4.7272
187.2025452    57.0326     3.2338
188.3300629    19.0580     2.4159
189.4678192    19.5403     2.4326
190.6158905    20.4418     2.4750
191.7744446    49.6860     3.0489
192.9435730   103.5331     4.4664
194.1234436   155.7059     5.9328
195.3141785    88.6331     4.0553
196.5158844    19.7414     2.4448
197.7287292    21.5656     2.5172
198.9528351    36.0208     2.7362
200.1883392    38.5567     2.8903
201.4353943    17.4395     2.4046
202.6941223    18.0194     2.4656
203.9646759    31.6358     2.7380
205.2472382    44.3988     3.0476
206.5419312    70.9377     3.6520
207.8489227   100.8470     4.4837
209.1683502    83.9935     4.0235
210.5003815    41.9900     2.9882
211.8451691    44.5915     3.0195
213.2028809    77.6910     3.8884
214.5736999    63.7632     3.5320
215.9577789    27.8317     2.6672
217.3553009    25.7181     2.6324
218.7664185    16.9699     2.4808
220.1913452    31.0408     2.7270
221.6302185    48.8044     3.1613
223.0832367    93.4755     4.3668
224.5505981   152.1406     6.1007
226.0324860    82.7628     4.0519
227.5290985    14.9294     2.3890
229.0406189    10.5141     2.3353
230.5672607    13.2325     2.3101
232.1092072    15.3036     2.4180
233.6666870    10.8911     2.3494
235.2398834    15.8289     2.3906
236.8289947    29.2378     2.6374
238.4342957    26.2733     2.5627
240.0559692    14.6488     2.3030
241.6942596    20.2519     2.4579
243.3493500    36.0094     2.7659
245.0215149    57.0903     3.2710
246.7109833    62.5492     3.4175
248.4179535    74.9666     3.7796
250.1427155    40.2420     2.8575
251.8855133    21.2044     2.4420
253.6465912    14.3163     2.2974
255.4261932    19.4251     2.3647
257.2245789    36.8559     2.8040
259.0420532    37.7885     2.7757
260.8788147    45.0775     2.9781
262.7352295    41.4654     2.9093
264.6115112    22.6163     2.4701
266.5079651     9.1772     2.3164
268.4248657    13.1236     2.3417
270.3625488    34.5312     2.7751
272.3212585    50.5231     3.2328
274.3013306    49.9045     3.2202
276.3031006    24.2457     2.6190
278.3268433     4.3312     2.3541
280.3729248    14.7892     2.4518
282.4416504    20.1457     2.5890
284.5333557    37.6325     3.0067
286.6483765    53.1542     3.4182
288.7870789    34.6117     2.9115
290.9497986    25.0070     2.7608
293.1368713    56.3625     3.5623
295.3487244    82.1147     4.3460
297.5856934    63.3683     3.7965
299.8482056    21.4022     2.7121
302.1365967    23.9153     2.7100
304.4512939    20.1003     2.6706
306.7926941    12.1897     2.5315
309.1611633    26.9592     2.8611
311.5572205    33.9016     3.0022
313.9812317    24.6975     2.8133
316.4336548    22.5479     2.7646
318.9148865    26.3846     2.9005
321.4254456    20.5503     2.8225
323.9657593    20.7229     2.7955
326.5362854    12.1197     2.6956
329.1375427     6.5426     2.6434
331.7700195    11.4785     2.7125
334.4341736     3.1830     2.6187
337.1305847    10.9072     2.7738
339.8597412    14.7552     2.7857
342.6221619    15.0038     2.8454
345.4183960    13.6738     2.8251
348.2489929    16.1194     2.9199
351.1145630    23.1681     3.0901
354.0156250    31.5181     3.2421
356.9527588    25.8197     3.0552
359.9266052    30.5418     3.1315
362.9377747    37.0306     3.2511
365.9869385    61.0763     4.0374
369.0746460    85.8601     4.8326
372.2015991    88.3935     4.9511
375.3684692    91.8809     5.0236
378.5759582    31.9055     2.9881
381.8246765    12.5812     2.4799
385.1153870    18.3406     2.5835
388.4488525    15.9929     2.5138
391.8258057    29.8117     2.8369
395.2469788    39.0517     3.0453
398.7131653    40.1321     3.0604
402.2251282    39.3647     2.9818
405.7836609    33.3470     2.7483
409.3896484    32.1931     2.7231
413.0439453    32.9544     2.7043
416.7473755    32.2922     2.7050
420.5008545    22.5229     2.4396
424.3052673    28.9003     2.5910
428.1615601    47.9160     3.1275
432.0706482    40.5209     2.9042
436.0334778    44.3564     3.0223
440.0510864    41.7787     2.9283
444.1245117    30.1103     2.5415
448.2547607    26.1546     2.4722
452.4428711    44.2368     2.9776
456.6899719    43.0492     2.9380
460.9971619    30.4016     2.5499
465.3655395    36.1153     2.7057
469.7962952    33.4962     2.6003
474.2906799    29.8318     2.5205
478.8498535    35.3080     2.6286
483.4750977    37.3277     2.6902
488.1676636    33.0479     2.5684
492.9288940    29.3958     2.4305
497.7601013    29.3728     2.3781
502.6626587    35.5753     2.6111
507.6380310    35.4842     2.5439
512.6876221    19.1675     2.1194
517.8129883    17.7700     2.0408
523.0155640    14.4842     1.9818
528.2969971    14.0258     1.9716
533.6587524    17.9640     2.0036
539.1025391    31.3038     2.3489
544.6300659    37.6880     2.5155
550.2431030    23.4304     2.1019
555.9433594    24.8984     2.1198
561.7326050    24.0114     2.0986
567.6127930    28.7180     2.2389
573.5857544    37.8952     2.5093
579.6535644    37.4701     2.5095
585.8180542    23.2247     2.0752
592.0814209    15.6983     1.8797
598.4458618    15.7243     1.9004
604.9134522    27.0169     2.1989
611.4864502    23.2228     2.0627
618.1671753    21.4714     2.0287
624.9580078    33.3806     2.3777
631.8612671    21.4225     2.0401
638.8795776    14.6557     1.8655
646.0155029    19.1610     2.0255
653.2716675    18.8891     1.9869
660.6507568    13.7138     1.8509
668.1555786    24.3994     2.1293
675.7890625    19.3112     1.9828
683.5540772    25.8779     2.1516
691.4536133    19.4415     1.9797
699.4909058    13.5081     1.8419
707.6691894    17.4940     1.9382
715.9918213    18.6087     1.9704
724.4620361    23.6168     2.1086
733.0835571    24.4005     2.1046
741.8598023    24.8920     2.1365
750.7946167    25.6869     2.1604
759.8917236    24.3903     2.1312
769.1553345    22.8781     2.0692
778.5893555    24.7371     2.1210
788.1979981    20.3021     1.9532
797.9855957    24.1989     2.0626
807.9566650    20.4044     1.9311
818.1158447    10.9468     1.6919
828.4677124    13.2410     1.7402
839.0173340    21.9290     1.9679
849.7697754    13.4023     1.6957
860.7302856    19.7780     1.8598
871.9042358    22.1675     1.9423
883.2971802    20.7725     1.8669
894.9149170    17.0843     1.7557
906.7633057    15.6520     1.7274
918.8485107    21.6734     1.8884
931.1770630    23.7600     1.9593
943.7554321    17.0681     1.7543
956.5903931    20.2915     1.8744
969.6889648    17.4091     1.7833
983.0584106    19.4308     1.8754
996.7062988    19.6526     1.8821
ENDDATA           3434
ENDSUBENT         3444
SUBENT        14027003   20250815   20260115   20260115       1524
BIB                  3          5
REACTION   (77-IR-193(N,G)77-IR-194,,SIG)
HISTORY    (20250815A) BP: Replaced digitized with the original
           data, updated STATUS.
STATUS     (TABLE,,P.E.Koehler+,C,94GATLIN,,179,1994) Fig. - 5
           Data were provided by P.E.Koehler on August 14, 2025.
ENDBIB               5
NOCOMMON             0          0
DATA                 3       1239
EN         DATA       DATA-ERR
EV         B          B
   0.010185    175.724      2.138
   0.010568    172.433      2.030
   0.010965    174.806      1.937
   0.011377    169.421      1.808
   0.011805    166.806      1.746
   0.012248    159.926      1.632
   0.012709    156.358      1.550
   0.013186    151.056      1.484
   0.013682    150.980      1.445
   0.014196    150.167      1.392
   0.014729    147.358      1.317
   0.015283    144.517      1.245
   0.015857    143.306      1.205
   0.016453    141.694      1.151
   0.017071    138.753      1.090
   0.017713    133.917      1.037
   0.018378    131.862      0.994
   0.019069    127.830      0.941
   0.019785    125.228      0.901
   0.020529    123.444      0.873
   0.021300    123.215      0.848
   0.022101    117.706      0.802
   0.022931    117.813      0.770
   0.023793    114.914      0.745
   0.024687    112.389      0.718
   0.025615    108.428      0.675
   0.026577    108.697      0.656
   0.027576    106.288      0.635
   0.028612    101.913      0.606
   0.029687    102.994      0.602
   0.030803    100.015      0.579
   0.031960     99.010      0.559
   0.033161     97.515      0.550
   0.034408     94.987      0.531
   0.035700     93.117      0.514
   0.037042     92.209      0.502
   0.038434     89.581      0.486
   0.039878     88.645      0.468
   0.041377     87.190      0.460
   0.042932     86.203      0.454
   0.044545     83.739      0.441
   0.046219     81.770      0.427
   0.047956     80.386      0.418
   0.049758     79.260      0.413
   0.051627     77.752      0.410
   0.053567     76.826      0.406
   0.055580     75.020      0.396
   0.057669     73.101      0.391
   0.059836     72.639      0.391
   0.062084     70.824      0.383
   0.064417     69.828      0.378
   0.066838     68.329      0.379
   0.069350     67.948      0.381
   0.071956     66.365      0.378
   0.074660     64.919      0.374
   0.077465     64.446      0.378
   0.080376     63.396      0.385
   0.083396     61.166      0.381
   0.086530     60.698      0.385
   0.089782     59.461      0.392
   0.093156     59.678      0.392
   0.096656     58.142      0.400
   0.100288     57.382      0.412
   0.104057     55.841      0.422
   0.107967     54.377      0.430
   0.112024     54.527      0.438
   0.116234     53.721      0.441
   0.120602     53.285      0.440
   0.125134     51.587      0.447
   0.129836     51.300      0.463
   0.134715     52.037      0.479
   0.139777     50.178      0.484
   0.145030     50.043      0.498
   0.150479     47.852      0.501
   0.156134     48.758      0.521
   0.162001     47.737      0.520
   0.168089     46.938      0.527
   0.174405     46.835      0.550
   0.180959     46.683      0.571
   0.187759     45.486      0.581
   0.194815     45.166      0.591
   0.202135     46.567      0.600
   0.209731     45.939      0.599
   0.217612     44.587      0.585
   0.225790     45.125      0.595
   0.234274     44.149      0.613
   0.243078     43.192      0.616
   0.252212     44.587      0.604
   0.261689     43.237      0.623
   0.271523     43.146      0.621
   0.281726     42.741      0.622
   0.292313     44.001      0.633
   0.303297     42.096      0.613
   0.314695     41.411      0.637
   0.326520     40.790      0.627
   0.338790     42.885      0.617
   0.351521     43.192      0.638
   0.364730     41.393      0.665
   0.378436     43.293      0.670
   0.392656     44.723      0.653
   0.402000     43.871      0.973
   0.406034     44.090      1.117
   0.410109     45.067      1.246
   0.414225     42.772      1.252
   0.418382     45.319      1.272
   0.422581     44.231      1.279
   0.426821     44.656      1.269
   0.431105     41.787      1.259
   0.435431     42.207      1.288
   0.439801     39.828      1.270
   0.444215     46.849      1.293
   0.448673     43.135      1.293
   0.453176     42.149      1.293
   0.457724     47.903      1.318
   0.462318     44.367      1.303
   0.466957     47.098      1.309
   0.471644     42.093      1.288
   0.476377     43.301      1.309
   0.481158     47.948      1.340
   0.485987     44.641      1.367
   0.490864     46.535      1.352
   0.495790     46.207      1.339
   0.500766     45.674      1.329
   0.505791     45.431      1.324
   0.510867     41.671      1.320
   0.515994     45.955      1.359
   0.521173     47.622      1.381
   0.526403     45.799      1.391
   0.531686     42.080      1.382
   0.537022     46.454      1.376
   0.542411     45.849      1.380
   0.547855     46.533      1.406
   0.553353     46.752      1.416
   0.558906     45.053      1.395
   0.564515     49.193      1.435
   0.570181     46.254      1.410
   0.575903     48.175      1.441
   0.581682     49.241      1.462
   0.587520     49.380      1.463
   0.593416     41.843      1.447
   0.599372     46.993      1.480
   0.605387     48.581      1.498
   0.611463     48.937      1.521
   0.617599     49.413      1.532
   0.623797     52.196      1.544
   0.630057     52.869      1.573
   0.636381     60.526      1.651
   0.642767     56.834      1.658
   0.649218     60.187      1.673
   0.655733     61.926      1.679
   0.662314     59.743      1.678
   0.668961     62.141      1.682
   0.675674     56.056      1.648
   0.682455     57.642      1.666
   0.689304     55.514      1.620
   0.696222     53.545      1.594
   0.703209     57.418      1.584
   0.710267     56.769      1.598
   0.717395     62.896      1.611
   0.724594     61.172      1.602
   0.731866     65.912      1.596
   0.739211     69.512      1.625
   0.746630     70.985      1.621
   0.754123     72.732      1.650
   0.761691     75.724      1.676
   0.769335     79.354      1.686
   0.777056     78.168      1.676
   0.784854     85.270      1.726
   0.792731     87.958      1.748
   0.800687     88.927      1.731
   0.808722     92.346      1.772
   0.816838     94.848      1.775
   0.825036     97.247      1.784
   0.833316    101.824      1.817
   0.841679    104.254      1.852
   0.850126    106.409      1.852
   0.858657    109.440      1.855
   0.867275    113.776      1.877
   0.875979    118.900      1.914
   0.884770    118.341      1.914
   0.893649    126.246      1.972
   0.902617    131.863      2.018
   0.911676    135.551      2.053
   0.920825    142.086      2.089
   0.930067    147.278      2.105
   0.939400    152.264      2.149
   0.948828    159.772      2.224
   0.958350    169.334      2.319
   0.967968    176.580      2.404
   0.977683    185.451      2.450
   0.987494    193.374      2.502
   0.997405    210.044      2.651
   1.007414    220.607      2.760
   1.017525    234.764      2.855
   1.027736    251.454      3.024
   1.038051    272.640      3.191
   1.048468    289.987      3.333
   1.058990    317.740      3.566
   1.069618    344.910      3.812
   1.080353    382.059      4.123
   1.091195    420.999      4.478
   1.102146    459.950      4.796
   1.113207    517.015      5.321
   1.124379    579.243      5.868
   1.135663    651.408      6.488
   1.147060    731.303      7.224
   1.158572    846.892      8.264
   1.170199    993.572      9.545
   1.181943   1156.747     11.015
   1.193804   1371.437     12.991
   1.205785   1639.432     15.417
   1.217886   1989.090     18.562
   1.230109   2388.655     22.191
   1.242454   2899.538     26.853
   1.254923   3473.884     32.116
   1.267517   4010.405     37.056
   1.280238   4458.654     41.249
   1.293086   4730.871     43.880
   1.306063   4675.329     43.522
   1.319170   4371.710     40.865
   1.332409   3845.504     36.132
   1.345781   3247.993     30.705
   1.359287   2613.101     24.896
   1.372929   2099.796     20.195
   1.386707   1642.754     15.998
   1.400624   1324.681     13.092
   1.414680   1060.321     10.656
   1.428877    866.586      8.839
   1.443217    707.870      7.364
   1.457701    596.481      6.385
   1.472330    504.886      5.540
   1.487106    427.675      4.794
   1.502031    371.873      4.316
   1.517105    318.515      3.839
   1.532330    281.839      3.472
   1.547708    250.904      3.216
   1.563241    223.470      2.978
   1.578929    193.084      2.715
   1.594775    173.932      2.538
   1.610780    161.412      2.435
   1.626945    145.892      2.299
   1.643273    129.794      2.179
   1.659765    119.342      2.086
   1.676422    110.061      1.992
   1.693246     98.892      1.945
   1.710239     95.088      1.915
   1.727403     86.507      1.822
   1.744738     81.252      1.830
   1.762248     74.639      1.761
   1.779934     67.919      1.682
   1.797797     64.842      1.672
   1.815839     59.497      1.692
   1.834063     58.558      1.667
   1.852469     51.661      1.594
   1.871060     50.782      1.591
   1.889838     45.316      1.568
   1.908804     47.167      1.600
   1.927960     41.484      1.624
   1.947309     39.841      1.601
   1.966851     40.645      1.562
   1.986590     36.327      1.551
   2.006527     34.185      1.557
   2.026664     32.241      1.533
   2.047004     28.397      1.520
   2.067547     30.295      1.540
   2.088296     27.856      1.522
   2.109254     22.991      1.532
   2.130422     26.747      1.492
   2.151803     21.187      1.467
   2.173398     21.385      1.436
   2.195209     23.267      1.460
   2.217240     21.727      1.473
   2.239492     20.752      1.455
   2.261967     19.673      1.428
   2.284667     19.712      1.440
   2.307596     18.410      1.434
   2.330755     15.684      1.435
   2.354146     17.397      1.422
   2.377771     13.331      1.394
   2.401634     14.148      1.407
   2.425736     15.386      1.395
   2.450081     14.229      1.428
   2.474669     14.938      1.401
   2.499504     10.161      1.355
   2.524589     13.786      1.374
   2.549925     12.281      1.365
   2.575516      9.999      1.404
   2.601363     10.528      1.412
   2.627470      5.354      1.394
   2.653839     12.446      1.407
   2.680472      9.072      1.384
   2.707373     10.994      1.396
   2.734543     10.107      1.370
   2.761986     10.774      1.359
   2.789706      9.891      1.350
   2.817702     10.797      1.355
   2.845980     11.120      1.391
   2.874542     10.598      1.374
   2.903391      8.666      1.353
   2.932528      5.841      1.354
   2.961958     10.920      1.376
   2.991684      7.756      1.359
   3.021708     10.157      1.358
   3.052033      6.485      1.323
   3.082663      9.764      1.343
   3.113600      9.023      1.337
   3.144847      6.645      1.333
   3.176408      4.039      1.337
   3.208286      7.918      1.330
   3.240484     10.052      1.326
   3.273004      7.587      1.336
   3.305852      8.552      1.330
   3.339029      7.881      1.322
   3.372539      9.254      1.350
   3.406385      8.031      1.371
   3.440570      4.114      1.363
   3.475099      6.247      1.339
   3.509975      8.138      1.340
   3.545200      8.588      1.342
   3.580779      4.996      1.339
   3.616715      7.790      1.336
   3.653012      8.065      1.340
   3.689673      7.784      1.357
   3.726701      5.694      1.343
   3.764102      8.672      1.353
   3.801877      9.553      1.371
   3.840033      3.815      1.363
   3.878570      6.428      1.342
   3.917495      4.673      1.342
   3.956810      6.300      1.364
   3.996520      5.296      1.361
   4.036628      3.979      1.340
   4.077139      4.100      1.364
   4.118056      3.390      1.377
   4.159384      6.205      1.343
   4.201127      2.848      1.336
   4.243289      8.699      1.341
   4.285873      5.486      1.330
   4.328886      6.229      1.343
   4.372329      5.211      1.324
   4.416208      3.541      1.326
   4.460528      3.226      1.323
   4.505294      7.186      1.328
   4.550508      3.497      1.329
   4.596176      4.210      1.303
   4.642303      3.301      1.279
   4.688892      3.879      1.311
   4.735949      4.080      1.302
   4.783478      3.653      1.279
   4.831483      2.262      1.288
   4.879971      5.280      1.295
   4.928947      1.516      1.302
   4.978412      4.748      1.306
   5.028374      4.197      1.281
   5.078837      1.139      1.282
   5.556422      0.102      1.263
   5.612185      2.009      1.263
   5.668508      2.064      1.301
   5.725396      2.802      1.309
   5.782856      4.904      1.300
   5.840890      4.085      1.272
   5.899508      3.764      1.271
   5.958715      2.361      1.320
   6.018515      2.686      1.297
   6.078916      1.478      1.326
   6.139923      0.773      1.316
   6.201542      3.911      1.299
   6.263779      2.436      1.315
   6.326641      1.568      1.280
   6.390134      3.186      1.295
   6.454264      5.118      1.279
   6.519038      6.030      1.254
   6.584462      4.132      1.270
   6.650542      7.185      1.262
   6.717285      3.582      1.280
   6.784698      4.646      1.253
   6.852789      4.440      1.248
   6.921562      2.764      1.275
   6.991025      4.536      1.269
   7.061185      4.350      1.232
   7.132051      4.336      1.259
   7.203626      8.047      1.255
   7.275920      7.540      1.247
   7.348940      4.953      1.230
   7.422693      4.651      1.240
   7.497185      7.508      1.285
   7.572425      8.269      1.308
   7.648420     11.235      1.302
   7.725179     12.568      1.285
   7.802707     14.138      1.270
   7.881013     11.700      1.272
   7.960106     14.070      1.258
   8.004909     21.198      3.826
   8.024796     19.436      3.859
   8.044758     13.106      3.754
   8.064794     18.292      3.892
   8.084904     20.015      3.799
   8.105091     22.766      3.946
   8.125353     19.336      3.854
   8.145691     26.116      3.947
   8.166105     28.912      3.973
   8.186596     30.251      3.939
   8.207165     32.086      4.046
   8.227812     24.783      3.955
   8.248535     35.852      4.096
   8.269338     32.884      4.088
   8.290219     43.407      4.176
   8.311180     40.704      4.090
   8.332220     53.397      4.261
   8.353340     39.797      4.107
   8.374540     40.946      4.140
   8.395823     53.282      4.305
   8.417185     55.349      4.275
   8.438629     69.623      4.425
   8.460155     71.162      4.461
   8.481764     87.690      4.626
   8.503456     85.613      4.687
   8.525231     88.410      4.715
   8.547090    114.558      4.951
   8.569033    116.474      5.015
   8.591060    130.544      5.235
   8.613173    147.336      5.369
   8.635371    155.231      5.574
   8.657655    163.251      5.665
   8.680024    179.457      5.884
   8.702482    192.586      6.072
   8.725027    233.374      6.600
   8.747659    266.406      7.077
   8.770379    296.710      7.467
   8.793187    333.387      8.031
   8.816086    415.693      9.160
   8.839074    505.858     10.468
   8.862151    605.302     11.902
   8.885319    746.817     13.942
   8.908579    959.753     17.023
   8.931930   1179.175     20.208
   8.955372   1469.756     24.431
   8.978906   1743.507     28.421
   9.002534   1930.427     31.156
   9.026256   2017.364     32.416
   9.050071   1963.042     31.633
   9.073979   1771.513     28.824
   9.097983   1454.671     24.197
   9.122084   1154.233     19.795
   9.146279    859.710     15.521
   9.170571    603.063     11.780
   9.194960    422.894      9.211
   9.219446    294.221      7.348
   9.244030    218.876      6.260
   9.268714    175.015      5.705
   9.293495    138.384      5.112
   9.318376    106.620      4.723
   9.343357     94.229      4.532
   9.368439     80.991      4.305
   9.393622     78.253      4.277
   9.418906     65.304      4.035
   9.444293     52.649      3.937
   9.469783     46.311      3.831
   9.495377     40.224      3.773
   9.521073     36.857      3.680
   9.546874     33.441      3.677
   9.572781     32.244      3.613
   9.598793     24.745      3.591
   9.624911     28.220      3.565
   9.651135     24.250      3.520
   9.677467     23.909      3.546
   9.703908     19.657      3.490
   9.730457     12.582      3.404
   9.757114     16.819      3.479
   9.783881     23.996      3.493
   9.810759     16.732      3.356
   9.837748     12.579      3.403
   9.864848     12.751      3.414
   9.892060      8.482      3.435
   9.919385     12.914      3.328
   9.946823      4.319      3.378
   9.974376      6.391      3.293
  10.002044     10.125      3.331
  10.029825      5.982      3.343
  10.057723     12.423      3.388
  10.085738     10.310      3.363
  10.113871      9.246      3.303
  10.142120     12.022      3.329
  10.170488      8.834      3.320
  10.198976     16.114      3.274
  10.227584     12.507      3.323
  10.256312      7.402      3.275
  10.314133      3.936      1.876
  10.372443     11.300      3.330
  10.401784     13.141      3.277
  10.446029      6.994      2.317
  10.490557      9.229      3.285
  10.520401     10.527      3.269
  10.550372      7.973      3.314
  10.580472      6.148      3.159
  10.610700      8.149      3.288
  10.641059     11.603      3.240
  10.671548      8.264      3.202
  10.717527      2.520      2.281
  10.763804      5.342      3.197
  10.794824      7.573      3.237
  10.825975      3.708      3.267
  10.857263      6.541      3.262
  10.888686      6.410      3.230
  10.920246      7.309      3.159
  10.951944      6.452      3.244
  10.999749      2.539      2.224
  11.063978      8.389      2.293
  11.112521      5.762      3.222
  11.145060      8.070      3.164
  11.177741      7.229      3.204
  11.227035      5.114      2.289
  11.276655      7.258      3.198
  11.309917      7.428      3.205
  11.360089      2.957      2.291
  11.410595      8.102      3.192
  11.478461      3.826      1.829
  11.546936      4.166      3.156
  11.616023      3.539      1.831
  11.703259      2.829      2.189
  11.773758      2.684      2.218
  11.827049      7.313      3.179
  11.862780      3.178      3.175
  11.898672      7.427      3.154
  12.007330      1.501      1.409
  12.210440      1.715      1.281
  12.361411      2.487      2.224
  12.418748      6.932      3.097
  12.457193      3.896      3.087
  12.554094      2.804      1.555
  12.671875      3.557      2.244
  12.831512      1.527      1.266
  13.035336      2.299      1.551
  13.139074      5.385      3.062
  13.180916      3.260      3.147
  13.244056      2.924      2.179
  13.307650      3.460      3.043
  13.588585      0.953      0.882
  14.038486      1.163      1.059
  14.319235      2.141      1.483
  14.535360      1.686      1.318
  14.831223      1.103      1.103
  15.033513      3.812      2.875
  15.187958      1.432      1.306
  15.344795      3.410      2.851
  15.397614      3.751      2.899
  15.450706      3.173      2.889
  15.611642      1.401      1.279
  15.775106      5.468      2.890
  15.830164      4.095      2.831
  15.997080      1.539      1.256
  16.310026      1.196      1.142
  16.543428      2.248      1.962
  16.903040      0.930      0.876
  17.243082      3.268      2.741
  17.306009      3.755      2.752
  17.528990      1.242      1.119
  17.756310      4.077      2.728
  17.822069      6.299      2.737
  18.675858      0.636      0.543
  19.726198      1.347      1.221
  19.939075      3.532      2.558
  20.215027      1.088      1.057
  20.476433      4.184      3.553
  20.619293      1.914      1.472
  20.784403      5.807      2.541
  20.867702      3.120      2.547
  20.972532      2.335      2.084
  21.056965      7.863      3.605
  21.120626      3.057      2.543
  21.184576      9.501      3.619
  21.227371      5.100      3.692
  21.334927      2.257      1.794
  21.486883      3.985      2.029
  21.596418      4.332      2.557
  21.662542      9.602      3.562
  21.773426      2.717      1.790
  21.885164      6.375      3.633
  21.930101      9.168      3.630
  21.975176      6.636      3.498
  22.020390      4.127      3.530
  22.088472      3.798      2.484
  22.156872      8.206      3.587
  22.202646      7.228      3.449
  22.294626      2.208      2.022
  22.387177      7.620      3.546
  22.433668      4.416      3.561
  22.480305      6.875      3.514
  22.527086     18.374      3.672
  22.574017     14.632      3.465
  22.621092     11.128      3.553
  22.668314     10.030      3.686
  22.715683     16.291      3.588
  22.763205     17.126      3.605
  22.810873     12.225      3.530
  22.858690     21.318      3.614
  22.906660     22.116      3.588
  22.954779     21.453      3.639
  23.003052     20.472      3.799
  23.051477     22.426      3.662
  23.100054     19.451      3.791
  23.148785     24.308      3.737
  23.197672     31.052      3.776
  23.246714     30.033      3.877
  23.295908     31.718      3.869
  23.345261     34.212      3.912
  23.394770     41.161      4.035
  23.444437     33.117      3.922
  23.494265     37.249      3.946
  23.544249     49.864      4.231
  23.594391     47.786      4.017
  23.644697     53.158      4.069
  23.695164     53.845      4.199
  23.745790     72.895      4.482
  23.796579     75.294      4.522
  23.847532     85.639      4.708
  23.898649     84.446      4.711
  23.949932    100.357      5.007
  24.001379    118.053      5.257
  24.052990    123.318      5.365
  24.104769    144.942      5.707
  24.156717    192.110      6.481
  24.208832    252.251      7.577
  24.261114    319.313      8.742
  24.313568    399.835     10.187
  24.366192    546.531     12.874
  24.418987    658.035     14.871
  24.471952    750.146     16.543
  24.525091    748.953     16.530
  24.578402    670.955     15.107
  24.631889    538.834     12.696
  24.685551    420.426     10.574
  24.739386    378.768      9.821
  24.793398    373.890      9.762
  24.847588    463.227     11.358
  24.901955    562.372     13.196
  24.956503    677.990     15.301
  25.011227    724.684     16.160
  25.066133    677.472     15.322
  25.121220    568.339     13.369
  25.176491    397.561     10.226
  25.231941    260.197      7.842
  25.287575    163.914      6.123
  25.343391    116.175      5.251
  25.399397     99.742      5.009
  25.455587    100.390      4.927
  25.511963     89.905      4.690
  25.568527     95.274      4.900
  25.625280    114.500      5.134
  25.682222    132.934      5.497
  25.739353    166.895      6.037
  25.796675    202.913      6.706
  25.854187    277.872      8.014
  25.911894    366.446      9.634
  25.969795    484.098     11.799
  26.027889    571.941     13.474
  26.086178    589.955     13.810
  26.144661    538.659     12.852
  26.203344    412.574     10.523
  26.262226    273.624      8.019
  26.321304    167.993      6.145
  26.380581     87.420      4.680
  26.440062     53.111      4.171
  26.499743     36.277      3.865
  26.559624     26.847      3.671
  26.619709     14.793      3.572
  26.679998     15.618      3.591
  26.740494     19.150      3.478
  26.801195     17.285      3.457
  26.862103     10.211      3.484
  26.923218      9.829      3.364
  26.984543      9.366      3.417
  27.046078      8.690      3.414
  27.107822      8.070      3.346
  27.169777     11.102      3.390
  27.263111      3.743      2.371
  27.356928      5.813      3.306
  27.419741      8.553      3.286
  27.482769      6.704      3.371
  27.546015     10.056      3.403
  27.609482      5.370      3.363
  27.705093      4.116      2.394
  27.801201      4.546      3.351
  29.762114      0.454      0.438
  31.977636      2.380      2.280
  32.096836      5.636      3.240
  32.176674      5.279      3.163
  32.256809      8.097      3.146
  32.337242      7.877      3.187
  32.417980      4.350      3.142
  32.539650      2.350      2.215
  32.743965      2.864      1.819
  32.991695      1.896      1.810
  33.751984      1.002      0.803
  34.494427      4.251      2.221
  34.762325      2.070      1.557
  35.078831      3.197      1.795
  35.399685      2.476      1.557
  35.631565      5.203      3.228
  35.724957      6.283      3.065
  35.818718      4.383      3.166
  35.912846      5.638      3.126
  36.007347      4.513      3.052
  36.102219      4.715      3.188
  36.341049      3.297      1.579
  36.582256      3.691      3.122
  36.825874      1.946      1.547
  37.071934      3.987      3.146
  37.320469      1.564      1.540
  37.571514     10.911      3.183
  37.774178      2.796      1.787
  38.029819      5.552      2.224
  38.184452      4.886      3.099
  38.340027      2.956      2.214
  38.548950      3.928      2.202
  38.706764      7.962      3.205
  38.812508     16.108      3.274
  38.918690     12.009      3.242
  39.025311     14.131      3.271
  39.132366     12.793      3.225
  39.239864     15.289      3.250
  39.347805     15.921      3.266
  39.456188     13.415      3.175
  39.565025     11.864      3.263
  39.674316     17.792      3.262
  39.784054     18.551      3.348
  39.894249     18.468      3.289
  40.004906     21.776      3.357
  40.116024     20.537      3.370
  40.227600     31.592      3.576
  40.339645     32.604      3.535
  40.452156     31.960      3.572
  40.565144     40.582      3.659
  40.678604     51.871      3.897
  40.792541     72.125      4.184
  40.906956     79.391      4.254
  41.021851     99.956      4.700
  41.137234    121.189      5.014
  41.253109    144.423      5.519
  41.369465    197.913      6.602
  41.486317    253.895      7.723
  41.603668    290.011      8.480
  41.721519    255.301      7.752
  41.839867    196.619      6.533
  41.958717    152.952      5.677
  42.078075    150.160      5.642
  42.197948    181.604      6.271
  42.318333    217.686      6.980
  42.439232    273.978      8.169
  42.560646    369.106     10.126
  42.682590    502.169     13.008
  42.805058    738.437     18.140
  42.928047   1112.558     26.303
  43.051571   1554.158     35.983
  43.175625   1819.682     41.833
  43.300220   1641.281     37.934
  43.425358   1097.213     26.013
  43.551033    585.289     14.820
  43.677258    260.029      7.856
  43.804028    137.164      5.288
  43.931358     79.052      4.199
  44.059242     51.818      3.731
  44.187683     40.785      3.539
  44.316685     34.762      3.411
  44.446255     22.995      3.325
  44.576397     23.388      3.247
  44.707108     15.819      3.184
  44.838390     16.378      3.154
  44.970257     10.626      3.131
  45.102707     14.273      3.035
  45.302483      6.835      2.176
  45.503582     10.942      3.081
  45.638397      6.379      3.000
  45.841743      4.012      2.134
  46.046452      5.851      3.036
  46.183685      6.633      2.964
  46.321537      4.764      3.003
  46.460007      6.128      3.001
  46.599094      8.528      3.007
  46.738808      6.349      2.930
  46.879150      5.563      2.878
  47.020130      4.611      2.977
  47.161747      4.068      2.905
  47.375366      2.442      2.069
  47.662464      4.942      2.027
  47.879505      3.436      2.890
  48.025021      4.921      2.893
  48.244545      3.216      2.014
  48.465580      7.955      2.872
  48.613777      8.214      2.852
  48.762653      8.106      2.813
  48.987263      3.391      2.014
  49.213425      7.346      2.869
  49.365067     12.395      2.837
  49.517414      8.885      2.882
  49.670471     15.008      2.931
  49.824238     12.353      2.900
  49.978714      5.688      2.960
  50.133911      7.386      2.908
  50.289833     11.194      2.933
  50.446487     13.341      2.980
  50.603874     15.003      2.913
  50.761993     18.537      3.040
  50.920856     20.113      3.080
  51.080471     14.347      3.049
  51.240837     30.047      3.188
  51.401955     30.825      3.179
  51.563835     39.968      3.290
  51.726479     50.626      3.466
  51.889900     66.909      3.728
  52.054096     87.290      4.106
  52.219067    140.713      5.124
  52.384823    213.659      6.622
  52.551373    262.906      7.683
  52.718719    244.937      7.274
  52.886868    149.790      5.308
  53.055817    113.103      4.548
  53.225578    118.368      4.637
  53.396160    158.022      5.413
  53.567562    255.843      7.469
  53.739788    402.976     10.671
  53.912842    542.299     13.731
  54.086735    489.403     12.565
  54.261478    277.960      7.974
  54.437065     92.912      4.116
  54.613506     33.085      3.020
  54.790802     19.183      2.746
  54.968971     10.975      2.710
  55.148006      8.897      2.687
  55.327915      6.367      2.636
  55.508705      3.324      2.614
  56.056431      1.490      1.180
  56.612305      5.433      2.651
  56.799438      4.692      2.590
  56.987499      5.100      2.668
  57.461754      2.933      1.305
  57.941952      6.186      2.599
  58.135715      4.138      2.674
  58.526176      3.208      1.489
  59.620461      1.311      0.921
  60.538769      7.365      2.689
  60.745716      5.724      2.674
  60.953724      9.921      2.683
  61.162804      7.477      2.653
  61.372967      4.042      2.618
  61.584217      3.633      2.703
  61.903130      1.944      1.883
  62.224537     10.482      2.685
  62.440201      5.254      2.630
  62.765797      4.358      1.890
  63.093945      2.860      2.659
  63.314148      3.006      2.627
  63.535507      7.020      2.690
  63.758022      6.410      2.735
  63.981709      3.900      2.716
  64.206573     10.654      2.752
  64.432632     12.008      2.710
  64.659889     11.715      2.727
  64.888344      9.163      2.751
  65.118011     19.691      2.772
  65.348900     21.438      2.834
  65.581032     20.144      2.883
  65.814384     22.044      2.874
  66.048988     28.614      2.955
  66.284851     29.369      2.974
  66.521988     37.527      3.059
  66.760391     40.780      3.088
  67.000076     41.280      3.164
  67.241058     51.694      3.329
  67.483345     71.510      3.647
  67.726944     82.124      3.919
  67.971863    106.911      4.443
  68.218109    153.332      5.415
  68.465691    222.633      6.936
  68.714638    364.727     10.244
  68.964935    628.470     16.509
  69.216606    890.634     22.791
  69.469650    769.776     19.892
  69.724091    384.324     10.689
  69.979935    118.414      4.626
  70.237190     45.494      3.099
  70.495857     31.735      2.930
  70.755959     28.027      2.833
  71.017509     41.341      2.996
  71.280510     51.085      3.255
  71.544968     65.740      3.532
  71.810905     57.747      3.311
  72.078323     26.873      2.793
  72.347244     10.528      2.611
  72.617676      8.001      2.531
  72.889618      8.996      2.545
  73.163094     10.962      2.535
  73.438118     12.705      2.547
  73.714691     18.933      2.639
  73.992828     15.317      2.628
  74.272537     16.974      2.627
  74.553841     12.899      2.622
  74.836746     22.023      2.647
  75.121269     21.099      2.689
  75.407410     26.517      2.786
  75.695190     30.374      2.815
  75.984619     44.116      3.037
  76.275719     52.179      3.184
  76.568497     71.420      3.595
  76.862953    104.818      4.260
  77.159111    184.017      5.995
  77.456993    322.925      9.298
  77.756607    482.817     13.163
  78.057945    375.210     10.563
  78.361046    134.108      4.928
  78.665916     32.909      2.886
  78.972572     15.190      2.594
  79.281029     19.099      2.627
  79.591286     21.550      2.648
  79.903374     31.118      2.844
  80.217300     55.073      3.267
  80.533089     85.655      3.841
  80.850731     83.269      3.760
  81.170258     43.842      2.959
  81.815025      3.987      1.392
  82.467514      4.015      2.300
  82.796677      2.518      2.322
  83.127823      5.844      2.354
  83.628288      4.173      1.648
  84.472488      2.151      1.353
  85.329529      2.133      1.666
  85.850037      4.139      2.321
  86.199684      6.031      2.297
  86.728188      4.856      1.683
  87.261559      7.464      2.378
  87.619881     12.074      2.453
  87.980415     17.165      2.537
  88.343170     31.731      2.734
  88.708176     58.914      3.188
  89.075455     71.449      3.461
  89.445015     42.208      2.910
  89.816887     12.125      2.403
  90.191078      3.615      2.312
  91.327789      1.482      1.020
  92.877136      1.351      1.315
  93.666634      6.944      2.245
  94.065163      7.117      2.267
  94.466248      7.031      2.294
  94.869896      5.543      2.290
  95.276138      3.974      2.280
  95.684998      5.232      2.313
  96.096497      4.501      2.311
  96.510658      8.677      2.354
  96.927498     10.556      2.364
  97.347038     18.328      2.457
  97.769310     48.786      2.999
  98.194344     78.537      3.579
  98.622147     62.849      3.262
  99.052757     23.924      2.505
  99.922470      1.763      1.304
 101.025826      2.851      1.583
 102.601486      1.387      1.007
 103.981583      6.389      2.281
 104.447807      2.958      2.316
 104.917168      7.569      2.322
 105.389709     11.965      2.346
 105.865448     11.744      2.393
 106.344414     17.982      2.447
 106.826630     14.080      2.426
 107.312141     20.987      2.503
 107.800964     25.657      2.635
 108.293144     42.781      2.861
 108.788696     73.423      3.587
 109.287659    144.795      5.311
 109.790062    234.369      7.648
 110.295944    142.140      5.258
 110.805321     30.700      2.712
 111.318230     11.352      2.402
 111.834724      4.966      2.351
 112.354813      2.913      2.344
 112.878540      5.496      2.372
 113.405937     12.684      2.467
 113.937042     13.135      2.401
 114.471878     16.601      2.519
 115.010490     25.823      2.667
 115.552917     53.453      3.227
 116.099190     83.938      3.892
 117.761452      9.605      1.125
 119.459671      4.563      2.313
 120.033920      4.194      2.337
 120.903076      3.100      1.631
 121.781715      3.640      2.286
 122.372803      8.131      2.381
 122.968208      6.323      2.368
 123.567963     16.766      2.423
 124.172112     10.399      2.356
 124.780716      4.765      2.304
 125.702042      2.274      1.591
 126.633598      8.622      2.301
 127.260406      6.774      2.319
 127.891884      5.523      2.346
 128.528061      3.833      2.182
 129.814758      1.684      1.270
 131.120865      2.297      2.266
 132.113419      4.091      1.548
 133.792923      2.098      1.283
 135.159683      5.111      2.187
 136.198547      3.421      1.538
 137.602432      2.633      1.560
 138.669632      7.388      2.197
 139.388016      6.228      2.159
 140.112000     10.347      2.210
 140.841644     11.456      2.213
 141.576996     17.886      2.323
 142.318130     32.661      2.618
 143.065079     72.385      3.458
 143.817947     64.831      3.255
 144.576752     20.089      2.383
 145.341583     14.223      2.240
 146.112503     12.102      2.216
 146.889587     17.546      2.294
 147.672867     21.914      2.380
 148.462433     43.675      2.781
 149.258362     89.404      3.826
 150.060684    100.087      4.110
 150.869507     71.825      3.380
 151.684891    115.552      4.486
 152.506897    165.688      5.884
 153.335602     83.741      3.650
 154.171097     20.955      2.227
 155.013412      9.752      2.120
 155.862656      9.899      2.079
 156.718903     12.026      2.139
 157.582230     14.425      2.136
 158.452713     18.426      2.188
 159.330429     20.375      2.240
 160.215454     31.803      2.422
 161.107864     51.514      2.865
 162.007751    109.295      4.303
 162.915207    222.895      7.479
 163.830307    187.947      6.479
 164.753143     56.450      2.928
 165.683792     10.024      2.040
 166.622360      4.801      1.974
 167.568924      3.274      1.954
 168.523560      6.266      1.921
 169.486389      7.080      1.927
 170.457489      6.258      1.962
 171.436966     12.083      2.009
 172.424896     24.388      2.180
 173.421402     45.153      2.617
 174.426575     40.041      2.525
 175.440506     21.313      2.116
 176.463318     23.832      2.125
 177.495071     30.946      2.265
 178.535919     65.919      3.083
 179.585953     47.647      2.619
 180.645264     18.998      2.013
 181.713989     17.007      1.969
 182.792221     25.108      2.161
 183.880081     50.691      2.645
 184.977661    107.452      4.141
 186.085114    108.988      4.176
 187.202545     38.715      2.365
 188.330063      7.872      1.806
 189.467819      5.021      1.777
 190.615891      5.111      1.802
 191.774445      7.543      1.790
 192.943573      3.334      1.782
 194.123444      3.798      1.769
 195.314178      5.482      1.774
 196.515884      4.331      1.775
 197.728729      5.303      1.821
 198.952835      7.113      1.772
 200.188339      6.634      1.864
 201.435394     16.502      1.946
 202.694122     12.065      1.919
 203.964676     13.473      1.949
 205.247238     25.999      2.192
 206.541931     26.216      2.142
 207.848923      6.877      1.835
 209.168350      6.841      1.838
 210.500381      9.403      1.908
 211.845169     23.051      2.101
 213.202881     33.252      2.329
 214.573700     21.460      2.104
 215.957779     28.956      2.233
 217.355301     26.467      2.189
 218.766418     18.335      2.047
 220.191345     26.200      2.171
 221.630219     46.000      2.639
 223.083237     61.750      3.050
 224.550598     34.985      2.355
 226.032486     18.091      2.028
 227.529099     35.022      2.346
 229.040619     51.595      2.763
 233.666656      3.763      0.805
 238.434296      2.746      1.742
 240.873032      1.215      1.215
 243.349350      3.216      1.735
 245.864059      1.372      1.191
 249.278107      1.315      1.205
 252.763763      1.955      1.211
 255.426193      3.262      1.694
 257.224579      4.666      1.770
 259.042053      7.883      1.754
 260.878815      4.033      1.722
 262.735229     10.378      1.826
 264.611511     16.003      1.913
 266.507965     20.161      2.060
 268.424866     34.078      2.341
 270.362549     77.481      3.569
 272.321259     63.949      3.192
 274.301331     26.258      2.190
 276.303101     36.408      2.454
 278.326843     71.816      3.512
 280.372925     49.143      2.817
 282.441650     12.938      1.998
 284.533356     18.268      2.110
 286.648376     43.081      2.693
 288.787079     62.444      3.258
 290.949799     22.533      2.235
 293.136871      4.254      1.917
 295.348724      8.586      1.939
 297.585693     19.339      2.168
 299.848206     25.162      2.318
 302.136597     23.845      2.245
 304.451294     22.145      2.242
 306.792694     58.595      3.269
 309.161163     63.357      3.446
 311.557220     17.319      2.143
 313.981232      3.207      1.951
 316.433655     11.468      2.065
 318.914886      6.987      2.037
 321.425446      3.279      2.037
 323.965759     18.962      2.267
 326.536285     17.012      2.282
 329.137543     32.848      2.687
 331.770020     26.825      2.528
 334.434174     23.596      2.475
 337.130585     16.816      2.359
 339.859741     10.168      2.193
 342.622162      4.151      2.154
 345.418396     11.069      2.256
 348.248993     14.045      2.348
 351.114563     14.757      2.376
 354.015625     18.129      2.397
 356.952759     29.419      2.640
 359.926605     33.753      2.726
 362.937775     32.590      2.646
 365.986938     22.948      2.420
 369.074646     37.742      2.740
 372.201599     44.275      2.983
 375.368469     32.105      2.565
 378.575958     46.892      2.989
 381.824677     34.729      2.566
 385.115387     21.155      2.193
 388.448853     30.000      2.402
 391.825806     32.786      2.478
 395.246979      8.687      1.893
 398.713165      7.497      1.865
 402.225128     14.234      1.928
 405.783661     22.602      2.060
 409.389648     20.481      2.017
 413.043945     39.679      2.516
 416.747375     47.007      2.764
 420.500854     30.885      2.259
 424.305267     13.558      1.831
 430.109436      4.154      1.180
 436.033478      6.689      1.699
 440.051086     15.779      1.845
 444.124512     33.997      2.286
 448.254761     48.267      2.770
 452.442871     18.696      1.882
 456.689972      7.478      1.662
 460.997162     14.697      1.780
 465.365540     19.633      1.883
 469.796295     21.957      1.916
 474.290680     12.531      1.725
 478.849854     12.616      1.677
 483.475098     19.873      1.842
 488.167664     33.928      2.245
 492.928894     28.084      2.044
 497.760101     16.990      1.706
 502.662659     24.279      1.938
 507.638031     21.961      1.819
 512.687622     11.782      1.605
 517.812988      9.133      1.517
 523.015564     12.166      1.586
 528.296997     18.191      1.719
 533.658752     12.330      1.544
 539.102539      9.344      1.476
 544.630066     13.362      1.526
 550.243103      9.197      1.452
 555.943359      2.171      1.332
 561.732605      5.230      1.373
 567.612793     10.549      1.468
 573.585754     18.252      1.626
 579.653564     22.322      1.746
 585.818054     19.369      1.659
 592.081421      8.080      1.403
 598.445862      9.872      1.453
 604.913452     15.538      1.575
 611.486450     25.583      1.831
 618.167175     17.762      1.619
 624.958008     10.804      1.443
 631.861267     14.351      1.543
 638.879578     14.376      1.542
 646.015503     10.982      1.507
 653.271667     17.162      1.626
 660.650757     20.014      1.699
 668.155579     19.268      1.674
 675.789063     11.815      1.482
 683.554077     13.634      1.504
 691.453613     16.153      1.583
 699.490906     18.349      1.653
 707.669189     20.624      1.719
 715.991821     16.999      1.617
 724.462036     17.918      1.638
 733.083557     24.038      1.805
 741.859802     23.513      1.801
 750.794617     22.783      1.777
 759.891724     19.012      1.669
 769.155334      8.181      1.383
 778.589355     15.886      1.561
 788.197998     13.172      1.462
 797.985596     14.142      1.478
 807.956665     10.928      1.386
 818.115845     10.657      1.389
 828.467712     24.383      1.787
 839.017334     17.048      1.542
 849.769775      8.308      1.294
 860.730286     10.457      1.331
 871.904236      7.352      1.274
 883.297180      5.218      1.206
 894.914917      4.102      1.188
 906.763306      7.382      1.253
 918.848511     15.293      1.430
 931.177063     12.216      1.344
 943.755432      3.619      1.171
 956.590393      6.910      1.244
 969.688965     12.585      1.375
 983.058411      9.097      1.312
 996.706299      9.042      1.308
ENDDATA           1241
ENDSUBENT         1251
ENDENTRY             3
