ENTRY            14032   20050914   20060111                  1337
SUBENT        14032001   20050914   20060111                  1337
BIB                 10         28
INSTITUTE  (1USALAS)
REFERENCE  (R,LA-UR-05-6885,2005)
           (C,2004SANTA,1,989,2004)
AUTHOR     (E.I.Esch,R.Reifarth,A.Alpizar-Vicente,R.Hatarik,
            E.M.Bond,T.A.Bredeweg,S.E.Glover,U.Greife,R.C.Haight,
            J.M.O'Donnell,R.S.Rundberg,J.M.Schwantes,J.L.Ullmann,
            D.J.Vieira,J.B.Wilhelmy,J.M.Wouter)
TITLE      The 237Np(n,g) cross section between 20 meV and 200 keV
FACILITY   (LINAC,1USALAS) 20 m neutron flight path 14
            (FP14) at the Manuel Lujan Jr. Neutron Scattering
            Center at the Los Alamos Neutron Science Center
            (LANSCE)
INC-SOURCE  The neutron flux at the sample position of Flight
             Path 14 is 3E5 n/s/cm2/decade.
DETECTOR   (SCIN) a full 4Pi array would consist of 162 crystals
            BaF2 of four different shapes, each shape covering
            the same solid angle
METHOD     (TOF) 237Np cross section determined relative to the
            well known resonance at 0.5 eV
SAMPLE     The 237Np target was manufactured by the Isotope and
            Nuclear Chemistry group at LANL. The 237Np was first
            chemically separated from it decay daughter 233Pa
            using anion-exchange column chemistry and then
            electro-plated out of an ammonium sulfate solution
            onto two 2 microm thick Ti foil. The total amount of
            237Np was determined to be 0.44 mg deposited with a
            diameter of 6.4 mm.
HISTORY    (20050912C) DR
ENDBIB              28
NOCOMMON             0          0
ENDSUBENT           31
SUBENT        14032002   20050914   20060111                  1337
BIB                  3          4
REACTION   (93-NP-237(N,G)93-NP-238,,SIG)
ERR-ANALYS (ERR-S) Statistical uncertainty
           (ERR-SYS) Systematic uncertainty
STATUS     Data received from author on table (R. Reifarth)
ENDBIB               4
NOCOMMON             0          0
DATA                 4        353
EN         DATA       ERR-S      ERR-SYS
EV         B          B          B
   2.06E-02   190.625    1.8965     5.1463
   2.37E-02   176.344    1.7573     4.6402
   2.72E-02   161.306    1.6120     4.1360
   3.11E-02   147.87     1.4708     3.6936
   3.56E-02   133.329    1.3257     3.2420
   4.08E-02   123.988    1.2326     2.9327
   4.68E-02   114.144    1.1387     2.6241
   5.36E-02   107.011    1.0624     2.3891
   6.15E-02    98.9969   0.9884     2.1433
   7.08E-02    89.3402   0.8903     1.8728
   8.20E-02    83.9457   0.8343     1.6991
   9.59E-02    76.4532   0.7628     1.4888
   1.14E-01    68.7358   0.6869     1.2811
   1.39E-01    65.5129   0.6544     1.1566
   1.66E-01    59.2108   0.5893     0.9937
   2.07E-01    58.8311   0.5927     0.9241
   2.61E-01    60.7834   0.7862     0.8851
   3.00E-01    67.4839   2.         0.9360
   3.07E-01    71.3662   2.0551     0.9817
   3.15E-01    71.8302   2.0423     0.9791
   3.23E-01    72.4711   2.0988     0.9788
   3.31E-01    80.4674   2.3958     1.0768
   3.38E-01    85.7599   2.5305     1.1388
   3.45E-01    89.2154   2.5873     1.1756
   3.52E-01    96.3674   2.7642     1.2600
   3.60E-01   101.031    2.8588     1.3106
   3.68E-01   118.061    3.3708     1.5181
   3.75E-01   124.407    3.6515     1.5884
   3.82E-01   141.185    4.0832     1.7898
   3.89E-01   152.9      4.3337     1.9244
   3.96E-01   163.107    4.8331     2.0381
   4.03E-01   193.668    5.6081     2.4045
   4.09E-01   223.201    6.4432     2.7535
   4.16E-01   250.872    7.1465     3.0749
   4.23E-01   321.26     9.0078     3.9120
   4.30E-01   384.897   11.5038     4.6563
   4.36E-01   455.252   13.6093     5.4764
   4.42E-01   590.327   17.4803     7.0609
   4.48E-01   732.731   21.6003     8.7142
   4.54E-01   960.385   28.1447    11.3562
   4.60E-01  1238.5     36.2072    14.5602
   4.67E-01  1590.63    46.3597    18.5914
   4.73E-01  1925.62    56.038     22.3753
   4.80E-01  2124.36    61.6967    24.5396
   4.86E-01  2150.79    62.4318    24.6981
   4.93E-01  1935.21    56.2503    22.0904
   5.00E-01  1545.1     45.0355    17.5317
   5.07E-01  1194.55    34.9431    13.4726
   5.14E-01   896.54    26.3448    10.0503
   5.21E-01   645.551   19.1095     7.1925
   5.28E-01   481.679   14.334      5.3338
   5.36E-01   357.801   10.0044     3.9376
   5.45E-01   274.281    7.7889     2.9966
   5.53E-01   203.362    5.9682     2.2056
   5.62E-01   172.324    4.823      1.8552
   5.73E-01   131.045    3.7383     1.3988
   5.83E-01   105.631    3.1418     1.1179
   5.94E-01    85.483    2.5101     0.8969
   6.07E-01    73.6892   2.0921     0.7656
   6.22E-01    61.5356   1.7772     0.6316
   6.38E-01    46.1125   1.3443     0.4675
   6.62E-01    37.9772   1.1163     0.3781
   6.92E-01    31.4962   0.9109     0.3067
   7.26E-01    23.2459   0.6856     0.2208
   7.96E-01    20.6994   0.6143     0.1872
   8.77E-01    19.5392   0.5822     0.1673
   9.64E-01    21.6644   0.6378     0.1754
   1.04E+00    25.1664   0.7466     0.1945
   1.12E+00    34.1166   1.0214     0.2513
   1.16E+00    51.1599   1.4937     0.3663
   1.21E+00    82.5044   2.4055     0.5766
   1.23E+00   140.184    3.9724     0.9637
   1.26E+00   255.983    7.3949     1.7364
   1.28E+00   473.26    13.1772     3.1723
   1.30E+00   662.793   19.5423     4.3897
   1.32E+00   602.499   17.8459     3.9491
   1.33E+00   428.523   12.0373     2.7793
   1.36E+00   316.108    8.8294     2.0249
   1.38E+00   370.432   10.4113     2.3432
   1.40E+00   631.629   17.642      3.9449
   1.42E+00  1169.22    34.6114     7.2089
   1.44E+00  1865.93    54.5517    11.3764
   1.46E+00  2070.14    60.2561    12.4794
   1.48E+00  1482.28    47.6677     8.8338
   1.50E+00   974.942   40.5142     5.7545
   1.51E+00   672.537   28.1299     3.9464
   1.52E+00   467.953   19.8142     2.7299
   1.53E+00   333.984   14.3527     1.9369
   1.54E+00   257.013   11.1824     1.4816
   1.55E+00   189.547    8.3426     1.0862
   1.56E+00   146.517    6.7243     0.8346
   1.57E+00   114.62     5.6770     0.6489
   1.58E+00   105.485    4.5631     0.5936
   1.60E+00    85.3017   3.7015     0.4761
   1.61E+00    60.1937   2.7031     0.3332
   1.63E+00    46.289    2.2506     0.2536
   1.66E+00    37.7138   1.876      0.2036
   1.68E+00    28.4328   1.3        0.1515
   1.72E+00    24.4361   1.1756     0.1274
   1.79E+00    23.1362   1.0909     0.1161
   1.85E+00    37.5613   1.7685     0.1821
   1.88E+00    51.2376   2.3927     0.2449
   1.91E+00    91.9585   3.9811     0.4322
   1.93E+00   134.559    6.2413     0.6262
   1.94E+00   165.013    7.5678     0.7623
   1.95E+00   170.042    7.7956     0.7797
   1.97E+00   149.387    6.9041     0.6798
   1.98E+00    86.8265   4.1979     0.3921
   2.00E+00    60.3036   2.8845     0.2696
   2.02E+00    26.3997   1.2851     0.1168
   2.07E+00    10.635    0.5310     0.0457
   2.26E+00     4.1444   0.3709     0.0159
   2.86E+00     6.7347   0.3654     0.0181
   3.61E+00    40.6821   1.9327     0.0623
   3.68E+00    88.387    3.9433     0.1262
   3.72E+00   125.29     5.9076     0.1732
   3.74E+00   236.516   10.619      0.3189
   3.77E+00   395.185   17.0347     0.5192
   3.79E+00   714.002   30.0467     0.9134
   3.82E+00  1004.01    41.7223     1.2498
   3.85E+00   951.134   39.6164     1.1512
   3.87E+00   592.714   25.1757     0.6969
   3.90E+00   294.21    12.9575     0.3358
   3.93E+00   140.603    6.5600     0.1556
   3.95E+00    74.3057   3.4720     0.0796
   3.99E+00    29.9428   1.4730     0.0307
   4.10E+00    30.8271   1.5161     0.0273
   4.18E+00    78.9104   3.5208     0.0628
   4.22E+00   104.252    5.0830     0.0782
   4.25E+00    86.7285   3.7648     0.0620
   4.29E+00    38.0767   1.8663     0.0255
   4.34E+00    11.5674   0.5726     0.0070
   4.72E+00    55.2996   2.7291     0.0103
   4.82E+00   107.443    5.0767     0.0089
   4.86E+00    69.6353   3.1627     0.0025
   4.91E+00    12.6656   0.6299     0.0001
   5.38E+00    33.5997   1.5930     0.0157
   5.50E+00    75.6281   3.3867     0.0433
   5.56E+00   132.709    6.1070     0.0837
   5.60E+00   229.758   10.4056     0.1529
   5.64E+00   426.839   18.6499     0.2989
   5.68E+00   898.105   37.969      0.6599
   5.71E+00  1382.05    57.0777     1.0633
   5.75E+00  1267.01    52.7932     1.0186
   5.79E+00   622.477   26.8479     0.5219
   5.83E+00   228.057   10.2427     0.1991
   5.87E+00    79.7662   3.7117     0.0724
   5.93E+00    38.5541   1.9064     0.0367
   6.03E+00    26.6334   1.3053     0.0275
   6.24E+00    85.9341   4.0946     0.1037
   6.30E+00   169.279    7.6297     0.2121
   6.34E+00   190.238    8.5848     0.2450
   6.38E+00    90.6501   4.3384     0.1198
   6.44E+00    29.0442   1.4431     0.0397
   6.53E+00    13.4962   0.6570     0.0194
   7.13E+00    44.0553   2.1345     0.0826
   7.31E+00   163.701    7.3457     0.3278
   7.36E+00   245.278   11.0458     0.4997
   7.41E+00   165.026    7.7617     0.3419
   7.46E+00    25.5546   1.2684     0.0538
   7.67E+00    19.1831   0.8816     0.0430
   8.22E+00   139.202    6.5193     0.3607
   8.28E+00   127.067    6.1214     0.3336
   8.34E+00    41.3938   1.8809     0.1101
   8.93E+00   189.116    8.5352     0.5686
   8.99E+00   114.031    5.1505     0.3468
   9.08E+00   147.345    6.5416     0.4549
   9.16E+00   382.405   16.75       1.1985
   9.23E+00   594.263   24.9953     1.8831
   9.29E+00   305.258   14.7408     0.9778
   9.38E+00    33.7541   1.5992     0.1096
   9.59E+00    17.367    0.8634     0.0584
   1.02E+01    51.6443   2.3139     0.1899
   1.04E+01   108.01     4.8766     0.4059
   1.05E+01   202.344    9.1847     0.7697
   1.05E+01   435.923   18.8301     1.6734
   1.06E+01   665.546   27.8419     2.5780
   1.07E+01   758.647   31.6809     2.9649
   1.08E+01   859.57    35.7899     3.3892
   1.08E+01   561.968   24.0589     2.2352
   1.09E+01   420.677   20.9399     1.6878
   1.10E+01   739.605   31.1192     2.9931
   1.11E+01   587.913   25.3113     2.3996
   1.11E+01   172.62     8.5181     0.7105
   1.12E+01    26.2911   1.2638     0.1091
   1.15E+01    17.1668   0.8125     0.0734
   1.21E+01    62.8985   3.0299     0.2850
   1.23E+01    90.5478   4.0134     0.4177
   1.24E+01   262.328   11.8016     1.2223
   1.25E+01   548.506   23.2179     2.5749
   1.26E+01   397.148   17.661      1.8781
   1.27E+01    23.6684   1.1772     0.1127
   1.35E+01    17.3      0.7861     0.0876
   1.59E+01   301.932   13.4302     1.7808
   1.60E+01   433.803   18.5943     2.5737
   1.61E+01   174.488    8.3604     1.0412
   1.62E+01    25.7343   1.1915     0.1544
   1.67E+01   102.582    4.5450     0.6299
   1.68E+01    33.3218   1.5896     0.2061
   1.75E+01    57.6391   2.8584     0.3680
   1.77E+01    16.468    0.7926     0.1062
   1.91E+01    21.8935   0.9998     0.1496
   1.99E+01    71.3742   3.4048     0.5011
   2.01E+01   204.387    9.7241     1.4494
   2.03E+01   401.061   17.268      2.8581
   2.04E+01   144.577    7.1845     1.0353
   2.06E+01    49.0507   2.3968     0.3529
   2.09E+01   154.02     7.3283     1.1208
   2.10E+01   136.573    6.2849     0.9986
   2.12E+01    43.5846   1.9408     0.3207
   2.17E+01   176.239    8.3431     1.3172
   2.19E+01   396.057   17.0891     2.9740
   2.20E+01    88.9248   4.4329     0.6708
   2.23E+01    43.8336   2.0285     0.3337
   2.27E+01   146.804    6.4658     1.1296
   2.29E+01    49.7083   2.4194     0.3848
   2.33E+01   177.996    8.3586     1.3944
   2.35E+01   444.721   19.2234     3.4994
   2.37E+01   215.09     9.9055     1.6999
   2.39E+01    71.1767   3.5126     0.5658
   2.41E+01   139.382    5.9108     1.1145
   2.48E+01   906.884   38.6963     7.3781
   2.49E+01   620.748   28.0946     5.0718
   2.51E+01    57.4083   2.8697     0.4710
   2.54E+01    49.7315   2.3217     0.4109
   2.61E+01   182.357    8.3605     1.5322
   2.63E+01   441.454   19.3094     3.7248
   2.65E+01   463.936   20.4622     3.9306
   2.67E+01    17.4642   0.8484     0.1485
   2.84E+01    27.8172   1.3827     0.2453
   2.98E+01    89.3043   3.9141     0.8095
   3.01E+01   322.281   14.6696     2.9363
   3.03E+01   654.271   27.6712     5.9839
   3.05E+01   165.237    7.4107     1.5170
   3.08E+01    41.5598   1.969      0.3834
   3.14E+01    18.2829   0.9138     0.1706
   3.34E+01    57.054    2.6800     0.5503
   3.39E+01    29.7686   1.4171     0.2892
   3.45E+01    38.445    1.8492     0.3770
   3.52E+01    30.3068   1.468      0.3000
   3.70E+01   164.83     7.6407     1.6742
   3.72E+01    48.207    2.3924     0.4913
   3.78E+01   172.995    7.3657     1.7772
   3.82E+01    85.4384   3.7179     0.8817
   3.87E+01   180.22     8.4341     1.8724
   3.90E+01   142.459    6.8142     1.4851
   3.93E+01    45.5686   2.2008     0.4766
   3.97E+01    34.4623   1.6389     0.3624
   4.07E+01    86.5827   4.1631     0.9217
   4.12E+01    31.6079   1.5648     0.3383
   4.49E+01    48.6859   2.4298     0.5421
   4.57E+01   131.886    6.1373     1.4807
   4.60E+01   238.896   11.0332     2.6906
   4.63E+01   124.451    6.1192     1.4060
   4.69E+01   139.692    6.2209     1.5863
   4.73E+01    71.3847   3.4643     0.8139
   4.80E+01    45.7065   2.2591     0.5243
   4.86E+01    74.4493   3.5763     0.8593
   4.93E+01   188.09     9.0239     2.1841
   4.97E+01   443.054   18.9103     5.1602
   5.00E+01   441.751   19.5661     5.1605
   5.04E+01   424.665   20.0372     4.9757
   5.07E+01    24.7384   1.1892     0.2907
   5.21E+01    29.8962   1.4710     0.3555
   5.82E+01    56.4318   2.4850     0.7026
   5.94E+01   155.503    7.2630     1.9524
   5.98E+01   171.897    8.4874     2.1643
   6.03E+01    78.6481   3.8178     0.9930
   6.11E+01    56.4135   2.7347     0.7162
   6.17E+01    65.8592   3.0446     0.8392
   6.24E+01   140.891    6.7749     1.8035
   6.28E+01    86.6622   4.1830     1.1123
   6.34E+01    35.1054   1.6654     0.4522
   6.50E+01   111.069    5.3532     1.4450
   6.55E+01   223.121   10.0173     2.9107
   6.59E+01    50.502    2.3955     0.6605
   6.70E+01   175.409    8.5830     2.3087
   6.75E+01   251.409   11.4668     3.3179
   6.79E+01    60.1778   2.9682     0.7962
   6.89E+01    42.6552   2.0471     0.5674
   7.03E+01    92.8039   4.0278     1.2442
   7.10E+01   167.579    8.0212     2.2545
   7.14E+01    29.4453   1.4377     0.3971
   7.41E+01    26.287    1.2922     0.3594
   7.73E+01    56.5292   2.5212     0.7849
   7.85E+01    76.1754   3.5561     1.0639
   7.96E+01    33.4985   1.6249     0.4702
   8.28E+01   118.443    5.6984     1.6861
   8.36E+01   166.289    8.0529     2.3750
   8.43E+01    51.6363   2.3786     0.7399
   8.63E+01   173.374    7.9984     2.5045
   8.69E+01    82.763    3.7876     1.1985
   8.77E+01   105.761    4.6928     1.5364
   8.85E+01   104.66     4.5644     1.5253
   8.97E+01    83.2194   3.6717     1.2187
   9.12E+01    34.5256   1.5653     0.5084
   9.35E+01    23.6841   1.1433     0.3518
   9.71E+01    69.0622   3.2981     1.0388
   9.84E+01    79.8865   3.9366     1.2072
   9.93E+01    91.9804   4.3754     1.3943
   1.00E+02   128.49     6.2972     1.9537
   1.01E+02    99.0144   4.6530     1.5102
   1.02E+02    34.6083   1.7150     0.5294
   1.05E+02    73.9664   3.3738     1.1419
   1.06E+02    34.8272   1.7086     0.5401
   1.10E+02    79.0383   3.8779     1.2397
   1.11E+02    76.7036   3.8183     1.2075
   1.12E+02    62.5458   2.9657     0.9876
   1.14E+02    53.8155   2.5002     0.8541
   1.16E+02    19.436    0.9584     0.3100
   1.25E+02    33.8792   1.6805     0.5535
   1.29E+02    25.0662   1.2001     0.4131
   1.38E+02    55.534    2.7540     0.9347
   1.40E+02    29.7177   1.4710     0.5026
   1.45E+02    36.5383   1.8166     0.6239
   1.66E+02    40.0774   1.9651     0.7125
   1.73E+02    46.5923   2.1671     0.8382
   1.77E+02    45.5223   2.1691     0.8243
   1.82E+02    42.3134   1.9067     0.7711
   1.89E+02    36.9162   1.8005     0.6801
   2.08E+02    31.8752   1.5615     0.6033
   2.18E+02    61.1872   2.8166     1.1718
   2.19E+02    32.8748   1.6221     0.6307
   2.30E+02    55.3314   2.7177     1.0746
   2.33E+02    42.9492   2.0854     0.8371
   2.37E+02    26.4742   1.2688     0.5185
   2.52E+02    38.0794   1.7701     0.7574
   2.56E+02    33.3387   1.6443     0.6662
   2.60E+02    24.9997   0.7308     0.5013
   3.98E+02    18.1529   0.2034     0.4035
   5.01E+02    16.6927   0.1973     0.3907
   6.31E+02    13.5595   0.1727     0.3333
   7.94E+02    11.0825   0.1535     0.2855
   1.00E+03     9.6014   0.1503     0.2587
   1.26E+03     8.5719   0.1404     0.2411
   1.58E+03     7.2076   0.1311     0.2113
   2.00E+03     5.8566   0.1261     0.1786
   2.51E+03     5.9077   0.1258     0.1872
   3.16E+03     4.7610   0.1116     0.1565
   3.98E+03     4.4623   0.1153     0.1520
   5.01E+03     3.4735   0.1042     0.1224
   6.31E+03     4.1457   0.1212     0.1511
   7.94E+03     2.8994   0.1024     0.1091
   1.00E+04     3.1158   0.1079     0.1210
   1.26E+04     2.5598   0.1020     0.1024
   1.58E+04     2.7249   0.1027     0.1123
   2.00E+04     2.2045   0.0879     0.0935
   2.51E+04     1.7556   0.0795     0.0766
   3.16E+04     1.6278   0.0805     0.0729
   5.01E+04     1.2144   0.0505     0.0573
   7.94E+04     0.8535   0.0417     0.0423
   2.00E+05     0.5780   0.0278     0.0315
   3.98E+05     0.5453   0.0261     0.0317
ENDDATA            355
ENDSUBENT          364
ENDENTRY             2
