ENTRY            23343   20170625   20180122   20180122       2260
SUBENT        23343001   20170625   20180122   20180122       2260
BIB                 10         18
TITLE      On-line method for separation of short-lived tellurium
           isotope from fission products.
AUTHOR     (M.Zendel,H.Ohm, E.Stender,N.Trautmann)
INSTITUTE  (2GERMNZ)
REFERENCE  (P,MAINZ-76,10,1976) In German
FACILITY   (REAC,2GERMNZ)
SAMPLE     Te-136 delayed neutron precursor was produced by
           fission of U-235 .
DETECTOR   (GELI) Ge(Li) detector for gamma-spectrum and HLs
           measurement.
           (HE3SP) He3 spectrometer to measure neutron spectrum.
METHOD     (GSPEC) Gamma-spectrum was measured, dominate lines
           are 87.0, 266.5, 603.8 keV (Te-135) , 134.5, 332.8,
           577.8, 630.8 keV (Te-136); 243.0 keV (Te-137) .
CORRECTION  - For thermal neutrons peak .
            - Background.
            - Detection efficiency.
HISTORY    (20150521C) M.M.
ENDBIB              18
NOCOMMON             0          0
ENDSUBENT           21
SUBENT        23343002   20170625   20180122   20180122       2260
BIB                  5          9
REACTION   (52-TE-136(0,B-)53-I-136,,PN/DE,,REL)
DECAY-DATA (52-TE-136,18.SEC)
           (52-TE-137,3.3SEC)
EN-SEC     (E,N) Energy of delayed neutrons.
ERR-ANALYS (E-ERR-DIG) Digitizing error of E ( X scale)
           (ERR-DIG)    Digitizing error of DATA ( Y scale)
           Quantization errors (one pixel):
           scale X - 1.29 keV, scale Y - 1.09 arb.units.
STATUS     (CURVE) Fig.5 of P,MAINZ-76,10,1976
ENDBIB               9
COMMON               2          3
E-ERR-DIG  ERR-DIG
KEV        ARB-UNITS
 0.304      0.331
ENDCOMMON            3
DATA                 3        263
E-MIN      E-MAX      DATA
KEV        KEV        ARB-UNITS
               8.16       0.0
   8.16       11.41     120.02
  11.41       16.69     224.10
  16.69       20.93     304.33
  20.93       24.78     320.61
  24.78       29.39     307.62
  29.39       34.03     280.53
  34.03       37.98     256.70
  37.98       40.60     245.88
  40.60       44.45     242.64
  44.45       48.91     249.16
  48.91       53.33     255.68
  53.33       57.02     279.01
  57.02       61.92     317.50
  61.92       66.70     370.63
  66.70       68.83     447.62
  68.83       73.44     532.18
  73.44       77.41     642.76
  77.41       82.30     727.33
  82.30       85.76     734.93
  85.76       89.69     639.56
  89.69       93.71     472.63
  93.71       96.89     346.90
  96.89       99.84     250.99
  99.84      108.91     210.36
 108.91      112.67     228.81
 112.67      117.66     244.00
 117.66      120.15     285.76
 120.15      129.32     274.39
 129.32      135.97     225.64
 135.97      141.26     193.15
 141.26      144.60     173.66
 144.60      147.90     147.10
 147.90      152.44     144.41
 152.44      156.94     132.51
 156.94      160.80     144.44
 160.80      163.43     133.07
 163.43      168.59     124.42
 168.59      171.73     127.15
 171.73      178.82     152.10
 178.82      184.11     120.69
 184.11      188.69     101.19
 188.69      191.91      90.37
 191.91      194.47      99.05
 194.47      198.32      94.73
 198.32      202.79     100.16
 202.79      207.18     108.31
 207.18      210.98     142.47
 210.98      214.89     128.40
 214.89      220.69     124.08
 220.69      223.17     126.27
 223.17      226.82     159.88
 226.82      231.75     197.84
 231.75      236.81     239.05
 236.81      240.74     230.39
 240.74      243.49     210.89
 243.49      247.62     167.55
 247.62      252.32     113.37
 252.32      255.03      93.87
 255.03      260.31      63.53
 260.31      264.20      46.21
 264.20      268.03      50.56
 268.03      271.82      55.99
 271.82      276.21      72.27
 276.21      280.48      99.38
 280.48      284.69     160.11
 284.69      291.74     203.49
 291.74      295.71     170.44
 295.71      299.54     162.87
 299.54      303.93     179.15
 303.93      308.40     203.56
 308.40      312.46     188.94
 312.46      316.47     135.30
 316.47      320.28     130.97
 320.28      324.08     152.67
 324.08      327.97     150.52
 327.97      331.84     144.03
 331.84      336.90     148.38
 336.90      340.76     173.33
 340.76      344.10     147.32
 344.10      347.42     128.91
 347.42      355.27     109.97
 355.27      359.29      78.01
 359.29      362.64      53.09
 362.64      367.19      25.47
 367.19      372.13      39.58
 372.13      376.38      97.59
 376.38      379.53     131.20
 379.53      383.51     120.93
 383.51      387.37      92.76
 387.37      391.65     118.25
 391.65      396.39     173.55
 396.39      400.99     264.62
 400.99      404.89     373.58
 404.89      408.82     483.62
 408.82      411.72     586.08
 411.72      416.21     596.38
 416.21      421.58     590.44
 421.58      425.26     514.03
 425.26      429.99     421.92
 429.99      433.47     428.98
 433.47      436.95     326.56
 436.95      440.29     330.36
 440.29      443.71     282.13
 443.71      446.40     253.95
 446.40      452.19     240.97
 452.19      455.97     257.25
 455.97      461.71     267.02
 461.71      465.69     273.55
 465.69      469.19     224.79
 469.19      472.13     171.68
 472.13      475.02      90.39
 475.02      479.10      50.84
 479.10      484.28      14.54
 484.28      488.05      33.53
 488.05      492.44      50.34
 492.44      500.68      74.22
 500.68      503.13      94.29
 503.13      507.44     117.61
 507.44      511.82     166.95
 511.82      516.33     161.01
 516.33      520.85     164.28
 520.85      527.32     154.54
 527.32      532.58     150.23
 532.58      535.29     113.38
 535.29      539.21      98.22
 539.21      543.09      92.28
 543.09      548.23      88.50
 548.23      552.16      95.57
 552.16      556.08      61.44
 556.08      559.81      73.92
 559.81      563.44     108.07
 563.44      567.14     155.79
 567.14      571.07     166.64
 571.07      578.96     130.89
 578.96      583.51     104.90
 583.51      588.06     113.05
 588.06      592.00     89.22
 592.00      599.05     81.11
 599.05      603.46     98.48
 603.46      608.57     113.67
 608.57      611.84     111.52
 611.84      616.38      96.90
 616.38      620.93      93.12
 620.93      624.21      77.42
 624.21      626.81      74.18
 626.81      630.72      66.06
 630.72      635.29      56.86
 635.29      639.88      44.42
 639.88      645.07      22.76
 645.07      648.25      27.11
 648.25      651.38      37.42
 651.38      657.14      54.23
 657.14      659.13      46.67
 659.13      663.06      32.04
 663.06      667.53      26.09
 667.53      671.90      42.37
 671.90      677.62      71.66
 677.62      684.76      68.98
 684.76      688.67      46.78
 688.67      695.12      50.59
 695.12      699.68      39.77
 699.68      702.96      27.32
 702.96      706.80      21.91
 706.80      711.89      31.69
 711.89      715.68      43.09
 715.68      719.43      55.57
 719.43      723.14      81.60
 723.14      726.96     109.80
 726.96      730.92      93.55
 730.92      734.85      75.14
 734.85      739.93      68.65
 739.93      743.71      96.31
 743.71      746.93     101.21
 746.93      751.47      93.63
 751.47      755.35      88.23
 755.35      759.30      84.99
 759.30      763.95      56.82
 763.95      768.52      29.20
 768.52      772.33      31.93
 772.33      775.48      48.20
 775.48      779.34      54.18
 779.34      783.90      48.23
 783.90      787.82      33.61
 787.82      792.37      25.50
 792.37      800.10      15.77
 800.10      803.27      22.29
 803.27      808.38      32.06
 808.38      810.88      36.41
 810.88      814.63      55.94
 814.63      824.27      75.47
 824.27      827.49      60.33
 827.49      831.93      76.06
 831.93      836.47      79.87
 836.47      841.12      60.92
 841.12      843.79      30.04
 843.79      847.71      20.29
 847.71      850.97       8.93
 850.97      862.52       6.25
 862.52      867.57      18.20
 867.57      872.68      43.15
 872.68      879.18      27.46
 879.18      883.09      17.18
 883.09      887.58      10.69
 887.58      890.81      21.00
 890.81      895.29       6.39
 895.29      899.71      30.25
 899.71      903.52      35.15
 903.52      907.39      49.79
 907.39      911.26      28.13
 911.26      915.07      45.49
 915.07      922.85      48.76
 922.85      927.40      22.23
 927.40      931.86      31.46
 931.86      935.72      37.98
 935.72      938.34      29.32
 938.34      945.44      22.84
 945.44      951.29      17.44
 951.29      963.48       0.
 963.48      966.57      28.35
 966.57      970.37      46.25
 970.37      974.90      50.06
 974.90      979.48      35.98
 979.48      983.36      22.99
 983.36      987.17      26.26
 987.17      994.90      39.29
 994.90      998.19      24.68
 998.19     1001.50      10.06
1001.50     1014.95       0.
1014.95     1019.30      33.97
1019.30     1024.40      38.87
1024.40     1027.65      43.76
1027.65     1030.85      37.81
1030.85     1034.75      43.79
1034.75     1039.30      31.34
1039.30     1043.25      14.01
1043.25     1054.20       7.54
1054.20     1058.00      13.53
1058.00     1065.15      11.38
1065.15     1076.10       0.
1076.10     1078.60      10.36
1078.60     1082.45      14.70
1082.45     1086.95      18.51
1086.95     1093.40      10.41
1093.40     1102.40      18.02
1102.40     1119.20       0.
1119.20     1126.15      10.53
1126.15     1129.95      34.40
1129.95     1135.75      29.00
1135.75     1139.00      24.68
1139.00     1142.90      22.53
1142.90     1149.95      25.26
1149.95     1154.45      14.99
1154.45     1158.30      24.76
1158.30     1162.15      28.57
1162.15     1166.00      24.24
1166.00     1173.70      20.47
1173.70     1179.45      45.43
1179.45     1185.25      37.87
1185.25     1189.80      28.13
1189.80     1194.30      33.57
1194.30     1197.60      24.37
1197.60                   8.67
ENDDATA            265
ENDSUBENT          283
ENDENTRY             2
