ENTRY            41624   20171210   20180402   20180319       4177
SUBENT        41624001   20171210   20180402   20180319       4177
BIB                 14         33
TITLE       Slow neutrons scattering vy heavy water in temperature
           interval (23-200) deg C .
AUTHOR     (Yu.V.Lisichkin,A.G.Novikov,I.Pedupeanu,G.Rotaresku,
           N.K.Fomichev)
INSTITUTE  (4ZZZDUB,4RUSFEI)
REFERENCE  (R,JINR-P3-86-779,1986)
REL-REF    (I,,V.G.Liforov+,R,FEI-129,1968)  Spectrometer details
INC-SPECT   Neutron energy resolution ~ 7 % .
SAMPLE      71 quarz pipes with heavy water placed as cylinder
           of 120mm diameter, 155mm hight.
           Sample temperature 23, 130, 200 deg C.
FACILITY   (REAC,4ZZZDUB)
            Double TOF spectrometer of slow neutrons
           DIN-1M at beam of pulsed reactor IBR-30.
METHOD     (TOF)
           Measurement at each temperature by container with heavy
           water, empty container, vanadium cylinder ( the same
           size as sample) used for spectrometer resolution
           estimation and for absolute normalization of cross
           sections.
EN-SEC      E-DGD and  E-GAIN - transmitted energy.
           Both defined as h*w - not explained in the article,
           supposed by compiler as:
           h - reduced Planck constant ( Dirak constant),
           w - freequency (=light speed/wavelength).
MONITOR    (23-V-0(N,THS)23-V-0,BA,SIG)
CORRECTION For detectors efficiency.
           For neutron beam loss in in neutron guide.
           For neutron attenuation in sample.
           For neutron scattering by container.
COMMENT    Of compiler M.M. EN was calculated as :
           EN(eV)=0.0818/((LAMBDA/Angstrom)**2)
HISTORY    (20171210C) M.M.
ENDBIB              33
COMMON               2          3
EN         TEMP-ERR
MILLI-EV   DEG-C
63.75       0.5
ENDCOMMON            3
ENDSUBENT           40
SUBENT        41624002   20171210   20180402   20180319       4177
BIB                  4         13
REACTION   (1-H-D2O(N,THS)1-H-D2O,,DA/DE,,TMP)
            Double differential cross section for heavy water
COMMENT    Of compiler.
           - Data for 12,25,38,45 deg are marked by "*0.4",
           divided by 0.4 after digitization by compiler.
           - Quality of digitization is not high in the ranges,
           where is overlapping of symbols on figure.
           - Digitization errors are given as maximal from all
            errors for 4 angles (divided by 0.4).
ERR-ANALYS   Quantization errors ( one pixel)
            scale X - 0.191 millieV
            scale Y - 0.205 b/sr/eV
STATUS     (CURVE) Fig.3 of R,JINR-P3-86-779,1986
ENDBIB              13
COMMON               3          3
TEMP       E-ERR-DIG  ERR-DIG
DEG-C      MILLI-EV   B/SR/EV
 23.       0.108      0.0798
ENDCOMMON            3
DATA                 3        159
ANG        E-DGD      DATA
ADEG       MILLI-EV   B/SR/EV
 12.        37.963      1.203
 12.        36.434      1.022
 12.        35.288      1.030
 12.        34.142      1.038
 12.        33.186      1.045
 12.        32.421      0.858
 12.        31.085      1.060
 12.        30.130      1.067
 12.        28.986      1.267
 12.        27.650      1.469
 12.        26.502      1.285
 12.        25.356      1.293
 12.        24.210      1.302
 12.        23.065      1.502
 12.        21.918      1.318
 12.        21.158      1.900
 12.        20.009      1.524
 12.        18.673      1.726
 12.        17.718      1.733
 12.        16.763      1.739
 12.        15.808      1.746
 12.        14.854      1.945
 12.        13.708      1.954
 12.        12.755      2.153
 12.        11.611      2.545
 12.        10.468      2.938
 12.         9.517      3.522
 12.         8.375      4.107
 12.         7.615      4.689
 12.         7.046      5.270
 12.         6.482      6.620
 12.         5.726      7.779
 12.         4.594      9.709
 12.         4.043     12.790
 12.         3.311     17.409
 12.         2.579     21.837
 12.         1.861     28.377
 12.         1.136     33.960
 12.         0.605     39.922
 12.         0.238     42.040
 25.        39.168      0.723
 25.        38.022      0.731
 25.        37.067      0.737
 25.        35.730      0.745
 25.        34.584      0.753
 25.        33.247      0.761
 25.        32.101      0.769
 25.        31.335      0.580
 25.        30.380      0.586
 25.        29.235      0.787
 25.        28.280      0.793
 25.        27.133      0.606
 25.        25.797      0.809
 25.        24.843      1.009
 25.        23.697      1.016
 25.        22.742      1.023
 25.        21.787      1.029
 25.        20.641      1.036
 25.        19.305      1.239
 25.        18.159      1.246
 25.        17.204      1.252
 25.        16.250      1.452
 25.        15.104      1.459
 25.        14.342      1.852
 25.        13.387      1.858
 25.        11.864      2.644
 25.        11.104      3.425
 25.         9.963      4.208
 25.         8.825      5.574
 25.         7.875      6.356
 25.         7.118      7.525
 25.         6.174      9.277
 25.         5.611     10.833
 25.         4.674     13.749
 25.         4.121     17.051
 25.         3.573     21.128
 25.         2.466     27.342
 25.         1.932     33.750
 25.         1.214     41.125
 25.         0.673     46.368
 38.        39.555      0.712
 38.        38.410      0.903
 38.        37.264      0.909
 38.        36.118      0.916
 38.        34.971      0.737
 38.        33.634      0.745
 38.        32.297      0.752
 38.        31.343      0.943
 38.        29.625      1.137
 38.        28.478      1.143
 38.        27.141      1.151
 38.        26.187      1.341
 38.        24.468      1.351
 38.        23.321      1.172
 38.        22.177      1.548
 38.        21.032      1.740
 38.        19.695      1.747
 38.        18.551      2.123
 38.        17.025      2.501
 38.        16.072      2.877
 38.        14.547      3.439
 38.        13.595      3.814
 38.        12.453      4.560
 38.        11.311      5.306
 38.        10.552      6.049
 38.         9.983      6.792
 38.         9.226      7.905
 38.         8.657      8.648
 38.         7.712     10.317
 38.         6.955     11.615
 38.         6.013     13.653
 38.         5.452     15.690
 38.         4.519     19.391
 38.         3.966     22.721
 38.         3.039     27.532
 38.         2.304     32.342
 38.         1.771     39.000
 38.         1.029     42.700
 38.         0.288     46.585
 45.        38.971      0.760
 45.        37.826      1.148
 45.        36.488      1.155
 45.        35.151      1.353
 45.        34.194      1.168
 45.        32.665      1.367
 45.        31.518      1.374
 45.        30.182      1.762
 45.        29.033      1.578
 45.        27.888      1.966
 45.        26.740      1.782
 45.        25.593      1.788
 45.        24.448      2.176
 45.        23.301      2.182
 45.        22.157      2.760
 45.        21.393      2.955
 45.        20.245      2.771
 45.        19.482      3.156
 45.        18.720      3.541
 45.        17.766      3.927
 45.        16.810      3.933
 45.        15.856      4.319
 45.        14.712      4.897
 45.        13.759      5.473
 45.        12.804      5.669
 45.        11.663      6.628
 45.        10.905      7.965
 45.        10.527      8.729
 45.         9.387      9.878
 45.         8.436     10.835
 45.         7.304     13.508
 45.         6.551     15.607
 45.         5.801     18.086
 45.         5.049     20.375
 45.         4.305     23.998
 45.         3.559     27.240
 45.         3.022     33.718
 45.         2.104     40.385
 45.         1.388     48.960
 45.         0.679     58.675
ENDDATA            161
ENDSUBENT          183
SUBENT        41624003   20171210   20180402   20180319       4177
BIB                  4         11
REACTION   (1-H-D2O(N,THS)1-H-D2O,,DA/DE,,TMP)
            Double differential cross section for heavy water
COMMENT    Of compiler.
           - Quality of digitization is not high in the ranges,
           where is overlapping of symbols on figure.
           - Digitization errors are given as maximal from all
            errors for 3 angles.
ERR-ANALYS   Quantization errors ( one pixel)
            scale X - 0.191 millieV
            scale Y - 0.082 b/sr/eV
STATUS     (CURVE) Fig.3 of R,JINR-P3-86-779,1986
ENDBIB              11
COMMON               3          3
TEMP       E-ERR-DIG  ERR-DIG
DEG-C      MILLI-EV   B/SR/EV
 23.       0.0723     0.0253
ENDCOMMON            3
DATA                 3        128
ANG        E-DGD      DATA
ADEG       MILLI-EV   B/SR/EV
 71.        39.876      0.6241
 71.        38.538      0.5460
 71.        37.394      0.7121
 71.        36.055      0.5524
 71.        35.295      0.8808
 71.        33.953      0.5578
 71.        32.811      0.8056
 71.        31.662      0.6453
 71.        30.710      0.8110
 71.        29.758      1.0583
 71.        28.420      0.9801
 71.        27.278      1.3095
 71.        25.943      1.4762
 71.        24.607      1.5612
 71.        23.466      1.8906
 71.        22.316      1.6487
 71.        20.983      1.8970
 71.        19.455      1.9010
 71.        18.695      2.2294
 71.        17.168      2.3149
 71.        16.028      2.7259
 71.        14.316      3.2200
 71.        13.175      3.6310
 71.        12.225      3.9599
 71.        11.275      4.3704
 71.        10.327      4.8626
 71.         9.378      5.2731
 71.         8.622      5.8463
 71.         7.670      6.0936
 71.         6.534      6.7494
 71.         5.971      7.4854
 71.         5.216      8.1403
 71.         4.461      8.7951
 71.         3.898      9.5311
 71.         3.718     10.2660
 71.         2.971     11.4920
 71.         2.601     12.3090
 71.         2.042     13.3720
 71.         1.495     15.1690
 71.         0.939     16.3940
 71.         0.573     17.5380
 96.        39.889      0.7273
 96.        38.742      0.7299
 96.        37.786      0.7322
 96.        36.638      0.6579
 96.        35.874      0.7366
 96.        34.730      0.9700
 96.        33.581      0.8189
 96.        32.628      1.0518
 96.        31.480      0.9776
 96.        30.718      1.2101
 96.        29.760      1.0585
 96.        28.810      1.4453
 96.        27.277      1.2181
 96.        26.326      1.6049
 96.        25.179      1.6076
 96.        24.226      1.8406
 96.        23.461      1.7654
 96.        22.891      2.0744
 96.        21.936      2.1536
 96.        21.171      2.0784
 96.        20.794      2.4639
 96.        19.646      2.4666
 96.        18.500      2.5462
 96.        17.740      2.8556
 96.        16.403      2.9356
 96.        15.450      3.1686
 96.        14.306      3.4020
 96.        13.349      3.3273
 96.        12.782      3.7902
 96.        12.210      3.8684
 96.        11.644      4.4082
 96.        10.689      4.4873
 96.         9.737      4.7972
 96.         8.787      5.1841
 96.         8.030      5.7243
 96.         7.082      6.3418
 96.         6.324      6.8051
 96.         5.566      7.2684
 96.         5.003      7.9620
 96.         4.262      9.6560
 96.         3.716     11.5800
 96.         3.351     12.8120
 96.         3.007     15.5050
 96.         2.274     17.6600
 96.         1.543     20.0470
 96.         0.998     22.0480
 96.         0.237     22.2800
 109.       40.052      0.8347
 109.       38.906      0.8377
 109.       37.757      0.6101
 109.       36.806      0.9202
 109.       35.851      0.9227
 109.       34.325      1.0036
 109.       33.180      1.0835
 109.       32.031      0.9327
 109.       31.461      1.0880
 109.       30.311      0.8604
 109.       29.362      1.2473
 109.       28.216      1.2503
 109.       27.265      1.4835
 109.       25.924      1.2563
 109.       24.976      1.7201
 109.       23.831      1.8000
 109.       22.499      2.1110
 109.       21.545      2.1904
 109.       20.210      2.2708
 109.       19.258      2.5040
 109.       18.107      2.1995
 109.       17.349      2.5859
 109.       16.593      3.0492
 109.       15.446      2.9753
 109.       14.106      2.8251
 109.       13.349      3.2883
 109.       12.398      3.5215
 109.       11.439      3.2934
 109.       10.301      3.7576
 109.        9.543      4.1440
 109.        8.593      4.4541
 109.        7.453      4.8415
 109.        6.888      5.3042
 109.        6.518      6.0740
 109.        4.990      6.0780
 109.        4.238      6.8488
 109.        3.109      7.8512
 109.        1.799      9.5460
 109.        1.248     10.9310
 109.        0.698     12.3170
ENDDATA            130
ENDSUBENT          150
SUBENT        41624004   20171210   20180402   20180319       4177
BIB                  4         11
REACTION   (1-H-D2O(N,THS)1-H-D2O,,DA/DE,,TMP)
            Double differential cross section for heavy water
COMMENT    Of compiler.
           - Data for 122. deg are marked by "*4",
           divided by 4 after digitization by compiler.
           - Quality of digitization is not high in the ranges,
           where is overlapping of symbols on figure.
ERR-ANALYS   Quantization errors ( one pixel)
            scale X - 0.191 millieV
            scale Y - 0.0205 b/sr/eV
STATUS     (CURVE) Fig.3 of R,JINR-P3-86-779,1986
ENDBIB              11
COMMON               3          3
TEMP       E-ERR-DIG  ERR-DIG
DEG-C      MILLI-EV   B/SR/EV
 23.       0.0499     0.00593
ENDCOMMON            3
DATA                 3         49
ANG        E-DGD      DATA
ADEG       MILLI-EV   B/SR/EV
 122.        40.423    0.3950
 122.        39.652    0.2767
 122.        39.088    0.4552
 122.        38.124    0.3171
 122.        37.364    0.3968
 122.        36.597    0.3577
 122.        36.221    0.4767
 122.        35.071    0.4179
 122.        33.737    0.4979
 122.        32.586    0.4392
 122.        32.020    0.5781
 122.        31.058    0.4599
 122.        30.686    0.6581
 122.        29.345    0.5995
 122.        28.192    0.5012
 122.        27.243    0.6206
 122.        25.717    0.7007
 122.        24.757    0.6220
 122.        24.386    0.8202
 122.        23.628    0.9592
 122.        22.474    0.8214
 122.        22.103    1.0393
 122.        20.382    1.0404
 122.        19.047    1.1005
 122.        17.518    1.1015
 122.        17.143    1.2403
 122.        15.610    1.1818
 122.        15.047    1.3603
 122.        14.485    1.5783
 122.        13.335    1.5196
 122.        12.962    1.6980
 122.        11.997    1.5402
 122.        11.628    1.7780
 122.        10.873    1.9566
 122.        10.103    1.8581
 122.         9.736    2.1355
 122.         8.778    2.0964
 122.         8.412    2.3936
 122.         8.024    2.2948
 122.         7.468    2.6120
 122.         6.514    2.6520
 122.         6.125    2.5335
 122.         4.997    2.8708
 122.         4.627    3.1085
 122.         3.693    3.5050
 122.         2.963    4.1190
 122.         2.409    4.4757
 122.         1.293    5.0505
 122.         0.126    4.6948
ENDDATA             51
ENDSUBENT           71
SUBENT        41624005   20171210   20180402   20180319       4177
BIB                  4         15
REACTION   (1-H-D2O(N,THS)1-H-D2O,,DA/DE,,TMP)
            Double differential cross section for heavy water
COMMENT    Of compiler.
           - Data for 12., 25. deg are marked by "*0.5",
           divided by 0.5 after digitization by compiler.
           - Quality of digitization is not high in the ranges,
           where is overlapping of symbols on figure.
ERR-ANALYS   Quantization errors ( one pixel) :
            scale X - 0.249 millieV ;
            scale Y - 0.050  b/sr/eV .
            E-ERR-DIG - 0.138 millieV at 25 deg
                        0.0733 millieV at 12 deg .
            ERR-DIG - 0.0741 b/sr/eV at 25 deg
                      0.0678 b/sr/eV at 12 deg .
STATUS     (CURVE) Fig.4 of R,JINR-P3-86-779,1986
ENDBIB              15
COMMON               1          3
TEMP
DEG-C
 130.
ENDCOMMON            3
DATA                 3        107
ANG        E-DGD      DATA
ADEG       MILLI-EV   B/SR/EV
 12.         70.046     0.421
 12.         67.807     0.426
 12.         65.568     0.432
 12.         64.076     0.435
 12.         62.086     0.440
 12.         60.343     0.343
 12.         58.850     0.347
 12.         57.109     0.351
 12.         55.119     0.355
 12.         53.628     0.459
 12.         52.136     0.463
 12.         50.892     0.466
 12.         49.897     0.468
 12.         48.902     0.470
 12.         47.161     0.474
 12.         45.917     0.477
 12.         44.673     0.480
 12.         43.182     0.584
 12.         41.938     0.587
 12.         40.695     0.590
 12.         39.448     0.392
 12.         37.460     0.497
 12.         36.214     0.399
 12.         34.972     0.503
 12.         33.977     0.505
 12.         32.485     0.509
 12.         31.241     0.512
 12.         29.997     0.514
 12.         29.004     0.617
 12.         27.758     0.520
 12.         26.019     0.624
 12.         24.276     0.528
 12.         22.037     0.533
 12.         19.800     0.639
 12.         17.811     0.744
 12.         15.824     0.950
 12.         14.083     0.954
 12.         12.346     1.261
 12.         11.105     1.465
 12.          9.864     1.669
 12.          9.373     2.073
 12.          8.378     2.075
 12.          7.641     2.782
 12.          7.401     3.387
 12.          6.915     4.194
 12.          5.437     5.204
 12.          4.712     6.717
 12.          3.995     8.733
 12.          2.779    10.750
 12.          2.082    14.175
 12.          1.390    18.004
 12.          0.674    20.120
 25.         67.637     0.638
 25.         65.647     0.545
 25.         63.912     0.749
 25.         61.923     0.656
 25.         60.182     0.563
 25.         58.691     0.568
 25.         56.706     0.673
 25.         55.215     0.678
 25.         53.226     0.585
 25.         51.737     0.689
 25.         50.247     0.694
 25.         48.758     0.797
 25.         47.267     0.802
 25.         46.023     0.707
 25.         44.533     0.712
 25.         43.290     0.716
 25.         41.804     0.918
 25.         40.309     0.726
 25.         38.819     0.730
 25.         37.328     0.735
 25.         36.086     0.739
 25.         34.846     0.842
 25.         34.100     0.844
 25.         32.608     0.750
 25.         31.366     0.754
 25.         29.877     0.858
 25.         28.386     0.863
 25.         26.898     0.966
 25.         25.656     0.970
 25.         24.908     0.874
 25.         23.919     1.075
 25.         22.670     0.782
 25.         21.683     1.082
 25.         20.198     1.383
 25.         18.708     1.388
 25.         17.467     1.490
 25.         15.979     1.594
 25.         14.741     1.795
 25.         13.505     2.096
 25.         12.519     2.494
 25.         11.533     2.892
 25.         11.042     3.190
 25.         10.059     3.687
 25.          9.325     4.282
 25.          8.099     5.076
 25.          7.376     6.164
 25.          6.649     7.055
 25.          6.180     8.439
 25.          4.970    10.023
 25.          4.265    12.001
 25.          3.319    14.374
 25.          2.634    17.339
 25.          1.452    20.306
 25.          0.523    23.468
 25.          0.084    26.334
ENDDATA            109
ENDSUBENT          133
SUBENT        41624006   20171210   20180402   20180319       4177
BIB                  3         18
REACTION   (1-H-D2O(N,THS)1-H-D2O,,DA/DE,,TMP)
            Double differential cross section for heavy water
ERR-ANALYS   Quantization errors ( one pixel)
            scale X - 0.249 millieV
            scale Y - 0.0510  b/sr/eV
            E-ERR-DIG -0.105 millieV at 122 deg
                       0.132 millieV at 109 deg
                       0.177 millieV at 96 deg
                       0.156 millieV at 71 deg
                       0.160 millieV at 45 deg
                       0.177 millieV at 38 deg
            ERR-DIG -0.0269 b/sr/eV at 122 deg
                     0.0300 b/sr/eV at 109 deg
                     0.0312 b/sr/eV at 96 deg
                     0.0314 b/sr/eV at 71 deg
                     0.0364 b/sr/eV at 45 deg
                     0.0384 b/sr/eV at 38 deg
STATUS     (CURVE) Fig.4 of R,JINR-P3-86-779,1986
ENDBIB              18
COMMON               1          3
TEMP
DEG-C
 130.
ENDCOMMON            3
DATA                 3        365
ANG        E-DGD      DATA
ADEG       MILLI-EV   B/SR/EV
 38.         67.767     0.2626
 38.         65.779     0.2659
 38.         63.794     0.3204
 38.         62.305     0.3742
 38.         60.566     0.3771
 38.         58.578     0.3804
 38.         57.336     0.3825
 38.         55.349     0.3858
 38.         53.612     0.4399
 38.         52.121     0.4424
 38.         50.384     0.4966
 38.         48.892     0.4478
 38.         47.403     0.5016
 38.         45.918     0.6578
 38.         44.672     0.5574
 38.         43.432     0.6107
 38.         41.443     0.5627
 38.         40.451     0.6157
 38.         38.960     0.6181
 38.         37.221     0.6210
 38.         35.735     0.7261
 38.         34.244     0.7285
 38.         33.000     0.6794
 38.         31.762     0.7839
 38.         30.528     0.9910
 38.         29.283     0.9419
 38.         27.795     0.9956
 38.         26.058     1.0498
 38.         24.816     1.0518
 38.         23.077     1.0547
 38.         21.840     1.2106
 38.         20.594     1.1101
 38.         19.855     1.2652
 38.         18.366     1.3189
 38.         17.381     1.5256
 38.         16.141     1.5789
 38.         15.654     1.8360
 38.         14.664     1.9402
 38.         13.925     2.0952
 38.         13.192     2.4040
 38.         12.204     2.5595
 38.         11.220     2.8174
 38.         10.733     3.0745
 38.          9.503     3.3842
 38.          8.772     3.7442
 38.          7.544     4.1051
 38.          7.313     4.5669
 38.          6.091     5.0815
 38.          5.370     5.6979
 38.          4.899     6.3651
 38.          4.188     7.2377
 38.          3.237     8.3158
 38.          2.279     9.2401
 38.          1.079    10.3190
 38.          0.368    11.1910
 45.         66.799     0.3743
 45.         65.312     0.4793
 45.         64.066     0.3787
 45.         62.826     0.4319
 45.         61.580     0.3313
 45.         60.342     0.4358
 45.         58.353     0.3877
 45.         57.114     0.4922
 45.         55.627     0.5971
 45.         54.876     0.4445
 45.         53.636     0.4977
 45.         52.654     0.8070
 45.         51.410     0.7577
 45.         50.168     0.7596
 45.         48.925     0.7616
 45.         47.685     0.8148
 45.         46.684     0.6113
 45.         45.696     0.7667
 45.         44.452     0.7174
 45.         42.961     0.7197
 45.         41.973     0.8751
 45.         40.970     0.6203
 45.         39.988     0.9296
 45.         38.747     0.9828
 45.         37.507     1.0360
 45.         35.768     1.0388
 45.         34.770     0.9378
 45.         32.789     1.0948
 45.         31.300     1.1484
 45.         29.807     1.0995
 45.         28.818     1.2036
 45.         27.079     1.2064
 45.         25.091     1.2095
 45.         24.101     1.3137
 45.         23.363     1.5199
 45.         22.612     1.3673
 45.         21.884     1.8300
 45.         20.635     1.6268
 45.         19.648     1.8335
 45.         18.404     1.7842
 45.         17.672     2.1443
 45.         16.426     2.0437
 45.         15.198     2.4046
 45.         13.952     2.3040
 45.         13.474     2.8176
 45.         12.486     2.9730
 45.         11.486     2.8207
 45.         10.758     3.2834
 45.          9.793     4.0541
 45.          8.809     4.3121
 45.          7.825     4.5700
 45.          7.593     5.0319
 45.          6.118     5.4445
 45.          4.914     6.4720
 45.          3.941     7.0376
 45.          2.982     7.9622
 45.          2.769     8.9368
 45.          2.292     9.4504
 45.          1.340    10.5800
 45.          0.866    11.1960
 45.          0.407    12.2220
 71.         66.899     0.4774
 71.         65.653     0.3816
 71.         63.914     0.3840
 71.         61.440     0.6794
 71.         59.946     0.5840
 71.         58.946     0.3907
 71.         57.460     0.5387
 71.         55.726     0.6871
 71.         53.742     0.7871
 71.         52.990     0.5934
 71.         51.254     0.6931
 71.         50.009     0.5974
 71.         48.525     0.7941
 71.         46.789     0.8938
 71.         45.542     0.7494
 71.         43.808     0.8978
 71.         42.321     0.9972
 71.         41.081     1.0475
 71.         39.593     1.1469
 71.         38.596     1.0509
 71.         37.609     1.2469
 71.         35.867     1.1519
 71.         34.380     1.2512
 71.         32.889     1.2532
 71.         31.904     1.4980
 71.         30.412     1.4513
 71.         29.171     1.5017
 71.         27.677     1.4063
 71.         26.440     1.5540
 71.         25.201     1.6530
 71.         23.968     1.8981
 71.         22.717     1.6564
 71.         22.232     1.9978
 71.         20.993     2.0969
 71.         19.753     2.1472
 71.         18.516     2.2949
 71.         17.530     2.5397
 71.         16.528     2.2976
 71.         16.042     2.5904
 71.         15.551     2.7858
 71.         14.791     2.3486
 71.         14.316     2.9822
 71.         13.559     2.6424
 71.         13.329     3.1782
 71.         12.089     3.2286
 71.         10.855     3.4737
 71.         10.118     3.7181
 71.          9.630     3.9622
 71.          8.896     4.3040
 71.          7.654     4.3056
 71.          6.162     4.2589
 71.          5.420     4.3573
 71.          4.932     4.6014
 71.          4.197     4.8945
 71.          3.708     5.1386
 71.          3.239     5.9182
 71.          2.507     6.3087
 71.          1.996     5.9199
 71.          1.033     6.7975
 71.          0.041     6.8475
 96.         67.781     0.4613
 96.         66.786     0.4126
 96.         65.792     0.4139
 96.         64.550     0.4155
 96.         62.809     0.3678
 96.         61.322     0.4698
 96.         59.583     0.4720
 96.         58.584     0.3234
 96.         57.597     0.5246
 96.         56.602     0.4759
 96.         55.366     0.6775
 96.         54.117     0.4792
 96.         52.880     0.6308
 96.         51.893     0.8320
 96.         50.894     0.6834
 96.         49.403     0.6853
 96.         48.665     0.8862
 96.         47.419     0.7879
 96.         45.680     0.7901
 96.         43.944     0.8924
 96.         42.701     0.8440
 96.         41.460     0.8956
 96.         40.213     0.7473
 96.         39.481     1.1482
 96.         38.480     0.9495
 96.         37.233     0.8012
 96.         37.006     1.4514
 96.         35.999     1.0527
 96.         34.268     1.3050
 96.         32.776     1.2569
 96.         31.040     1.3592
 96.         29.800     1.4108
 96.         28.312     1.5127
 96.         27.319     1.5140
 96.         26.077     1.5156
 96.         24.584     1.4676
 96.         24.344     1.7179
 96.         23.607     1.9688
 96.         22.368     2.0704
 96.         21.129     2.1720
 96.         19.882     2.0237
 96.         18.896     2.2749
 96.         17.899     2.1762
 96.         17.410     2.4269
 96.         16.410     2.2282
 96.         15.418     2.2795
 96.         14.932     2.6301
 96.         14.179     2.3811
 96.         13.192     2.5823
 96.         12.196     2.5336
 96.         11.956     2.7839
 96.         10.969     2.9852
 96.         10.230     3.1861
 96.          9.502     3.7370
 96.          8.993     3.3377
 96.          8.238     3.0388
 96.          7.749     3.2894
 96.          6.524     3.8409
 96.          5.531     3.8422
 96.          4.792     4.0431
 96.          4.509     4.5931
 96.          3.574     4.7946
 96.          3.555     5.4445
 96.          2.870     6.0954
 96.          2.149     6.8463
 96.          1.159     6.9475
 96.          0.404     6.6486
 96.          0.394     6.3486
 96.          0.128     5.7990
109.         67.058     0.3785
109.         65.318     0.4305
109.         64.076     0.4819
109.         62.585     0.5336
109.         61.093     0.5353
109.         59.351     0.5373
109.         57.856     0.4392
109.         56.119     0.5910
109.         55.118     0.3924
109.         54.630     0.6927
109.         53.133     0.5446
109.         51.642     0.5962
109.         50.401     0.6976
109.         48.910     0.7493
109.         47.665     0.7008
109.         46.673     0.8018
109.         45.919     0.5530
109.         45.182     0.8535
109.         44.179     0.6049
109.         43.190     0.8059
109.         41.941     0.6076
109.         40.706     0.9087
109.         39.708     0.8100
109.         38.714     0.8611
109.         37.226     1.0127
109.         35.731     0.9145
109.         34.740     1.0655
109.         33.248     1.0672
109.         32.250     0.9685
109.         31.762     1.3187
109.         30.763     1.1700
109.         30.028     1.5705
109.         29.273     1.2717
109.         28.033     1.3730
109.         26.786     1.2746
109.         26.046     1.4753
109.         25.059     1.7761
109.         24.549     1.3271
109.         23.810     1.5778
109.         22.570     1.7291
109.         21.578     1.8301
109.         20.590     2.0810
109.         19.587     1.7825
109.         19.345     2.0325
109.         17.846     1.7845
109.         17.108     2.0851
109.         16.110     1.9863
109.         15.872     2.3363
109.         14.885     2.6372
109.         13.883     2.3886
109.         12.884     2.2399
109.         11.403     2.6412
109.         10.409     2.6923
109.          9.426     3.0931
109.          7.936     3.1947
109.          6.946     3.3457
109.          6.207     3.5964
109.          4.731     4.1975
109.          4.000     4.6979
109.          3.508     4.8983
109.          2.264     4.8997
109.          1.279     5.2505
109.          0.278     5.0519
122.         66.841     0.3295
122.         64.848     0.1783
122.         63.116     0.3857
122.         61.125     0.2858
122.         59.635     0.2877
122.         58.146     0.3409
122.         56.649     0.1379
122.         55.166     0.3961
122.         53.675     0.3981
122.         52.437     0.5023
122.         50.446     0.4024
122.         49.205     0.4553
122.         47.963     0.4569
122.         46.716     0.3047
122.         45.731     0.5624
122.         44.238     0.5131
122.         43.240     0.3606
122.         41.754     0.5163
122.         40.020     0.6724
122.         38.775     0.5715
122.         37.289     0.7273
122.         35.550     0.7296
122.         34.056     0.6290
122.         33.069     0.8354
122.         31.825     0.7857
122.         30.333     0.7365
122.         29.092     0.7894
122.         28.352     0.9441
122.         27.102     0.6894
122.         26.375     1.3056
122.         24.875     1.0000
122.         23.636     1.1041
122.         23.146     1.3098
122.         22.404     1.4133
122.         21.152     1.1074
122.         20.408     1.1596
122.         19.921     1.4679
122.         18.921     1.2641
122.         17.680     1.3170
122.         16.690     1.4209
122.         15.946     1.4731
122.         15.210     1.7817
122.         14.212     1.6292
122.         12.975     1.7846
122.         12.492     2.2466
122.         10.993     1.9923
122.          9.512     2.3018
122.          8.272     2.3547
122.          7.783     2.6117
122.          6.788     2.5617
122.          5.797     2.6656
122.          4.808     2.8207
122.          4.319     3.0776
122.          4.076     3.2317
122.          3.585     3.4374
122.          2.110     3.9520
122.          0.856     3.5436
ENDDATA            367
ENDSUBENT          394
SUBENT        41624007   20171210   20180402   20180319       4177
BIB                  4         13
REACTION   (1-H-D2O(N,THS)1-H-D2O,,DA/DE,,TMP)
            Double differential cross section for heavy water
COMMENT    Of compiler.
           - Data for 12., 25. deg are marked by "*0.5",
           divided by 0.5 after digitization by compiler.
ERR-ANALYS   Quantization errors ( one pixel)
            scale X - 0.223 millieV
            scale Y - 0.045 b/sr/eV
            E-ERR-DIG -0.248 millieV at 25. deg
                       0.205 millieV at 12. deg
            ERR-DIG -0.0307 b/sr/eV at 25. deg
                     0.0522 b/sr/eV at 12. deg
STATUS     (CURVE) Fig.5 of R,JINR-P3-86-779,1986
ENDBIB              13
COMMON               1          3
TEMP
DEG-C
 200.
ENDCOMMON            3
DATA                 3        112
ANG        E-DGD      DATA
ADEG       MILLI-EV   B/SR/EV
 12.         71.139     0.1661
 12.         69.573     0.2539
 12.         67.784     0.2970
 12.         66.220     0.2957
 12.         63.986     0.2939
 12.         61.974     0.2923
 12.         60.409     0.3356
 12.         58.621     0.3787
 12.         56.833     0.3773
 12.         55.045     0.4204
 12.         53.480     0.4191
 12.         51.692     0.4622
 12.         50.128     0.4610
 12.         48.563     0.5042
 12.         46.999     0.5030
 12.         45.211     0.5015
 12.         43.647     0.5003
 12.         42.083     0.4990
 12.         40.517     0.5423
 12.         38.730     0.5409
 12.         36.942     0.5394
 12.         35.600     0.6274
 12.         34.035     0.6262
 12.         32.695     0.6251
 12.         30.908     0.5791
 12.         29.119     0.6222
 12.         27.107     0.6652
 12.         25.543     0.6639
 12.         23.531     0.7068
 12.         21.742     0.7944
 12.         19.954     0.7930
 12.         18.388     0.8808
 12.         16.599     0.9685
 12.         15.257     1.0119
 12.         13.915     1.0999
 12.         12.570     1.2770
 12.         11.673     1.4544
 12.         10.554     1.5426
 12.          9.434     1.6753
 12.          8.087     1.9860
 12.          7.634     2.2974
 12.          6.734     2.5638
 12.          6.051     3.1868
 12.          5.369     3.7652
 12.          4.464     4.3435
 12.          4.225     5.1004
 12.          3.525     6.5695
 12.          3.053     7.8162
 12.          2.354     9.2408
 12.          2.108    10.3540
 12.          1.183    11.8670
 12.          1.168    12.6250
 12.          0.488    13.1140
 25.         70.199     0.2260
 25.         68.652     0.4090
 25.         67.090     0.3227
 25.         65.533     0.3262
 25.         63.979     0.3746
 25.         61.977     0.3791
 25.         60.198     0.3830
 25.         58.421     0.4319
 25.         56.641     0.4359
 25.         54.864     0.4847
 25.         53.085     0.4887
 25.         51.753     0.5366
 25.         49.978     0.6303
 25.         49.091     0.6771
 25.         47.314     0.7260
 25.         45.980     0.7290
 25.         44.648     0.7768
 25.         43.091     0.7803
 25.         41.756     0.7833
 25.         40.421     0.7863
 25.         38.862     0.7449
 25.         37.530     0.7928
 25.         35.755     0.8865
 25.         34.201     0.9348
 25.         32.869     0.9827
 25.         31.319     1.1208
 25.         29.757     1.0345
 25.         28.203     1.0829
 25.         26.871     1.1307
 25.         25.316     1.1791
 25.         23.542     1.2728
 25.         22.884     1.4538
 25.         21.770     1.4114
 25.         20.892     1.6377
 25.         19.333     1.5964
 25.         18.678     1.8222
 25.         17.346     1.8700
 25.         16.024     2.0974
 25.         14.701     2.3247
 25.         13.604     2.5964
 25.         12.729     2.8676
 25.         11.857     3.1836
 25.         11.212     3.5889
 25.         10.784     3.9040
 25.          9.934     4.6238
 25.          9.291     5.0740
 25.          8.439     5.7490
 25.          8.034     6.4678
 25.          7.037     8.5791
 25.          6.219     9.8822
 25.          5.861    11.4540
 25.          5.280    13.0250
 25.          4.699    14.5970
 25.          3.918    16.5730
 25.          3.550    17.9650
 25.          2.717    18.9990
 25.          2.302    19.5380
 25.          1.395    19.2260
 25.          0.688    18.5100
ENDDATA            114
ENDSUBENT          136
SUBENT        41624008   20171210   20180402   20180319       4177
BIB                  4         23
REACTION   (1-H-D2O(N,THS)1-H-D2O,,DA/DE,,TMP)
            Double differential cross section for heavy water
COMMENT    Of compiler.
           - Quality of digitization is not high in the ranges,
           where is overlapping of symbols on figure.
ERR-ANALYS   Quantization errors ( one pixel)
            scale X - 0.222 millieV
            scale Y - 0.050 b/sr/eV at 122 deg
                      0.045 b/sr/eV at 109,96,71 deg
                      0.044 b/sr/eV at 45, 38 deg
            E-ERR-DIG -0.135 millieV at 122 deg
                       0.118 millieV at 109 deg
                       0.0884 millieV at 96 deg
                       0.134 millieV at 71 deg
                       0.155 millieV at 45 deg
                       0.105 4millieV at 38 deg
            ERR-DIG -0.0116 b/sr/eV at 122 deg
                     0.0104 b/sr/eV at 109 deg
                     0.0121 b/sr/eV at 96 deg
                     0.0110 b/sr/eV at 71 deg
                     0.0115 b/sr/eV at 45 deg
                     0.0104 b/sr/eV at 38 deg
STATUS     (CURVE) Fig.5 of R,JINR-P3-86-779,1986
ENDBIB              23
COMMON               1          3
TEMP
DEG-C
 200.
ENDCOMMON            3
DATA                 3        396
ANG        E-DGD      DATA
ADEG       MILLI-EV   B/SR/EV
 38.          70.208    0.2755
 38.          68.877    0.3238
 38.          67.323    0.3727
 38.          65.547    0.4223
 38.          64.209    0.3818
 38.          61.991    0.4771
 38.          60.212    0.4823
 38.          58.436    0.5319
 38.          56.434    0.5377
 38.          54.433    0.5435
 38.          52.879    0.5924
 38.          50.877    0.5982
 38.          49.101    0.6478
 38.          47.325    0.6974
 38.          45.327    0.7477
 38.          43.550    0.7973
 38.          41.771    0.8024
 38.          39.769    0.8082
 38.          38.216    0.8572
 38.          36.217    0.9074
 38.          34.219    0.9577
 38.          32.665    1.0066
 38.          30.670    1.1013
 38.          28.894    1.1509
 38.          27.124    1.2893
 38.          25.570    1.3383
 38.          23.798    1.4323
 38.          22.028    1.5707
 38.          20.262    1.7536
 38.          18.711    1.8470
 38.          17.170    2.0736
 38.          15.852    2.2996
 38.          14.311    2.5263
 38.          13.219    2.7961
 38.          12.571    3.0646
 38.          11.920    3.2887
 38.          11.272    3.5572
 38.          10.618    3.7368
 38.           9.306    4.0517
 38.           8.452    4.5429
 38.           8.252    4.8546
 38.           7.378    5.0793
 38.           6.295    5.4824
 38.           5.464    6.2846
 38.           4.471    7.9316
 38.           4.101    8.9547
 38.           3.511   10.0230
 38.           2.909   10.9130
 38.           2.068   11.5820
 38.           1.413   11.7620
 38.           0.514   11.6310
 38.           0.253   11.0990
 45.          70.644    0.4576
 45.          69.761    0.5490
 45.          68.865    0.4626
 45.          67.753    0.4657
 45.          66.640    0.4688
 45.          65.309    0.5170
 45.          64.423    0.5640
 45.          63.085    0.5233
 45.          61.757    0.6159
 45.          60.428    0.7085
 45.          59.307    0.5783
 45.          57.972    0.5820
 45.          57.095    0.7623
 45.          55.761    0.7660
 45.          54.649    0.7692
 45.          53.317    0.8173
 45.          51.983    0.8211
 45.          50.639    0.6915
 45.          49.536    0.8279
 45.          47.979    0.8323
 45.          46.645    0.8360
 45.          45.755    0.8386
 45.          44.427    0.9312
 45.          43.095    0.9794
 45.          41.761    0.9831
 45.          40.878    1.0745
 45.          39.769    1.1220
 45.          38.657    1.1251
 45.          37.767    1.1276
 45.          36.655    1.1307
 45.          35.774    1.2666
 45.          34.662    1.2697
 45.          33.776    1.3166
 45.          32.664    1.3197
 45.          31.336    1.4123
 45.          30.230    1.5043
 45.          29.118    1.5075
 45.          28.685    1.6865
 45.          27.576    1.7340
 45.          26.474    1.8704
 45.          25.368    1.9624
 45.          24.256    1.9656
 45.          23.144    1.9687
 45.          22.486    2.1039
 45.          21.815    2.0613
 45.          21.383    2.2403
 45.          20.719    2.2866
 45.          20.286    2.4656
 45.          19.394    2.4236
 45.          18.958    2.5582
 45.          18.072    2.6051
 45.          17.188    2.6965
 45.          16.082    2.7885
 45.          15.218    3.1465
 45.          14.316    2.9712
 45.          13.893    3.2835
 45.          13.692    3.5952
 45.          13.019    3.5082
 45.          12.145    3.7329
 45.          11.499    4.0458
 45.          10.841    4.1810
 45.           9.955    4.2279
 45.           9.352    4.5853
 45.           9.337    4.9408
 45.           8.689    5.2093
 45.           8.031    5.3445
 45.           7.605    5.6123
 45.           7.188    6.0135
 45.           6.768    6.3703
 45.           6.114    6.5499
 45.           5.684    6.7733
 45.           5.271    7.2189
 45.           4.860    7.7090
 45.           3.929    8.8675
 45.           3.870    9.4451
 45.           3.074   10.7810
 45.           2.895   11.4030
 45.           2.522   12.4270
 45.           2.372   13.4490
 45.           2.187   13.9830
 45.           1.595   15.0520
 45.           0.724   15.3210
 71.          70.159    0.4694
 71.          69.269    0.4720
 71.          68.160    0.5207
 71.          66.826    0.5245
 71.          65.498    0.6193
 71.          64.602    0.5310
 71.          63.270    0.5804
 71.          61.936    0.5843
 71.          60.160    0.6349
 71.          58.831    0.7297
 71.          57.274    0.7342
 71.          55.718    0.7388
 71.          54.389    0.8336
 71.          53.490    0.6998
 71.          52.391    0.8849
 71.          51.053    0.8433
 71.          49.957    1.0738
 71.          48.626    1.1231
 71.          47.504    0.9900
 71.          45.957    1.1309
 71.          44.406    1.2264
 71.          42.849    1.2309
 71.          41.073    1.2815
 71.          39.300    1.3776
 71.          37.740    1.3367
 71.          36.193    1.4776
 71.          34.420    1.5737
 71.          33.098    1.7594
 71.          31.766    1.8088
 71.          30.651    1.7665
 71.          30.225    2.0405
 71.          29.323    1.8613
 71.          28.891    2.0444
 71.          28.240    2.2736
 71.          27.344    2.1853
 71.          26.244    2.3704
 71.          24.900    2.2379
 71.          24.249    2.4671
 71.          23.130    2.3795
 71.          22.479    2.6087
 71.          21.154    2.7489
 71.          20.045    2.7976
 71.          18.723    2.9833
 71.          18.291    3.1664
 71.          16.960    3.2157
 71.          15.628    3.2651
 71.          14.303    3.4053
 71.          13.204    3.5904
 71.          12.324    3.7293
 71.          11.679    4.0494
 71.          11.028    4.2786
 71.           9.696    4.3280
 71.           8.374    4.5137
 71.           7.491    4.6072
 71.           6.395    4.8377
 71.           5.521    5.0675
 71.           4.654    5.3883
 71.           4.228    5.6623
 71.           3.608    6.3460
 71.           2.976    6.8479
 71.           2.563    7.3037
 71.           2.162    7.9413
 71.           1.107    8.7627
 71.           0.421    8.4919
 96.          70.172    0.4393
 96.          69.280    0.3964
 96.          68.164    0.3541
 96.          67.287    0.5383
 96.          66.388    0.4046
 96.          65.282    0.4986
 96.          63.728    0.5485
 96.          63.067    0.6412
 96.          61.733    0.6450
 96.          59.957    0.6955
 96.          58.622    0.6993
 96.          57.068    0.7491
 96.          55.292    0.7996
 96.          53.729    0.7132
 96.          52.845    0.8066
 96.          51.072    0.9025
 96.          49.512    0.8615
 96.          48.410    1.0009
 96.          46.859    1.0962
 96.          45.518    1.0091
 96.          44.415    1.1485
 96.          42.861    1.1984
 96.          41.085    1.2489
 96.          39.525    1.2079
 96.          37.981    1.3940
 96.          36.866    1.3517
 96.          36.211    1.5353
 96.          34.434    1.5858
 96.          32.884    1.6810
 96.          31.775    1.7296
 96.          29.995    1.7347
 96.          28.445    1.8299
 96.          27.342    1.9693
 96.          26.020    2.1548
 96.          24.469    2.2501
 96.          23.144    2.3901
 96.          21.819    2.5302
 96.          20.487    2.5794
 96.          19.388    2.7642
 96.          18.288    2.9490
 96.          17.386    2.7699
 96.          16.280    2.8639
 96.          15.180    3.0487
 96.          14.754    3.3225
 96.          13.874    3.4613
 96.          13.197    3.3269
 96.          12.542    3.5105
 96.          11.439    3.6499
 96.          10.781    3.7880
 96.          10.127    3.9716
 96.           9.469    4.1098
 96.           9.030    4.2019
 96.           8.150    4.3406
 96.           7.044    4.4346
 96.           6.401    4.7999
 96.           5.722    4.6201
 96.           5.512    4.8024
 96.           4.872    5.2130
 96.           4.703    5.6672
 96.           4.696    5.8949
 96.           3.816    6.0337
 96.           3.759    6.6695
 96.           3.242    7.3981
 96.           2.822    7.7627
 96.           2.615    7.9904
 96.           2.593    8.8073
 96.           2.464    9.0356
 96.           2.410    9.7169
 96.           1.648   10.1280
 96.           0.969    9.9484
 96.           0.728    9.6765
109.          69.905    0.5177
109.          68.570    0.5216
109.          67.464    0.6145
109.          65.901    0.5294
109.          65.018    0.6217
109.          63.680    0.5808
109.          62.130    0.6750
109.          60.786    0.5445
109.          59.683    0.6822
109.          58.123    0.6420
109.          57.237    0.6894
109.          55.676    0.6492
109.          54.348    0.7427
109.          53.024    0.8811
109.          51.905    0.7948
109.          50.803    0.9325
109.          49.455    0.7571
109.          48.579    0.9391
109.          47.238    0.8533
109.          45.913    0.9917
109.          44.794    0.9053
109.          43.692    1.0431
109.          42.351    0.9574
109.          41.020    1.0061
109.          39.685    1.0100
109.          38.576    1.0581
109.          37.693    1.1504
109.          36.584    1.1985
109.          35.479    1.2914
109.          34.370    1.3395
109.          33.036    1.3434
109.          32.607    1.5689
109.          31.259    1.3935
109.          30.605    1.5747
109.          29.712    1.5325
109.          28.816    1.4455
109.          28.162    1.6268
109.          26.611    1.7210
109.          25.283    1.8146
109.          23.952    1.8633
109.          22.853    2.0459
109.          21.748    2.1388
109.          20.420    2.2324
109.          19.317    2.3701
109.          17.767    2.4644
109.          16.655    2.4676
109.          15.327    2.5612
109.          14.237    2.8783
109.          13.551    2.6113
109.          12.684    2.9277
109.          11.578    3.0206
109.          11.156    3.3357
109.          10.037    3.2493
109.           8.716    3.4325
109.           7.839    3.6144
109.           7.182    3.7509
109.           6.747    3.8867
109.           6.318    4.1121
109.           6.109    4.2920
109.           4.774    4.2960
109.           3.894    4.4331
109.           3.475    4.7930
109.           2.841    5.2432
109.           2.412    5.4686
109.           1.797    6.1878
109.           1.607    6.6367
109.           0.727    6.7738
109.           0.014    6.1482
122.          70.128    0.6326
122.          69.007    0.4864
122.          67.678    0.5407
122.          66.576    0.6941
122.          65.237    0.5986
122.          63.682    0.6037
122.          62.336    0.4082
122.          61.238    0.6116
122.          59.457    0.5675
122.          58.131    0.6717
122.          56.575    0.6768
122.          55.236    0.5812
122.          53.916    0.7853
122.          52.357    0.7405
122.          51.482    0.9431
122.          49.917    0.7984
122.          48.361    0.8035
122.          47.028    0.8078
122.          45.927    0.9613
122.          44.372    0.9663
122.          42.823    1.0713
122.          41.706    0.9750
122.          40.151    0.9801
122.          38.380    1.0858
122.          37.037    0.9403
122.          35.714    1.0945
122.          34.613    1.2479
122.          33.061    1.3029
122.          31.505    1.3080
122.          30.401    1.4115
122.          28.849    1.4665
122.          27.519    1.5208
122.          26.196    1.6750
122.          25.297    1.5280
122.          23.968    1.5823
122.          22.641    1.6866
122.          21.540    1.8400
122.          20.439    1.9934
122.          19.337    2.1469
122.          18.008    2.2012
122.          16.234    2.2569
122.          15.126    2.3105
122.          13.793    2.3148
122.          12.917    2.5175
122.          11.809    2.5711
122.          11.381    2.8222
122.          10.051    2.8765
122.           9.395    3.0285
122.           8.271    2.8323
122.           7.633    3.2840
122.           6.735    3.1371
122.           6.085    3.3889
122.           4.990    3.6423
122.           3.898    3.9455
122.           3.470    4.1967
122.           2.813    4.3487
122.           2.166    4.6505
122.           1.522    5.0023
122.           0.640    5.1050
ENDDATA            398
ENDSUBENT          430
SUBENT        41624009   20171210   20180402   20180319       4177
BIB                  4         13
REACTION   (1-H-D2O(N,THS)1-H-D2O,,DA/DE,,TMP)
            Double differential cross section for heavy water
COMMENT    Of compiler.
           - Data for 12,25,38,45 deg are marked by "*0.4",
           divided by 0.4 after digitization by compiler.
           - Quality of digitization is not high in the ranges,
           where is overlapping of symbols on figure.
           - Digitization errors are given as maximal from all
            errors for 4 angles (divided by 0.4).
ERR-ANALYS   Quantization errors ( one pixel)
            scale X - 0.191 millieV
            scale Y - 0.205 b/sr/eV
STATUS     (CURVE) Fig.3 of R,JINR-P3-86-779,1986
ENDBIB              13
COMMON               3          3
TEMP       E-ERR-DIG  ERR-DIG
DEG-C      MILLI-EV   B/SR/EV
 23.       0.108      0.0798
ENDCOMMON            3
DATA                 3         94
ANG        E-GAIN     DATA
ADEG       MILLI-EV   B/SR/EV
 12.        19.535      1.231
 12.        18.386      1.607
 12.        17.431      1.600
 12.        16.284      1.784
 12.        15.138      1.776
 12.        13.989      2.152
 12.        13.034      2.145
 12.        11.889      1.945
 12.        11.121      2.516
 12.        10.165      2.701
 12.         9.207      3.079
 12.         8.059      3.263
 12.         7.291      3.834
 12.         6.332      4.404
 12.         5.943      5.363
 12.         5.358      7.089
 12.         4.767      9.584
 12.         4.549     13.428
 12.         3.936     18.999
 12.         3.123     25.915
 12.         2.508     31.870
 12.         1.696     38.595
 12.         1.098     42.242
 25.        19.092      1.096
 25.        17.564      1.086
 25.        16.415      1.467
 25.        14.887      1.457
 25.        13.546      2.031
 25.        12.397      2.605
 25.        11.438      3.181
 25.        10.095      4.143
 25.         9.325      5.108
 25.         8.747      5.880
 25.         7.783      7.232
 25.         7.203      8.393
 25.         6.619     10.135
 25.         6.231     11.102
 25.         5.260     13.618
 25.         4.667     16.913
 25.         4.249     22.730
 25.         4.020     28.743
 25.         3.203     37.275
 25.         2.395     44.447
 25.         1.979     49.877
 25.         1.387     52.977
 25.         0.619     53.555
 25.         0.056     52.000
 38.        19.269      2.520
 38.        17.933      2.328
 38.        16.593      2.874
 38.        15.254      3.052
 38.        13.915      3.414
 38.        12.765      4.147
 38.        11.231      5.062
 38.        10.079      5.980
 38.         8.927      7.083
 38.         7.774      8.185
 38.         7.002      9.475
 38.         6.422     10.580
 38.         5.843     11.686
 38.         5.453     12.978
 38.         4.482     15.560
 38.         4.275     18.331
 38.         3.486     22.394
 38.         3.459     27.015
 38.         2.658     33.110
 38.         1.861     38.650
 38.         1.453     42.897
 38.         1.435     46.040
 38.         0.473     47.145
 45.        19.331      3.376
 45.        18.564      3.752
 45.        17.605      4.318
 45.        16.647      4.694
 45.        15.499      4.878
 45.        14.158      5.251
 45.        12.813      6.386
 45.        12.231      7.906
 45.        11.269      8.852
 45.        10.500      9.610
 45.         9.541     10.176
 45.         8.768     11.694
 45.         8.379     12.835
 45.         7.603     14.735
 45.         7.213     16.065
 45.         6.635     16.824
 45.         5.288     18.339
 45.         4.700     20.812
 45.         3.917     24.044
 45.         3.293     32.800
 45.         2.474     42.317
 45.         1.623     57.355
 45.         0.829     62.493
 45.         0.054     64.200
ENDDATA             96
ENDSUBENT          118
SUBENT        41624010   20171210   20180402   20180319       4177
BIB                  4         11
REACTION   (1-H-D2O(N,THS)1-H-D2O,,DA/DE,,TMP)
            Double differential cross section for heavy water
COMMENT    Of compiler.
           - Quality of digitization is not high in the ranges,
           where is overlapping of symbols on figure.
           - Digitization errors are given as maximal from all
            errors for 3 angles.
ERR-ANALYS   Quantization errors ( one pixel)
            scale X - 0.191 millieV
            scale Y - 0.082 b/sr/eV
STATUS     (CURVE) Fig.3 of R,JINR-P3-86-779,1986
ENDBIB              11
COMMON               3          3
TEMP       E-ERR-DIG  ERR-DIG
DEG-C      MILLI-EV   B/SR/EV
 23.       0.0723     0.0253
ENDCOMMON            3
DATA                 3         94
ANG        E-GAIN     DATA
ADEG       MILLI-EV   B/SR/EV
 71.        27.733      1.5329
 71.        26.771      2.0201
 71.        25.051      2.0972
 71.        24.102      1.6867
 71.        23.142      2.0107
 71.        22.183      2.2531
 71.        21.232      2.0058
 71.        20.465      2.1670
 71.        19.506      2.4910
 71.        18.545      2.8966
 71.        17.788      2.4050
 71.        17.401      2.7304
 71.        16.058      3.1350
 71.        15.476      3.7865
 71.        13.949      3.7009
 71.        13.179      4.1070
 71.        12.412      4.3499
 71.        11.071      4.5912
 71.         9.919      4.9963
 71.         9.341      5.4029
 71.         8.567      6.0538
 71.         7.800      6.2967
 71.         7.411      6.7854
 71.         6.449      7.2726
 71.         6.252      7.6801
 71.         5.484      7.9230
 71.         4.524      8.3286
 71.         3.750      8.9795
 71.         3.168      9.6309
 71.         2.375     11.6690
 71.         1.770     13.9530
 71.         0.976     16.0730
 71.         0.582     16.8880
 71.         0.182     18.1930
 96.        27.400      1.8067
 96.        26.447      1.5737
 96.        25.485      1.9561
 96.        24.333      2.3380
 96.        23.372      2.6434
 96.        22.228      2.4100
 96.        21.081      2.4074
 96.        20.310      2.8671
 96.        18.970      2.9409
 96.        17.820      3.1690
 96.        17.427      3.8604
 96.        16.285      3.5500
 96.        15.322      4.0093
 96.        14.359      4.4686
 96.        13.400      4.6972
 96.        12.062      4.6940
 96.        11.291      5.0769
 96.        10.533      4.6136
 96.         9.762      5.0733
 96.         9.374      5.4570
 96.         8.412      5.8394
 96.         7.640      6.3760
 96.         6.869      6.8358
 96.         5.906      7.2951
 96.         5.136      7.6779
 96.         4.174      8.0603
 96.         3.025      8.2114
 96.         2.444      8.6716
 96.         2.045      9.8245
 96.         1.654     10.4390
 96.         1.226     13.5920
 96.         1.007     15.5910
 96.         0.399     17.9740
 96.         0.174     20.2810
 109.       27.165      2.1651
 109.       25.632      2.4685
 109.       24.862      2.8509
 109.       23.526      2.7705
 109.       22.185      2.9976
 109.       20.847      3.0710
 109.       19.892      3.0684
 109.       18.551      3.2955
 109.       17.400      3.6000
 109.       16.441      3.8281
 109.       15.291      4.0557
 109.       13.954      4.0522
 109.       12.807      4.1261
 109.       11.466      4.3532
 109.        9.935      4.5029
 109.        9.165      4.8853
 109.        7.823      5.1892
 109.        7.054      5.4947
 109.        5.335      5.4902
 109.        4.758      5.7193
 109.        3.986      6.1785
 109.        3.205      7.2528
 109.        2.426      8.1733
 109.        1.651      8.8631
 109.        0.667     10.6290
 109.        0.071     12.0110
ENDDATA             96
ENDSUBENT          116
SUBENT        41624011   20171210   20180402   20180319       4177
BIB                  4         11
REACTION   (1-H-D2O(N,THS)1-H-D2O,,DA/DE,,TMP)
            Double differential cross section for heavy water
COMMENT    Of compiler.
           - Data for 122. deg are marked by "*4",
           divided by 4 after digitization by compiler.
           - Quality of digitization is not high in the ranges,
           where is overlapping of symbols on figure.
ERR-ANALYS   Quantization errors ( one pixel)
            scale X - 0.191 millieV
            scale Y - 0.0205 b/sr/eV
STATUS     (CURVE) Fig.3 of R,JINR-P3-86-779,1986
ENDBIB              11
COMMON               3          3
TEMP       E-ERR-DIG  ERR-DIG
DEG-C      MILLI-EV   B/SR/EV
 23.       0.0499     0.00593
ENDCOMMON            3
DATA                 3         31
ANG        E-GAIN     DATA
ADEG       MILLI-EV   B/SR/EV
 122.        27.217    1.2271
 122.        27.209    1.3854
 122.        26.058    1.4441
 122.        25.299    1.3447
 122.        24.711    1.6017
 122.        24.145    1.4628
 122.        22.991    1.5809
 122.        22.600    1.7390
 122.        21.263    1.7184
 122.        20.873    1.8567
 122.        19.152    1.8557
 122.        18.379    1.9938
 122.        17.038    2.0524
 122.        15.884    2.1705
 122.        14.920    2.3085
 122.        14.149    2.4268
 122.        12.995    2.5450
 122.        12.043    2.4652
 122.        11.461    2.6233
 122.        10.118    2.7015
 122.         9.168    2.6020
 122.         8.390    2.8390
 122.         7.438    2.7593
 122.         6.672    2.7788
 122.         5.710    2.8970
 122.         4.748    2.9953
 122.         3.788    3.0740
 122.         3.021    3.1130
 122.         2.032    3.7062
 122.         1.434    4.1415
 122.         0.658    4.3390
ENDDATA             33
ENDSUBENT           53
SUBENT        41624012   20171210   20180402   20180319       4177
BIB                  4         15
REACTION   (1-H-D2O(N,THS)1-H-D2O,,DA/DE,,TMP)
            Double differential cross section for heavy water
COMMENT    Of compiler.
           - Data for 12., 25. deg are marked by "*0.5",
           divided by 0.5 after digitization by compiler.
           - Quality of digitization is not high in the ranges,
           where is overlapping of symbols on figure.
ERR-ANALYS   Quantization errors ( one pixel) :
            scale X - 0.249 millieV ;
            scale Y - 0.050  b/sr/eV .
            E-ERR-DIG - 0.138 millieV at 25 deg
                        0.0733 millieV at 12 deg .
            ERR-DIG - 0.0741 b/sr/eV at 25 deg
                      0.0678 b/sr/eV at 12 deg .
STATUS     (CURVE) Fig.4 of R,JINR-P3-86-779,1986
ENDBIB              15
COMMON               1          3
TEMP
DEG-C
 130.
ENDCOMMON            3
DATA                 3         73
ANG        E-GAIN     DATA
ADEG       MILLI-EV   B/SR/EV
 12.        30.207      0.151
 12.        28.713      0.248
 12.        27.471      0.145
 12.        26.227      0.142
 12.        25.225      0.643
 12.        23.984      0.439
 12.        22.737      0.637
 12.        21.748      0.232
 12.        20.753      0.230
 12.        19.252      0.831
 12.        17.761      0.726
 12.        16.767      0.623
 12.        15.519      0.923
 12.        14.524      0.920
 12.        13.278      1.119
 12.        12.280      1.318
 12.        11.033      1.516
 12.        10.279      2.119
 12.         9.541      1.513
 12.         8.786      2.115
 12.         8.034      2.516
 12.         7.528      3.120
 12.         7.271      3.723
 12.         6.763      4.427
 12.         6.254      5.232
 12.         5.734      6.842
 12.         5.209      8.754
 12.         4.430     11.069
 12.         4.134     14.391
 12.         3.834     18.016
 12.         3.281     21.942
 12.         2.746     24.560
 12.         2.224     26.270
 12.         1.471     26.772
 12.         0.982     26.168
 12.         0.263     24.252
 25.        29.757      0.556
 25.        28.509      0.848
 25.        27.517      0.746
 25.        26.523      0.743
 25.        25.277      0.936
 25.        23.789      0.833
 25.        22.793      0.928
 25.        21.799      0.925
 25.        20.553      1.119
 25.        19.311      1.115
 25.        18.313      1.309
 25.        17.065      1.601
 25.        15.825      1.499
 25.        15.318      1.991
 25.        14.076      1.987
 25.        13.074      2.378
 25.        11.824      2.769
 25.        11.313      3.459
 25.        10.309      3.950
 25.         9.800      4.541
 25.         9.289      5.230
 25.         8.534      5.722
 25.         8.023      6.411
 25.         7.508      7.298
 25.         6.737      8.580
 25.         6.460      9.961
 25.         5.935     11.342
 25.         5.658     12.724
 25.         5.133     14.105
 25.         4.600     15.881
 25.         4.051     18.447
 25.         3.492     21.506
 25.         2.933     24.566
 25.         2.386     27.032
 25.         1.861     28.414
 25.         1.094     29.498
 25.         0.617     28.508
ENDDATA             75
ENDSUBENT           99
SUBENT        41624013   20171210   20180402   20180319       4177
BIB                  3         18
REACTION   (1-H-D2O(N,THS)1-H-D2O,,DA/DE,,TMP)
            Double differential cross section for heavy water
ERR-ANALYS   Quantization errors ( one pixel)
            scale X - 0.249 millieV
            scale Y - 0.0510  b/sr/eV
            E-ERR-DIG -0.105 millieV at 122 deg
                       0.132 millieV at 109 deg
                       0.177 millieV at 96 deg
                       0.156 millieV at 71 deg
                       0.160 millieV at 45 deg
                       0.177 millieV at 38 deg
            ERR-DIG  0.0269 b/sr/eV at 122 deg
                     0.0300 b/sr/eV at 109 deg
                     0.0312 b/sr/eV at 96 deg
                     0.0314 b/sr/eV at 71 deg
                     0.0364 b/sr/eV at 45 deg
                     0.0384 b/sr/eV at 38 deg
STATUS     (CURVE) Fig.4 of R,JINR-P3-86-779,1986
ENDBIB              18
COMMON               1          3
TEMP
DEG-C
 130.
ENDCOMMON            3
DATA                 3        226
ANG        E-GAIN     DATA
ADEG       MILLI-EV   B/SR/EV
 38.        29.599      0.9375
 38.        28.107      0.9863
 38.        26.862      1.0355
 38.        25.123      1.0326
 38.        24.126      1.1334
 38.        22.635      1.1309
 38.        21.395      1.0776
 38.        20.391      1.3322
 38.        18.896      1.4323
 38.        17.654      1.4302
 38.        16.653      1.6336
 38.        15.410      1.6315
 38.        14.655      1.8866
 38.        13.900      2.1416
 38.        13.148      2.2942
 38.        12.147      2.4975
 38.        11.640      2.7530
 38.        10.638      2.9564
 38.        10.131      3.2119
 38.         8.873      3.6199
 38.         8.366      3.8753
 38.         8.107      4.1312
 38.         7.356      4.2837
 38.         7.094      4.6421
 38.         6.577      5.1539
 38.         5.827      5.2552
 38.         5.309      5.8182
 38.         4.794      6.2787
 38.         4.012      7.2001
 38.         3.728      8.1224
 38.         2.936      9.3001
 38.         2.654     10.1710
 38.         2.373     10.9910
 38.         1.840     11.9130
 38.         1.089     12.0650
 38.         0.357     11.7050
 45.        28.576      1.1406
 45.        27.588      0.9852
 45.        26.837      1.1378
 45.        26.088      1.2392
 45.        25.826      1.5978
 45.        25.098      1.1351
 45.        24.833      1.5962
 45.        24.078      1.8514
 45.        23.350      1.3887
 45.        23.342      1.5938
 45.        22.608      1.2850
 45.        21.609      1.4373
 45.        20.607      1.6408
 45.        19.606      1.8443
 45.        18.853      2.0483
 45.        18.349      2.2526
 45.        17.347      2.4561
 45.        16.860      2.1989
 45.        16.097      2.6593
 45.        15.113      2.4013
 45.        14.118      2.4510
 45.        13.609      2.7579
 45.        13.099      3.1160
 45.        12.102      3.2170
 45.        11.588      3.6777
 45.        11.316      4.2926
 45.        10.328      4.1372
 45.         9.564      4.6488
 45.         9.079      4.3404
 45.         8.561      4.9036
 45.         7.802      5.2614
 45.         7.525      6.0302
 45.         7.040      5.7217
 45.         6.268      6.4384
 45.         5.536      6.0783
 45.         5.261      6.7958
 45.         4.993      7.3082
 45.         3.732      7.8190
 45.         3.455      8.5877
 45.         2.914      9.7663
 45.         2.857     11.3050
 45.         2.316     12.4830
 45.         1.804     12.8930
 45.         1.279     13.6610
 45.         0.551     13.1980
 45.         0.071     12.7360
 71.        29.471      1.2395
 71.        28.471      1.4329
 71.        27.718      1.6266
 71.        26.473      1.7223
 71.        25.968      1.9651
 71.        24.722      2.0608
 71.        23.740      1.7187
 71.        22.750      1.6200
 71.        22.243      1.9114
 71.        21.252      1.8127
 71.        20.995      2.0558
 71.        20.242      2.2982
 71.        19.491      2.4433
 71.        17.996      2.5873
 71.        17.010      2.3426
 71.        15.753      2.7790
 71.        15.241      3.2165
 71.        14.261      2.8257
 71.        13.999      3.2149
 71.        13.263      2.9218
 71.        12.756      3.2132
 71.        12.499      3.4563
 71.        10.520      3.2102
 71.        10.012      3.5503
 71.         8.758      3.8894
 71.         7.757      4.0829
 71.         6.753      4.3736
 71.         6.266      4.0809
 71.         5.528      3.8851
 71.         4.778      4.0302
 71.         4.020      4.3700
 71.         3.510      4.7588
 71.         2.252      5.1953
 71.         1.744      5.5354
 71.         0.728      6.1669
 71.         0.713      6.6051
 96.        29.329      1.4380
 96.        28.577      1.6370
 96.        28.074      1.8363
 96.        27.074      2.0350
 96.        26.585      1.7844
 96.        25.836      1.8834
 96.        25.077      2.3323
 96.        24.086      2.2310
 96.        23.326      2.6800
 96.        21.842      2.4781
 96.        20.860      2.1268
 96.        20.594      2.6764
 96.        20.089      2.9257
 96.        19.106      2.5745
 96.        19.093      2.9744
 96.        18.340      3.2234
 96.        17.604      2.9225
 96.        17.114      2.7219
 96.        16.109      3.0705
 96.        15.622      2.7699
 96.        14.860      3.2689
 96.        14.128      2.8680
 96.        13.612      3.4672
 96.        12.632      3.0160
 96.        12.121      3.4653
 96.        11.385      3.1644
 96.        10.627      3.5633
 96.        10.121      3.8626
 96.         8.882      3.7610
 96.         8.620      4.1606
 96.         7.623      4.2593
 96.         6.631      4.2080
 96.         5.883      4.3070
 96.         4.652      3.9555
 96.         4.168      3.5549
 96.         3.678      3.3543
 96.         3.436      3.1540
 96.         2.438      3.2527
 96.         1.950      3.0021
 96.         1.440      3.4014
 96.         0.924      4.0006
 96.         0.664      4.3502
 96.         0.380      5.4497
109.        27.921      1.9377
109.        26.921      2.0864
109.        25.922      2.2351
109.        25.417      2.4843
109.        24.678      2.2337
109.        24.422      2.4831
109.        23.423      2.6318
109.        22.432      2.4808
109.        20.937      2.5790
109.        19.692      2.6275
109.        18.934      3.0262
109.        17.943      2.8752
109.        16.944      3.0239
109.        16.209      2.6234
109.        14.969      2.5221
109.        13.968      2.7207
109.        13.460      3.0698
109.        12.215      3.1183
109.        10.974      3.0169
109.        10.219      3.3158
109.         8.728      3.2641
109.         7.978      3.4131
109.         6.977      3.6117
109.         5.985      3.5107
109.         4.743      3.4593
109.         3.991      3.6582
109.         2.507      3.3567
109.         1.752      3.6556
109.         1.244      4.0047
109.         0.737      4.3537
109.         0.232      4.6029
122.        29.019      1.5324
122.        27.522      1.7354
122.        26.521      1.9905
122.        25.787      1.6306
122.        25.274      2.1426
122.        23.778      2.2944
122.        22.788      2.1906
122.        22.049      1.9846
122.        21.062      1.7782
122.        20.060      2.0332
122.        19.063      2.1344
122.        18.558      2.3901
122.        17.574      2.0812
122.        17.065      2.4906
122.        15.827      2.3352
122.        15.088      2.1292
122.        14.579      2.5386
122.        13.345      2.2807
122.        12.346      2.4332
122.        11.859      2.1249
122.        10.857      2.3799
122.        10.599      2.6872
122.         9.605      2.6859
122.         8.121      2.4788
122.         7.616      2.7345
122.         6.385      2.3740
122.         5.384      2.6290
122.         4.632      2.8331
122.         3.642      2.7293
122.         2.656      2.4716
122.         2.390      3.0352
122.         1.399      2.9314
122.         1.141      3.2386
122.         0.148      3.2373
ENDDATA            228
ENDSUBENT          255
SUBENT        41624014   20171210   20180402   20180319       4177
BIB                  4         13
REACTION   (1-H-D2O(N,THS)1-H-D2O,,DA/DE,,TMP)
            Double differential cross section for heavy water
COMMENT    Of compiler.
           - Data for 12., 25. deg are marked by "*0.5",
           divided by 0.5 after digitization by compiler.
ERR-ANALYS   Quantization errors ( one pixel)
            scale X - 0.223 millieV
            scale Y - 0.045 b/sr/eV
            E-ERR-DIG  0.248 millieV at 25. deg
                       0.205 millieV at 12. deg
            ERR-DIG  0.0307 b/sr/eV at 25. deg
                     0.0522 b/sr/eV at 12. deg
STATUS     (CURVE) Fig.5 of R,JINR-P3-86-779,1986
ENDBIB              13
COMMON               1          3
TEMP
DEG-C
 200.
ENDCOMMON            3
DATA                 3         62
ANG        E-GAIN     DATA
ADEG       MILLI-EV   B/SR/EV
 12.       26.314       1.4239
 12.       24.974       1.4250
 12.       23.409       1.3817
 12.       21.620       1.3386
 12.       20.055       1.2953
 12.       18.716       1.3855
 12.       17.597       1.2973
 12.       16.259       1.4320
 12.       14.470       1.3443
 12.       13.131       1.4345
 12.       11.566       1.3912
 12.       10.675       1.5701
 12.        9.335       1.6157
 12.        8.222       1.7947
 12.        7.110       2.0628
 12.        6.221       2.2862
 12.        5.556       2.5540
 12.        4.894       2.9999
 12.        4.235       3.5348
 12.        4.027       4.2921
 12.        3.595       5.0496
 12.        3.394       6.1631
 12.        2.971       7.3660
 12.        2.781       9.0140
 12.        2.360      10.2610
 12.        1.713      11.4200
 12.        0.622      12.7570
 25.       27.611       1.4771
 25.       26.282       1.3844
 25.       25.380       1.6067
 25.       24.048       1.5589
 25.       22.933       1.6013
 25.       22.048       1.5095
 25.       20.709       1.5963
 25.       20.049       1.4602
 25.       19.147       1.6825
 25.       18.489       1.5016
 25.       18.030       1.7698
 25.       16.475       1.7214
 25.       16.023       1.8550
 25.       15.348       1.9881
 25.       14.671       2.1661
 25.       13.774       2.2987
 25.       13.094       2.5215
 25.       12.197       2.6541
 25.       11.518       2.8770
 25.       10.840       3.0550
 25.        9.936       3.3222
 25.        9.254       3.5899
 25.        8.567       3.9473
 25.        8.100       4.3501
 25.        7.630       4.7978
 25.        7.161       5.2454
 25.        5.982       6.4544
 25.        5.275       7.1707
 25.        4.072       8.8283
 25.        3.345       9.9036
 25.        2.609      11.1580
 25.        1.865      12.5480
 25.        1.346      13.8930
 25.        0.785      16.0000
 25.        0.041      17.3900
ENDDATA             64
ENDSUBENT           86
SUBENT        41624015   20171210   20180402   20180319       4177
BIB                  4         23
REACTION   (1-H-D2O(N,THS)1-H-D2O,,DA/DE,,TMP)
            Double differential cross section for heavy water
COMMENT    Of compiler.
           - Quality of digitization is not high in the ranges,
           where is overlapping of symbols on figure.
ERR-ANALYS   Quantization errors ( one pixel)
            scale X - 0.222 millieV
            scale Y - 0.050 b/sr/eV at 122 deg
                      0.045 b/sr/eV at 109,96,71 deg
                      0.044 b/sr/eV at 45, 38 deg
            E-ERR-DIG  0.135 millieV at 122 deg
                       0.118 millieV at 109 deg
                       0.0884 millieV at 96 deg
                       0.134 millieV at 71 deg
                       0.155 millieV at 45 deg
                       0.105 4millieV at 38 deg
            ERR-DIG  0.0116 b/sr/eV at 122 deg
                     0.0104 b/sr/eV at 109 deg
                     0.0121 b/sr/eV at 96 deg
                     0.0110 b/sr/eV at 71 deg
                     0.0115 b/sr/eV at 45 deg
                     0.0104 b/sr/eV at 38 deg
STATUS     (CURVE) Fig.5 of R,JINR-P3-86-779,1986
ENDBIB              23
COMMON               1          3
TEMP
DEG-C
 200.
ENDCOMMON            3
DATA                 3        193
ANG        E-GAIN     DATA
ADEG       MILLI-EV   B/SR/EV
 38.       27.593       1.4038
 38.       26.030       1.4881
 38.       24.915       1.5293
 38.       24.254       1.4385
 38.       23.139       1.4797
 38.       22.014       1.6542
 38.       20.225       1.7823
 38.       18.880       1.9117
 38.       17.539       1.9967
 38.       16.411       2.2156
 38.       15.064       2.3894
 38.       13.723       2.4744
 38.       13.039       2.6946
 38.       11.689       2.9129
 38.       11.002       3.1775
 38.       10.093       3.4415
 38.        9.187       3.6610
 38.        8.726       3.8819
 38.        7.820       4.1014
 38.        6.908       4.4098
 38.        6.444       4.6751
 38.        5.535       4.9390
 38.        4.845       5.2481
 38.        4.155       5.5571
 38.        3.684       5.9113
 38.        3.436       6.2660
 38.        2.485       7.1076
 38.        1.979       7.9504
 38.        1.002       9.1473
 45.       27.135       1.9319
 45.       26.446       2.2411
 45.       25.121       2.1041
 45.       24.466       1.9244
 45.       23.135       1.8763
 45.       22.254       1.7405
 45.       21.337       2.1379
 45.       20.911       1.8700
 45.       19.764       2.3557
 45.       19.084       2.5316
 45.       18.608       2.9747
 45.       17.737       2.7056
 45.       16.863       2.4809
 45.       16.835       2.8808
 45.       15.704       3.1443
 45.       15.053       2.9203
 45.       14.361       3.2739
 45.       13.239       3.4041
 45.       13.217       3.7152
 45.       12.534       3.9355
 45.       11.422       3.9323
 45.       10.542       3.7965
 45.       10.291       4.1958
 45.        9.396       4.2822
 45.        9.151       4.5927
 45.        8.456       4.9907
 45.        7.764       5.3443
 45.        7.341       5.0320
 45.        6.630       5.6523
 45.        6.160       6.0065
 45.        5.054       5.9145
 45.        4.371       6.1348
 45.        3.895       6.5780
 45.        3.203       6.9316
 45.        2.458       8.0406
 45.        1.969       8.6615
 45.        1.183      10.3480
 45.        0.867      11.6810
 45.        0.263      13.9460
 45.        0.012      14.3450
 71.       27.774       2.9370
 71.       26.453       2.7513
 71.       24.915       2.4741
 71.       24.893       2.7922
 71.       23.561       2.7429
 71.       23.097       3.0143
 71.       21.969       3.2383
 71.       21.083       3.1903
 71.       19.964       3.2779
 71.       18.640       3.1377
 71.       17.728       3.4533
 71.       17.270       3.6338
 71.       16.409       3.2221
 71.       15.707       3.7201
 71.       14.817       3.7175
 71.       13.953       3.3513
 71.       12.800       3.9390
 71.       11.888       4.2545
 71.       11.030       3.7974
 71.       10.569       4.0234
 71.        9.864       4.5669
 71.        8.755       4.5182
 71.        7.195       4.5591
 71.        6.540       4.3753
 71.        5.628       4.6909
 71.        4.952       4.8253
 71.        4.472       5.3240
 71.        3.585       5.2759
 71.        2.905       5.4558
 71.        2.426       5.9545
 71.        1.730       6.3616
 71.        1.018       6.9959
 71.        0.542       7.4492
 71.        0.040       8.2660
 96.       28.222       2.7180
 96.       27.521       3.2157
 96.       26.199       3.0302
 96.       25.516       3.2554
 96.       24.864       3.0264
 96.       24.435       2.7981
 96.       23.545       2.7955
 96.       23.508       3.3405
 96.       22.631       3.1563
 96.       21.954       3.2907
 96.       21.061       3.3336
 96.       20.601       3.5594
 96.       19.925       3.6937
 96.       18.593       3.6445
 96.       17.694       3.7782
 96.       16.811       3.6849
 96.       16.134       3.8192
 96.       15.235       3.9529
 96.       14.333       4.1321
 96.       13.453       3.9933
 96.       12.118       3.9895
 96.       11.658       4.2153
 96.       10.768       4.2128
 96.        9.860       4.4827
 96.        8.967       4.5256
 96.        8.081       4.4777
 96.        7.172       4.7476
 96.        6.483       5.0637
 96.        4.926       5.0592
 96.        3.385       4.8277
 96.        2.915       5.1898
 96.        2.437       5.6881
 96.        1.976       5.9139
 96.        1.954       6.2318
 96.        0.997       7.2285
 96.        0.505       7.9084
 96.        0.255       8.3165
 96.        0.005       8.7247
109.       28.090       2.0612
109.       26.971       2.1475
109.       26.520       2.2359
109.       25.840       2.4132
109.       25.146       2.7699
109.       24.015       3.0356
109.       22.693       2.8523
109.       21.591       2.7146
109.       20.021       2.8893
109.       18.239       2.9289
109.       17.326       3.2401
109.       15.766       3.2803
109.       14.886       3.1432
109.       13.977       3.4096
109.       13.297       3.5869
109.       11.521       3.5368
109.       10.189       3.4881
109.        9.284       3.7096
109.        8.159       3.8856
109.        7.030       4.1065
109.        5.251       4.1013
109.        4.132       4.1877
109.        2.566       4.3176
109.        1.441       4.4936
109.        1.196       4.8067
109.        0.234       5.7903
122.       26.633       2.5965
122.       25.293       2.6920
122.       23.741       2.6370
122.       22.392       2.8824
122.       21.967       2.5813
122.       20.615       2.8766
122.       19.932       3.1241
122.       18.828       3.0206
122.       17.923       3.2674
122.       16.374       3.1625
122.       15.054       2.9584
122.       13.286       2.8027
122.       11.940       2.9982
122.       11.918       3.3477
122.       10.575       3.4932
122.        9.245       3.4389
122.        7.690       3.4339
122.        6.122       3.6286
122.        5.221       3.8254
122.        4.338       3.7226
122.        3.462       3.5200
122.        2.339       3.7161
122.        2.091       4.1149
122.        1.402       4.4623
122.        0.944       4.6606
122.        0.481       4.9588
ENDDATA            195
ENDSUBENT          227
ENDENTRY            15
