ENTRY            41691   20200901   20201113   20201112       4189
SUBENT        41691001   20200901   20201113   20201112       4189
BIB                  7         19
INSTITUTE  (4RUSKUR)
REFERENCE  (J,SNP,36,783,1982) Engl.translation of:
           (J,YF,36,1351,1982)
           (C,82KIEV,,367,1982) Subent 003 data.
           (C,82KIEV,,368,1982) Subent 002 data.
AUTHOR     (D.V.Aleksandrov,Yu.A.Glukhov,A.S.Dem'yanova,
           V.I.Dukhanov,I.B.Mazurov,B.G.Novatskii,A.A.Ogloblin,
           S.B.Sakuta,D.N.Stepanov)
TITLE      Measurement of the spectra of light nuclei in ternary
           fission of 252Cf and search for the isotopes 10He and
           7H
SAMPLE      Cf-252 source of 10 mug weight on tantalum backing.
            Diameter of active layer - 6 mm.
COMMENT    Of compiler. Histogram of Fig.2 (energy distribution
           of He-10) was not digitized - very low statistics and
           see also comment of authors.
           Of authors. Observed events are considered as
           background. See also 1),2),3) on page 784.
HISTORY    (20200901C) M.M.
ENDBIB              19
NOCOMMON             0          0
ENDSUBENT           22
SUBENT        41691002   20200901   20201113   20201112       4189
BIB                  4         14
REACTION   ((98-CF-252(0,F)2-HE-10,TER,FY)/
           (98-CF-252(0,F)2-HE-8,TER,FY))
DETECTOR   (TELES) Consisted of 17-mum semiconductor dE detector
           and 450-mum E detector.
           Registration threshold 11.5 MeV.
           Al foil of 32 mum thickness between Cf-252 and
           telescope to absorb fission fragments and 6.11-MeV
           alphas.
METHOD     (EDE,COINC)  Measurement time 208 hr.
           Counts: 2.7E+5 alphas, 6.2E+4 He-6, 2.3E+3 He-8.
           33 He-10 (5-8 are background), 59 He-12, 46 He-14.
STATUS     (TABLE) Text page 784 of
           Sov.Nucl.Phys.,v.36,p.783,1982
           Text of Conf.Proc.82KIEV,p.368,1982
ENDBIB              14
NOCOMMON             0          0
DATA                 1          1
DATA-MAX
NO-DIM
      4.E-3
ENDDATA              3
ENDSUBENT           22
SUBENT        41691003   20200901   20201113   20201112       4189
BIB                  4         11
REACTION   ((98-CF-252(0,F)1-H-7,TER,FY)/
           (98-CF-252(0,F)1-H-3,TER,FY))
DETECTOR   (TELES) Consisted of two (18-mum and 21 mum)
           semiconductor dE detectors and 500-mum E detector.
           Registration threshold 4.9 MeV for H-7
            Time resolution 5.E-8 sec.
METHOD     (EDE,COINC) Counts: 2.6E+4 tritium, 5 H-7 (could be
           considered as background).
STATUS     (TABLE) Text page 785 of
           Sov.Nucl.Phys.,v.36,p.783,1982
           In Conf.Proc.82KIEV,p.367,1982 - 2.E-4.
ENDBIB              11
NOCOMMON             0          0
DATA                 1          1
DATA-MAX
NO-DIM
      1.E-4
ENDDATA              3
ENDSUBENT           19
SUBENT        41691004   20200901   20201113   20201112       4189
BIB                  5         14
REACTION   (98-CF-252(0,F)2-HE-4,TER,FY/DE,,RAW)
            Number of counts
DETECTOR   (TELES) Consisted of 17-mum semiconductor dE detector
           and 450-mum E detector.
           Registration threshold 11.5 MeV.
           Al foil of 32 mum thickness between Cf-252 and
           telescope to absorb fission fragments and 6.11-MeV
           alphas.
METHOD     (EDE,COINC)  Measurement time 208 hr.
           Counts: 2.7E+5 alphas.
ERR-ANALYS  Quantization errors:
           scale X - 0.22 MeV, scale Y - 0.34E+2 counts
STATUS     (CURVE) Fig.1 left of
           Sov.Nucl.Phys.,v.36,p.783,1982
ENDBIB              14
COMMON               2          3
EN-ERR-DIG ERR-DIG
MEV        ARB-UNITS
0.022         0.43 E+2
ENDCOMMON            3
DATA                 2        117
E          DATA
MEV        ARB-UNITS
   7.728     0.7271E+4
   7.768     0.7820E+4
   7.853     0.8371E+4
   8.066     0.9266E+4
   8.069     0.8786E+4
   8.236     1.0160E+4
   8.450     1.1056E+4
   8.621     1.1745E+4
   8.624     1.1264E+4
   8.880     1.2435E+4
   9.050     1.3329E+4
   9.221     1.3950E+4
   9.394     1.4433E+4
   9.562     1.5465E+4
   9.781     1.5605E+4
   9.949     1.6774E+4
   9.989     1.7392E+4
  10.209     1.7259E+4
  10.289     1.8426E+4
  10.418     1.8909E+4
  10.630     2.0010E+4
  10.757     2.0835E+4
  11.015     2.1662E+4
  11.143     2.2213E+4
  11.312     2.3177E+4
  11.524     2.4346E+4
  11.694     2.5172E+4
  11.819     2.6204E+4
  12.032     2.7167E+4
  12.201     2.8199E+4
  12.371     2.9094E+4
  12.496     3.0056E+4
  12.709     3.1158E+4
  12.835     3.1983E+4
  13.006     3.2740E+4
  13.220     3.3567E+4
  13.345     3.4530E+4
  13.515     3.5356E+4
  13.769     3.6800E+4
  13.939     3.7695E+4
  14.111     3.8178E+4
  14.239     3.8798E+4
  14.408     3.9761E+4
  14.580     4.0450E+4
  14.707     4.1069E+4
  14.880     4.1552E+4
  15.051     4.2241E+4
  15.268     4.2588E+4
  15.397     4.3070E+4
  15.612     4.3622E+4
  15.917     4.4039E+4
  16.046     4.4452E+4
  16.265     4.4593E+4
  16.355     4.4252E+4
  16.529     4.4460E+4
  16.662     4.4256E+4
  16.792     4.4464E+4
  16.927     4.4055E+4
  17.103     4.3920E+4
  17.144     4.4401E+4
  17.282     4.3443E+4
  17.461     4.2897E+4
  17.596     4.2488E+4
  17.818     4.2079E+4
  18.180     4.0370E+4
  18.315     3.9892E+4
  18.541     3.8866E+4
  18.680     3.7771E+4
  18.772     3.7155E+4
  18.954     3.6197E+4
  19.138     3.4828E+4
  19.274     3.4213E+4
  19.458     3.2981E+4
  19.553     3.1884E+4
  19.691     3.0926E+4
  19.875     2.9557E+4
  20.014     2.8461E+4
  20.239     2.7710E+4
  20.424     2.6204E+4
  20.518     2.5245E+4
  20.703     2.3807E+4
  20.843     2.2574E+4
  21.025     2.1617E+4
  21.163     2.0658E+4
  21.346     1.9495E+4
  21.527     1.8674E+4
  21.621     1.7784E+4
  21.803     1.6758E+4
  21.984     1.6006E+4
  22.124     1.4705E+4
  22.305     1.3816E+4
  22.486     1.3064E+4
  22.624     1.2037E+4
  22.760     1.1353E+4
  22.941     1.0670E+4
  23.077     0.9917E+4
  23.213     0.9371E+4
  23.436     0.8825E+4
  23.572     0.8141E+4
  23.708     0.7458E+4
  23.887     0.6980E+4
  24.066     0.6434E+4
  24.201     0.5956E+4
  24.422     0.5617E+4
  24.601     0.5208E+4
  24.780     0.4730E+4
  24.914     0.4321E+4
  25.136     0.3981E+4
  25.270     0.3572E+4
  25.447     0.3437E+4
  25.625     0.3029E+4
  25.802     0.2757E+4
  25.979     0.2554E+4
  26.156     0.2351E+4
  26.246     0.2078E+4
  26.422     0.1944E+4
  26.643     0.1810E+4
ENDDATA            119
ENDSUBENT          142
SUBENT        41691005   20200901   20201113   20201112       4189
BIB                  5         14
REACTION   (98-CF-252(0,F)2-HE-6,TER,FY/DE,,RAW)
            Number of counts
DETECTOR   (TELES) Consisted of 17-mum semiconductor dE detector
           and 450-mum E detector.
           Registration threshold 11.5 MeV.
           Al foil of 32 mum thickness between Cf-252 and
           telescope to absorb fission fragments and 6.11-MeV
           alphas.
METHOD     (EDE,COINC)  Measurement time 208 hr.
           Counts: 6.2E+4 He-6
ERR-ANALYS  Quantization errors:
           scale X - 0.018 MeV, scale Y - 1.2 counts
STATUS     (CURVE) Fig.1 right top of
           Sov.Nucl.Phys.,v.36,p.783,1982
ENDBIB              14
COMMON               2          3
EN-ERR-DIG ERR-DIG
MEV        ARB-UNITS
 0.026       1.7
ENDCOMMON            3
DATA                 2        107
E          DATA
MEV        ARB-UNITS
    9.136      674.4
    9.275      728.3
    9.343      768.1
    9.514      861.9
    9.693      901.8
    9.866      979.2
    9.980      951.2
   10.274      953.7
   10.337     1024.0
   10.487     1003.0
   10.667     1033.5
   10.855     1005.5
   10.921     1057.1
   11.064     1085.2
   11.244     1111.1
   11.314     1136.9
   11.533     1151.1
   11.646     1127.7
   11.828     1144.2
   12.009     1160.7
   12.167     1085.9
   12.326     1261.6
   12.453     1144.6
   12.595     1179.8
   12.785     1130.7
   12.928     1163.6
   13.117     1126.2
   13.303     1109.9
   13.406     1163.8
   13.558     1128.8
   13.780     1114.9
   13.930     1093.9
   14.035     1129.1
   14.259     1110.5
   14.340     1054.3
   14.563     1033.3
   14.660     1129.4
   14.893     1040.6
   14.962     1071.0
   15.088      958.7
   15.307      970.5
   15.430      876.9
   15.680      935.6
   15.799      872.5
   15.953      816.3
   16.139      802.4
   16.253      779.0
   16.393      830.6
   16.514      751.1
   16.703      713.7
   16.931      657.6
   17.082      627.3
   17.268      613.3
   17.308      587.6
   17.495      569.0
   17.681      552.7
   17.760      510.6
   18.019      501.4
   18.058      480.3
   18.317      471.1
   18.467      450.1
   18.545      415.0
   18.667      330.8
   18.959      347.3
   19.035      326.3
   19.224      293.6
   19.330      324.1
   19.523      254.0
   19.554      293.8
   19.818      251.8
   20.008      202.7
   20.152      223.9
   20.232      181.8
   20.488      188.9
   20.600      172.6
   20.751      144.6
   20.938      123.6
   21.082      147.1
   21.231      128.4
   21.344      112.1
   21.600      119.3
   21.640       98.2
   21.861       96.0
   21.973       82.0
   22.192       96.2
   22.267       79.9
   22.525       75.3
   22.565       54.3
   22.822       56.8
   22.935       35.7
   23.117       52.2
   23.301       45.3
   23.486       43.1
   23.525       24.4
   23.706       45.5
   23.855       29.2
   24.001       38.7
   24.224       22.4
   24.442       36.6
   24.666       15.6
   24.847       32.1
   24.996       20.5
   25.253       23.0
   25.474       20.8
   25.731       20.9
   25.951       21.0
   26.172       18.8
ENDDATA            109
ENDSUBENT          132
SUBENT        41691006   20200901   20201113   20201112       4189
BIB                  5         14
REACTION   (98-CF-252(0,F)2-HE-8,TER,FY/DE,,RAW)
            Number of counts
DETECTOR   (TELES) Consisted of 17-mum semiconductor dE detector
           and 450-mum E detector.
           Registration threshold 11.5 MeV.
           Al foil of 32 mum thickness between Cf-252 and
           telescope to absorb fission fragments and 6.11-MeV
           alphas.
METHOD     (EDE,COINC)  Measurement time 208 hr.
           Counts: 2.3E+3 He-8.
ERR-ANALYS  Quantization errors:
           scale X - 0.013 MeV, scale Y - 0.089 counts
STATUS     (CURVE) Fig.1 right bottom of
           Sov.Nucl.Phys.,v.36,p.783,1982
ENDBIB              14
COMMON               2          3
EN-ERR-DIG ERR-DIG
MEV        ARB-UNITS
0.017        0.080
ENDCOMMON            3
DATA                 2         89
E          DATA
MEV        ARB-UNITS
     10.332     41.998
     10.433     44.495
     10.582     51.264
     10.692     45.932
     11.066     61.787
     11.227     57.703
     11.369     48.103
     11.424     68.211
     11.616     60.393
     11.827     58.447
     11.916     48.844
     12.104     44.050
     12.228     50.284
     12.449     39.086
     12.524     65.067
     12.690     56.891
     12.862     66.153
     12.935     48.008
     13.123     43.392
     13.236     59.234
     13.406     46.966
     13.571     39.502
     13.717     49.473
     13.855     42.186
     14.040     40.416
     14.110     24.763
     14.228     36.156
     14.316     50.395
     14.603     50.410
     14.670     37.247
     14.857     34.232
     14.973     46.337
     15.145     33.002
     15.404     34.973
     15.499     42.807
     15.641     33.206
     15.842     39.800
     15.936     26.105
     15.955     32.689
     16.062     30.382
     16.239     35.018
     16.384     22.215
     16.714     30.773
     16.842     10.318
     16.991     16.375
     17.066     19.760
     17.218     23.860
     17.423     26.718
     17.561     20.142
     17.769     21.577
     17.808     10.192
     17.962     12.513
     18.141     15.191
     18.280      7.904
     18.481     15.031
     18.568      7.029
     18.743     13.978
     18.775      9.175
     19.135     13.821
     19.174      2.969
     19.244      9.556
     19.456      6.721
     19.685     12.071
     19.795      7.628
     20.112      3.731
     20.136      6.045
     20.426      3.392
     20.581      5.001
     20.657      7.318
     20.896      3.595
     21.080      1.825
     21.282      8.063
     21.391      4.333
     21.758      3.285
     21.916      1.692
     22.150      2.772
     22.409      4.743
     22.490      1.544
     22.778      1.382
     22.880      3.167
     23.091      1.398
     23.379      0.880
     23.665      1.607
     24.004      1.625
     24.343      1.999
     24.631      1.836
     24.943      2.564
     25.257      2.225
     25.676      1.002
ENDDATA             91
ENDSUBENT          114
SUBENT        41691007   20200901   20201113   20201112       4189
BIB                  5          9
REACTION   (98-CF-252(0,F)1-H-3,TER,FY/DE,,RAW)
               Number of counts.
DETECTOR   (TELES) Consisted of two (18-mum and 21 mum)
           semiconductor dE detectors and 500-mum E detector.
METHOD     (EDE,COINC) Counts: 2.6E+4 tritium.
            Time resolution 5.E-8 sec.
ERR-ANALYS  Quantization errors:
           scale X - 0.022 MeV, scale Y - 0.68 counts
STATUS     (CURVE) Fig.3 of Sov.Nucl.Phys.,v.36,p.783,1982
ENDBIB               9
COMMON               2          3
EN-ERR-DIG ERR-DIG
EV         ARB-UNITS
0.019       0.92
ENDCOMMON            3
DATA                 2         64
E          DATA
MEV        ARB-UNITS
      1.760      12.12
      1.958      57.09
      2.099     138.78
      2.331     206.89
      2.487     250.48
      2.741     260.10
      2.906     279.21
      3.173     369.11
      3.245     292.95
      3.422     280.77
      3.609     352.94
      3.820     363.91
      4.075     373.53
      4.327     388.59
      4.406     409.03
      4.660     418.65
      4.817     458.16
      5.081     443.29
      5.201     467.83
      5.447     497.85
      5.610     523.76
      5.763     572.80
      5.971     591.92
      6.234     578.42
      6.442     597.54
      6.565     612.56
      6.771     638.48
      6.933     664.39
      7.178     697.14
      7.357     680.88
      7.538     655.10
      7.771     721.85
      7.884     652.51
      8.104     729.06
      8.227     661.10
      8.407     623.10
      8.598     657.21
      8.686     591.96
      8.882     609.74
      9.025     581.25
      9.121     597.63
      9.251     505.18
      9.434     563.78
      9.629     479.53
      9.793     493.22
      9.940     452.48
     10.149     429.46
     10.193     398.19
     10.365     387.40
     10.528     402.45
     10.719     330.44
     10.794     305.99
     11.025     319.72
     11.145     259.92
     11.288     231.42
     11.494     219.28
     11.699     208.51
     11.745     169.08
     11.917     156.92
     12.062     125.71
     12.304     104.07
     12.356      45.59
     12.595      34.83
     12.670      10.38
ENDDATA             66
ENDSUBENT           84
ENDENTRY             7
