ENTRY            21020     800228
SUBENT        21020001     800228
BIB                 13         14
INSTITUTE  (2GERKFK)
REFERENCE  (W,FROEHNER,7311) PRIVATE COMM.
AUTHOR     (F.FROEHNER)
TITLE      -NEUTRON CAPTURE CROSS SECTION OF GOLD-.
FACILITY   (VDG  ) VAN DER GRAAFF.
INC-SOURCE (PHOTO) WHITE SOURCE.
SAMPLE     .METALLIC GOLD.
METHOD     (TOF  ) TIME OF FLIGHT.
DETECTOR   (SCIN ) NO DETAILS.
STATUS     (NDD  ) CONVERTED FROM NEUDADA.
HISTORY    (790810T)
           (790831E)
CORRECTION . NO DETAILS.
ERR-ANALYS .NO DETAILS.
ENDBIB              14
NOCOMMON             0          0
ENDSUBENT           17
SUBENT        21020002     800228
BIB                  3          3
REACTION   (79-AU-197(N,G)79-AU-198,,SIG)
DECAY-DATA (79-AU-198-G,2.7D)
STATUS     (NDD  )
ENDBIB               3
NOCOMMON             0          0
DATA                 2         80
EN         DATA
MEV        B
 3.0000E-03 3.3400E+00
 5.0000E-03 2.1800E+00
 7.0000E-03 1.6200E+00
 9.0000E-03 1.3200E+00
 1.0300E-02 1.1400E+00
 1.1100E-02 1.3600E+00
 1.2100E-02 1.1800E+00
 1.3100E-02 1.0400E+00
 1.4300E-02 9.7300E-01
 1.5400E-02 9.1700E-01
 1.6300E-02 8.7000E-01
 1.7200E-02 8.8600E-01
 1.8300E-02 8.4900E-01
 1.9500E-02 7.4000E-01
 2.0300E-02 7.3200E-01
 2.0700E-02 7.3600E-01
 2.1200E-02 7.1900E-01
 2.1600E-02 6.9600E-01
 2.2100E-02 6.7400E-01
 2.2600E-02 6.5300E-01
 2.3100E-02 6.6100E-01
 2.3700E-02 6.7100E-01
 2.4200E-02 6.7300E-01
 2.4800E-02 6.6700E-01
 2.5400E-02 6.4300E-01
 2.6000E-02 6.3800E-01
 2.6600E-02 6.3600E-01
 2.7300E-02 6.4300E-01
 2.7900E-02 6.4800E-01
 2.8600E-02 6.3700E-01
 2.9400E-02 6.2700E-01
 3.0100E-02 5.9700E-01
 3.0900E-02 5.7600E-01
 3.1800E-02 5.5800E-01
 3.2600E-02 5.5700E-01
 3.3500E-02 5.5200E-01
 3.4400E-02 5.4600E-01
 3.5400E-02 5.3600E-01
 3.6400E-02 5.3800E-01
 3.7500E-02 5.4300E-01
 3.8600E-02 5.4400E-01
 3.9700E-02 5.3400E-01
 4.0900E-02 5.0700E-01
 4.2200E-02 4.8100E-01
 4.3500E-02 4.6400E-01
 4.4900E-02 4.6500E-01
 4.6300E-02 4.6500E-01
 4.7800E-02 4.5800E-01
 4.9400E-02 4.4700E-01
 5.1100E-02 4.3500E-01
 5.2900E-02 4.2400E-01
 5.4700E-02 4.1100E-01
 5.6700E-02 4.0200E-01
 5.8700E-02 3.9400E-01
 6.0900E-02 3.8700E-01
 6.3200E-02 3.8300E-01
 6.5600E-02 3.8000E-01
 6.8200E-02 3.7700E-01
 7.0900E-02 3.7200E-01
 7.3800E-02 3.6400E-01
 7.6900E-02 3.5500E-01
 8.0100E-02 3.4300E-01
 8.3600E-02 3.3500E-01
 8.7300E-02 3.2600E-01
 9.1300E-02 3.1900E-01
 9.5500E-02 3.1400E-01
 1.0000E-01 3.1000E-01
 1.0500E-01 3.1000E-01
 1.1000E-01 2.9600E-01
 1.1600E-01 2.8700E-01
 1.2200E-01 2.8200E-01
 1.2900E-01 2.7800E-01
 1.3600E-01 2.8100E-01
 1.4300E-01 2.7600E-01
 1.5200E-01 2.7000E-01
 1.6100E-01 2.6300E-01
 1.7000E-01 2.6100E-01
 1.9000E-01 2.5800E-01
 2.1000E-01 2.5000E-01
 2.3000E-01 2.4500E-01
ENDDATA             82
ENDSUBENT           90
ENDENTRY             2
