ENTRY            21072     810722
SUBENT        21072001     810722              20050926       0000
BIB                 15         28
INSTITUTE  (2SWTBAS)
REFERENCE  (J,HPA,28,227,5503)
AUTHOR     (J.SEITZ,P.HUBER)
TITLE      -CROSS SECTIONS OF THE O-16(N,ALPHA)C-13 REACTION
            FOR FAST NEUTRONS-. (IN GERMAN)
FACILITY   (CCW  ) COCKCROFT-WALTON ACCELERATOR.
INC-SOURCE (D-D  ) DEUTERIUM BEAM ON DEUTERIUM HEAVY ICE TARGET.
SAMPLE     .PURE OXYGEN IN IONISATION CHAMBER, 99.96 PERCENT,
            PRESSURE 2886+-5 TORR.
METHOD     (ASSOP) ALPHA DETECTION.
DETECTOR   (IOCH ) IONISATION CHAMBER, PARALLEL PLATES FILLED
            WITH OXYGEN, DIAMETER 4 CM, SEPERATION 1 CM, VOLTAGE
            OF 7.5 KV.
           (HORBU) HORNYAK DETECTOR AS NEUTRON MONITOR.
MONITOR    (1-H-1(N,EL)1-H-1,,SIG) TOTAL (N,P) SCATTERING CROSS
            SECTION TAKEN FROM AECU-2040.SUPPL.1,5211.
PART-DET   (A    ) ALPHAS.
STATUS     (NDD  ) CORRESPONDS TO GRAPH IN HPA,28,227.
HISTORY    (790824T)
           (790918E)
           (810504A) ERR-ANALYS CHANGED.
           (810722E)
CORRECTION .CORRECTED FOR SCATTERED NEUTRONS, EDGE EFFECTS, OTHER
            CORRECTIONS ARE NEGLIGIBLE.
ERR-ANALYS (ERR-S) MEAN STATISTICAL ERROR.
           (ERR-1) CALIBRATION ERROR.
           (ERR-2) ERROR FROM GAS PRESSURE, CHAMBER VOLUME
            AND EDGE EFFECTS .
ENDBIB              28
COMMON               4          3
EN-RSL     ERR-S      ERR-1      ERR-2
KEV        PER-CENT   PER-CENT   PER-CENT
 2.0000E+01 8.0000E+00 5.0000E+00 4.0000E+00
ENDCOMMON            3
ENDSUBENT           35
SUBENT        21072002     790918              20050926       0000
BIB                  2          2
REACTION   (8-O-16(N,A)6-C-13,,SIG)
STATUS     (NDD  )
ENDBIB               2
NOCOMMON             0          0
DATA                 2         26
EN         DATA
MEV        MB
 3.6500E+00 0.0000E+00
 3.6900E+00 4.0000E+00
 3.7600E+00 5.0000E+00
 3.8000E+00 6.0000E+00
 3.8300E+00 8.0000E+00
 3.8700E+00 1.2000E+01
 3.8900E+00 1.1000E+01
 3.8900E+00 1.5000E+01
 3.8900E+00 1.8000E+01
 3.9200E+00 1.8000E+01
 3.9300E+00 2.0000E+01
 3.9400E+00 1.6000E+01
 3.9600E+00 2.1000E+01
 3.9600E+00 3.4000E+01
 3.9900E+00 3.6000E+01
 4.0100E+00 5.8000E+01
 4.0300E+00 7.1000E+01
 4.0500E+00 8.0000E+01
 4.0700E+00 7.8000E+01
 4.0700E+00 8.8000E+01
 4.0800E+00 7.8000E+01
 4.1000E+00 8.4000E+01
 4.1200E+00 8.5000E+01
 4.1300E+00 8.5000E+01
 4.1700E+00 1.0800E+02
 4.2200E+00 1.3700E+02
ENDDATA             28
ENDSUBENT           35
ENDENTRY             2
