ENTRY            A0597   20120327   20120530   20120522       A077
SUBENT        A0597001   20120327   20120530   20120522       A077
BIB                 10         27
TITLE      Neutron spectra from the reactions 91-Zr(P,N)94-Nb and
           94-Zr(P,N)94-Nb and the nuclear level density.
AUTHOR     (A.M.Trufanov,G.N.Lovchikova,M.I.Svirin,O.A.Salnikov)
INSTITUTE  (4RUSFEI)
REFERENCE  (J,YF,51,318,1990)
           (J,SNP,51,202,1990) English translation
           Uncertainty.
SAMPLE     Zr-91 target thickness - 1.8 mg/cm**2.
           Enrichment - 87.5%
           Zr-94 target thickness - 0.9 mg/cm**2.
           Enrichment - 91.2%.
DETECTOR   (SCIN)
METHOD     (TOF)
           (BCINT)
           (PSD)
HISTORY    (20040129C)
           (20120327A) English translation of 'YF' was added
ADD-RES    (LD)
           (COMP)  Hauser-Feshbach Model.
ERR-ANALYS The uncertainties of double differential cross sections
           include-
           (ERR-1,3.,4.).Uncertainty of detector efficiency
           (ERR-2).Uncertainty of proton beam flux 3%.
           (ERR-3).Uncertainty of target thickness 1%.
           (ERR-S,1.,25.).Statistical uncertainty from 1% at
           neutron energy approx. 1.5% upto 25% at maximal neutron
           energy.
ENDBIB              27
COMMON               2          3
ERR-2      ERR-3
PER-CENT   PER-CENT
3.         1.
ENDCOMMON            3
ENDSUBENT           34
SUBENT        A0597002   20040130              20050926       0000
BIB                  4          5
REACTION   (40-ZR-91(P,X)0-NN-1,,DA/DE)
STATUS     (CURVE) By CAJAD
ERR-ANALYS (E-ERR-DIG) Data point reader uncertainty
           (ERR-DIG) Data point reader uncertainty
EN-SEC     (E,N)
ENDBIB               5
COMMON               3          3
EN         E-ERR-DIG  ERR-DIG
MEV        MEV        PER-CENT
         9.       0.03         4.
ENDCOMMON            3
DATA                 3        278
ANG        E          DATA
ADEG       MEV        MB/SR/MEV
        30.      0.934     18200.
        30.       1.04     19000.
        30.      1.184     18000.
        30.      1.302     14700.
        30.      1.402     13000.
        30.      1.505     12600.
        30.      1.655     13800.
        30.      1.772     11000.
        30.      1.871      9700.
        30.      2.015      9200.
        30.      2.116      8290.
        30.      2.257      7290.
        30.      2.381      6900.
        30.      2.484      6700.
        30.      2.644      5610.
        30.      2.704      5200.
        30.      2.843      4260.
        30.      2.962      3570.
        30.        3.1      2920.
        30.       3.22      2510.
        30.      3.342      2320.
        30.      3.445      2200.
        30.      3.546      2030.
        30.       3.73      1830.
        30.       3.83      1610.
        30.      3.948      1350.
        30.      4.067      1130.
        30.      4.192      1130.
        30.      4.318      1150.
        30.      4.441      1060.
        30.      4.562       960.
        30.      4.682       821.
        30.      4.825       758.
        30.      4.888       755.
        30.      5.073       696.
        30.      5.172       613.
        30.      5.311       502.
        30.      5.407       402.
        30.      5.531       389.
        30.      5.654       369.
        30.      5.775       325.
        30.      5.907       224.
        30.      6.049       202.
        30.      6.142       147.
        30.      6.256       109.
        30.      6.405       119.
        30.      6.531       122.
        30.      6.657       124.
        30.      6.747       146.
        30.      6.853       148.
        30.      6.993       127.
        30.      7.038       140.
        30.      7.269       83.2
        30.      7.427       64.8
        30.      7.587       54.3
        60.      0.952     18500.
        60.      1.056     18400.
        60.      1.204     19200.
        60.      1.296     14000.
        60.      1.418     12900.
        60.      1.523     12900.
        60.      1.629     13400.
        60.      1.769     11500.
        60.      1.869     10200.
        60.       2.01      9000.
        60.      2.172      7870.
        60.      2.274      7280.
        60.      2.378      7240.
        60.      2.501      6700.
        60.      2.621      5900.
        60.       2.74      4960.
        60.      2.839      4270.
        60.      2.974      3260.
        60.      3.093      2740.
        60.      3.236      2530.
        60.      3.335      2180.
        60.       3.48      2110.
        60.      3.584      2050.
        60.      3.724      1760.
        60.      3.824      1550.
        60.      3.942      1300.
        60.      4.106      1170.
        60.      4.207      1090.
        60.      4.311      1080.
        60.      4.454       970.
        60.      4.617       880.
        60.      4.717       793.
        60.      4.839       715.
        60.      4.919       663.
        60.      5.042       613.
        60.       5.14       515.
        60.       5.28       443.
        60.      5.445       419.
        60.      5.523       361.
        60.      5.686       325.
        60.      5.777       226.
        60.      5.933       172.
        60.      6.074       148.
        60.        6.2       150.
        60.       6.28       136.
        60.      6.468       138.
        60.      6.578       158.
        60.      6.641       158.
        60.      6.766       157.
        60.      6.866       142.
        60.       6.97       137.
        60.      7.087       110.
        60.      7.301       74.1
        60.       7.45       45.5
        60.      7.533       45.3
        60.       7.69       34.5
        90.      0.902     17600.
        90.      1.054     20600.
        90.      1.154     18200.
        90.      1.313     14900.
        90.      1.412     12800.
        90.      1.558     12700.
        90.      1.667     14300.
        90.      1.763     11400.
        90.      1.905     10300.
        90.      2.025      8900.
        90.      2.164      7450.
        90.      2.247      7240.
        90.      2.414      7180.
        90.      2.516      6810.
        90.      2.616      6010.
        90.      2.735      5040.
        90.      2.874      4230.
        90.       3.01      3220.
        90.      3.109      2770.
        90.      3.248      2330.
        90.      3.348      2050.
        90.      3.454      2140.
        90.      3.596      1930.
        90.      3.695      1660.
        90.      3.876      1390.
        90.      3.977      1260.
        90.      4.095      1030.
        90.      4.223      1100.
        90.      4.326      1070.
        90.      4.449      1010.
        90.      4.591       890.
        90.      4.727       680.
        90.       4.87       628.
        90.      4.939       742.
        90.      5.035       594.
        90.      5.179       562.
        90.       5.34       482.
        90.      5.436       386.
        90.      5.557       341.
        90.      5.673       266.
        90.      5.776       258.
        90.      5.923       155.
        90.      6.061       124.
        90.      6.172        86.
        90.      6.234       83.3
        90.      6.411       108.
        90.      6.518       115.
        90.      6.657       164.
        90.      6.754       135.
        90.      6.891       105.
        90.      6.986       143.
        90.      7.078       102.
        90.      7.276       77.3
        90.      7.434       35.4
        90.      7.545       41.7
        90.      7.664        35.
       120.      0.924     20900.
       120.      1.053     22900.
       120.      1.193     19700.
       120.      1.291     16500.
       120.       1.41     13800.
       120.      1.515     14100.
       120.       1.66     13700.
       120.       1.78     12000.
       120.      1.901     10600.
       120.      2.021      9100.
       120.      2.163      8180.
       120.      2.265      7750.
       120.      2.369      7520.
       120.      2.491      6950.
       120.      2.632      5960.
       120.       2.73      5120.
       120.       2.85      4400.
       120.      2.986      3340.
       120.      3.105      2870.
       120.      3.245      2400.
       120.      3.367      2220.
       120.      3.448      2050.
       120.      3.551      2000.
       120.      3.693      1750.
       120.      3.852      1430.
       120.      4.011      1140.
       120.      4.091      1060.
       120.      4.215      1000.
       120.        4.3      1040.
       120.      4.425      1040.
       120.      4.605       847.
       120.      4.723       693.
       120.      4.825       640.
       120.      4.929       637.
       120.      5.033       634.
       120.      5.131       532.
       120.      5.335       466.
       120.      5.435       410.
       120.      5.552       328.
       120.      5.691       274.
       120.      5.758       176.
       120.      5.877       151.
       120.      6.041       136.
       120.      6.148       85.2
       120.      6.244       68.1
       120.      6.416       76.3
       120.      6.551        99.
       120.      6.639       111.
       120.      6.729       132.
       120.      6.849       116.
       120.      6.961       140.
       120.      7.041       126.
       120.      7.251        75.
       120.      7.387        57.
       120.      7.581       38.2
       120.      7.669       25.1
       150.      0.939     19800.
       150.      1.067     21700.
       150.       1.17     20600.
       150.      1.286     16000.
       150.      1.427     14100.
       150.      1.531     14000.
       150.      1.636     14000.
       150.      1.798     12300.
       150.      1.875     10300.
       150.       2.04      9700.
       150.      2.138      8170.
       150.      2.261      7730.
       150.      2.385      7490.
       150.      2.507      6760.
       150.      2.628      6090.
       150.      2.727      5240.
       150.      2.846      4400.
       150.      2.985      3680.
       150.      3.127      3240.
       150.      3.264      2590.
       150.      3.344      2340.
       150.      3.468      2270.
       150.      3.591      2090.
       150.       3.69      1850.
       150.      3.832      1620.
       150.      3.951      1390.
       150.      4.069      1140.
       150.      4.193      1110.
       150.      4.335      1000.
       150.      4.443      1070.
       150.      4.564       960.
       150.      4.684       826.
       150.      4.761       694.
       150.      4.885       673.
       150.      5.011       685.
       150.      5.155       647.
       150.      5.294       529.
       150.       5.41       423.
       150.      5.572       363.
       150.      5.627       298.
       150.       5.74       216.
       150.      5.859       181.
       150.      6.013       128.
       150.      6.108       100.
       150.      6.228        88.
       150.      6.409       73.7
       150.      6.502        93.
       150.      6.633       107.
       150.      6.697       112.
       150.      6.782       114.
       150.      6.931       125.
       150.      7.056       124.
       150.      7.196       59.6
       150.      7.363       34.7
       150.      7.476       42.9
ENDDATA            280
ENDSUBENT          294
SUBENT        A0597003   20040130              20050926       0000
BIB                  4          5
REACTION   (40-ZR-94(P,X)0-NN-1,,DA/DE)
STATUS     (CURVE) By CAJAD
ERR-ANALYS (E-ERR-DIG) Data point reader uncertainty
           (ERR-DIG) Data point reader uncertainty
EN-SEC     (E,N)
ENDBIB               5
COMMON               3          3
EN         E-ERR-DIG  ERR-DIG
MEV        MEV        PER-CENT
         9.       0.03         4.
ENDCOMMON            3
DATA                 3        279
ANG        E          DATA
ADEG       MEV        MB/SR/MEV
        30.      1.001     25700.
        30.      1.084     23800.
        30.      1.212     22500.
        30.      1.315     20300.
        30.      1.398     18800.
        30.      1.545     17000.
        30.      1.631     16900.
        30.      1.757     15600.
        30.      1.862     14400.
        30.      1.968     13700.
        30.      2.093     12300.
        30.      2.197     11400.
        30.      2.326     11000.
        30.       2.43     10200.
        30.      2.553      8800.
        30.      2.659      8300.
        30.      2.785      7670.
        30.      2.887      6590.
        30.      2.972      6410.
        30.      3.096      5630.
        30.      3.202      5340.
        30.      3.304      4700.
        30.      3.429      4140.
        30.      3.511      3740.
        30.      3.636      3370.
        30.      3.781      2890.
        30.      3.864      2670.
        30.      3.965      2300.
        30.      4.069      2070.
        30.      4.172      1820.
        30.      4.297      1640.
        30.      4.423      1520.
        30.      4.524      1270.
        30.      4.628      1180.
        30.      4.753      1060.
        30.       4.88       980.
        30.      5.004       860.
        30.      5.109       817.
        30.      5.211       702.
        30.      5.318       682.
        30.      5.442       600.
        30.      5.527       583.
        30.      5.648       477.
        30.       5.75       410.
        30.       5.88       417.
        30.      5.984       376.
        30.      6.084       316.
        30.      6.168       299.
        30.      6.312       251.
        30.      6.448       295.
        30.      6.556       294.
        30.      6.687       307.
        30.      6.773       305.
        30.      6.865       352.
        30.      6.972       342.
        60.      0.977     28900.
        60.      1.102     26100.
        60.      1.229     24100.
        60.       1.31     21200.
        60.      1.434     18600.
        60.      1.561     17600.
        60.      1.667     16700.
        60.      1.772     15800.
        60.      1.877     14600.
        60.      1.983     13800.
        60.      2.043     12500.
        60.      2.169     11500.
        60.      2.296     10700.
        60.      2.398      9400.
        60.      2.548      9100.
        60.      2.653      8390.
        60.      2.798      7360.
        60.      2.901      6480.
        60.      2.963      6150.
        60.      3.087      5280.
        60.       3.19      4760.
        60.      3.315      4290.
        60.      3.419      3860.
        60.      3.523      3490.
        60.      3.624      2990.
        60.      3.772      2760.
        60.      3.853      2430.
        60.         4.      2190.
        60.      4.079      1840.
        60.      4.229      1780.
        60.       4.31      1570.
        60.      4.388      1280.
        60.      4.536      1180.
        60.      4.618      1070.
        60.      4.744       990.
        60.       4.85       930.
        60.      4.974       820.
        60.        5.1       757.
        60.      5.182       683.
        60.       5.33       630.
        60.      5.434       582.
        60.      5.558       500.
        60.      5.659       429.
        60.       5.74       378.
        60.      5.883       309.
        60.      6.013       314.
        60.      6.073       277.
        60.      6.202       275.
        60.      6.329       260.
        60.      6.448       202.
        60.      6.539       228.
        60.      6.645       216.
        60.      6.751       204.
        60.      6.885       229.
        60.       6.95       228.
        60.      7.096       205.
        90.       0.99     29900.
        90.      1.114     26300.
        90.        1.2     25500.
        90.      1.321     20800.
        90.      1.427     20100.
        90.      1.533     19100.
        90.      1.639     18000.
        90.      1.763     15800.
        90.      1.888     14200.
        90.      1.996     14100.
        90.      2.098     12400.
        90.       2.18     11200.
        90.      2.328     10300.
        90.      2.454      9500.
        90.      2.537      8800.
        90.      2.622      8310.
        90.      2.746      7290.
        90.      2.871      6560.
        90.      2.974      5900.
        90.      3.058      5460.
        90.      3.203      4780.
        90.      3.327      4190.
        90.      3.411      3870.
        90.      3.556      3400.
        90.      3.616      2990.
        90.      3.761      2560.
        90.      3.845      2420.
        90.      3.969      2120.
        90.      4.115      1860.
        90.      4.218      1670.
        90.      4.297      1400.
        90.        4.4      1230.
        90.      4.546      1080.
        90.      4.631      1050.
        90.      4.778       960.
        90.      4.906       910.
        90.      4.961       727.
        90.      5.064       638.
        90.      5.149       620.
        90.      5.296       556.
        90.      5.376       477.
        90.      5.502       440.
        90.      5.624       367.
        90.      5.769       314.
        90.      5.869       263.
        90.      6.001       274.
        90.      6.123       229.
        90.      6.186       222.
        90.      6.353       190.
        90.      6.433       163.
        90.      6.565       174.
        90.      6.624       153.
        90.      6.779       168.
        90.      6.848       185.
        90.      6.973       166.
        90.      7.036       157.
       120.      1.004     29400.
       120.      1.064     25900.
       120.      1.211     23300.
       120.      1.336     21000.
       120.      1.419     19400.
       120.      1.522     17500.
       120.      1.649     16200.
       120.      1.753     15000.
       120.      1.859     14200.
       120.      1.984     12800.
       120.      2.068     12100.
       120.      2.194     11200.
       120.      2.296      9600.
       120.      2.426      9800.
       120.      2.507      8600.
       120.      2.634      7940.
       120.      2.758      6980.
       120.      2.883      6290.
       120.      2.965      5670.
       120.      3.089      4990.
       120.      3.152      4730.
       120.      3.277      4260.
       120.      3.359      3850.
       120.      3.505      3380.
       120.      3.609      3120.
       120.       3.73      2550.
       120.      3.835      2360.
       120.      3.957      1970.
       120.      4.062      1820.
       120.      4.164      1560.
       120.      4.267      1410.
       120.      4.391      1240.
       120.      4.495      1120.
       120.      4.577      1010.
       120.      4.723       890.
       120.      4.828       839.
       120.      4.953       737.
       120.      5.056       665.
       120.      5.135       558.
       120.      5.263       527.
       120.      5.344       465.
       120.      5.472       450.
       120.      5.596       396.
       120.      5.743       356.
       120.      5.844       306.
       120.      5.966       256.
       120.      6.023       210.
       120.       6.13       203.
       120.       6.27       158.
       120.      6.354       150.
       120.      6.483       145.
       120.      6.609       134.
       120.      6.695       134.
       120.      6.807       147.
       120.      6.937       149.
       120.      7.017       128.
       150.      0.973     28000.
       150.      1.097     24500.
       150.      1.158     22100.
       150.      1.305     19900.
       150.       1.43     17900.
       150.      1.515     17400.
       150.      1.641     16000.
       150.      1.724     14800.
       150.       1.85     13600.
       150.      1.977     12600.
       150.      2.081     11600.
       150.      2.206     10400.
       150.      2.269      9900.
       150.      2.396      9300.
       150.        2.5      8400.
       150.      2.646      7360.
       150.      2.729      6800.
       150.      2.854      6120.
       150.      2.936      5510.
       150.      3.085      5200.
       150.      3.166      4580.
       150.      3.269      4120.
       150.       3.35      3620.
       150.      3.496      3180.
       150.      3.601      2930.
       150.      3.724      2510.
       150.      3.849      2260.
       150.      3.953      2030.
       150.      4.079      1870.
       150.      4.181      1600.
       150.      4.262      1410.
       150.      4.364      1240.
       150.      4.486      1040.
       150.      4.573      1030.
       150.      4.674       880.
       150.      4.821       793.
       150.      4.926       732.
       150.      5.072       657.
       150.      5.151       550.
       150.      5.236       521.
       150.      5.361       469.
       150.      5.462       402.
       150.      5.607       344.
       150.       5.73       294.
       150.      5.856       271.
       150.      5.934       221.
       150.      6.021       220.
       150.      6.104       204.
       150.      6.285       150.
       150.      6.387       128.
       150.      6.513       118.
       150.      6.579       121.
       150.      6.686       120.
       150.      6.773       119.
       150.      6.885       134.
       150.      7.009       118.
ENDDATA            281
ENDSUBENT          295
SUBENT        A0597004   20040130              20050926       0000
BIB                  4          6
REACTION   (40-ZR-91(P,X)0-NN-1,PAR,DA)    Figure 2
STATUS     (CURVE) By CAJAD
ERR-ANALYS (COS-ERR) Data point reader uncertainty
           (ERR-T) The uncertainty is shown on figure.
EN-SEC     (E-MIN,N)
           (E-MAX,N)
ENDBIB               6
COMMON               3          3
EN         COS-ERR    ERR-T
MEV        NO-DIM     MB/SR
         9.    9.E-032     .3E-03
ENDCOMMON            3
DATA                 4         10
E-MAX      E-MIN      COS-CM     DATA
MEV        MEV        NO-DIM     MB/SR
         6.         5.     -0.857      0.365
         6.         5.     -0.499      0.343
         6.         5.       0.01      0.341
         6.         5.      0.524      0.361
         6.         5.      0.873      0.406
         7.         6.     -0.848     0.1015
         7.         6.     -0.478     0.1012
         7.         6.      0.016     0.1131
         7.         6.      0.523     0.1413
         7.         6.      0.873     0.1376
ENDDATA             12
ENDSUBENT           27
SUBENT        A0597005   20040130              20050926       0000
BIB                  4          6
REACTION   (40-ZR-94(P,X)0-NN-1,PAR,DA)    Figure 2
STATUS     (CURVE) By CAJAD
ERR-ANALYS (COS-ERR) Data point reader uncertainty
           (ERR-T) The uncertainty is shown on figure.
EN-SEC     (E-MIN,N)
           (E-MAX,N)
ENDBIB               6
COMMON               3          3
EN         COS-ERR    ERR-T
MEV        NO-DIM     MB/SR
         9.     9.E-03     5.E-03
ENDCOMMON            3
DATA                 4         10
E-MAX      E-MIN      COS-CM     DATA
MEV        MEV        NO-DIM     MB/SR
         6.         5.     -0.871     0.4205
         6.         5.     -0.505      0.409
         6.         5.     -0.008     0.4416
         6.         5.      0.495     0.4807
         6.         5.      0.857     0.5059
         7.         6.     -0.863      0.155
         7.         6.     -0.504      0.146
         7.         6.     -0.018      0.187
         7.         6.      0.507      0.229
         7.         6.      0.862      0.265
ENDDATA             12
ENDSUBENT           27
SUBENT        A0597006   20040130              20050926       0000
BIB                  5          7
REACTION   (40-ZR-91(P,X)0-NN-1,,DE)
STATUS     (CURVE) By CAJAD.
           (DEP,A0597002)
ANALYSIS   (INTAD)
EN-SEC     (E-EXC,41-NB-91)
ERR-ANALYS (E-EXC-ERR) Data point reader uncertainty
           (ERR-DIG) Data point reader uncertainty
ENDBIB               7
COMMON               2          3
E-EXC-ERR  ERR-DIG
MEV        PER-CENT
    2.4E-02        2.8
ENDCOMMON            3
DATA                 3        184
EN         E-EXC      DATA
MEV        MEV        MU-B/MEV
         6.      0.017     18500.
         6.      0.066     17500.
         6.      0.189     11900.
         6.       0.21      7730.
         6.      0.247      5010.
         6.      0.316      3000.
         6.      0.426      2250.
         6.      0.491      2050.
         6.      0.559      2120.
         6.      0.682      2450.
         6.      0.724      3190.
         6.      0.779      3700.
         6.      0.864      6740.
         6.      0.926      9810.
         6.      1.003     13200.
         6.      1.096     17500.
         6.      1.195     27900.
         6.       1.26     26300.
         6.      1.339     21700.
         6.      1.403     19400.
         6.      1.466     29200.
         6.      1.565     47500.
         6.      1.619     52100.
         6.      1.714     42200.
         6.      1.764     42100.
         6.      1.854     49800.
         6.      1.923     51500.
         6.      1.953     46000.
         6.      2.067     40100.
         6.      2.134     40000.
         6.      2.232     35000.
         6.      2.277     51900.
         6.      2.356     75400.
         6.      2.424     76600.
         6.      2.468     61000.
         6.      2.554     63200.
         6.      2.627     76000.
         6.      2.707     66400.
         6.      2.752     53900.
         6.       2.82     54800.
         6.      2.937     52600.
         6.      2.976     62200.
         6.      3.052     82300.
         6.       3.12     83600.
         6.      3.194    104600.
         7.      0.051     11200.
         7.      0.211      8410.
         7.      0.313      5030.
         7.      0.418      3250.
         7.      0.542      2220.
         7.      0.606      1940.
         7.      0.677      2210.
         7.      0.735      2770.
         7.      0.814      4110.
         7.      0.911      6210.
         7.      1.058      9200.
         7.      1.139     14500.
         7.      1.246     17700.
         7.      1.351     19400.
         7.      1.526     24300.
         7.      1.622     35400.
         7.      1.693     39500.
         7.      1.792     36500.
         7.       1.91     36400.
         7.      1.995     37700.
         7.      2.235     42000.
         7.      2.346     58800.
         7.      2.467     63300.
         7.       2.55     60800.
         7.      2.715     54000.
         7.      2.831     49900.
         7.      2.901     53700.
         7.      2.992     67200.
         7.        3.1     84100.
         7.      3.189     97600.
         7.      3.243    107000.
         7.      3.342    101000.
         7.      3.474     91500.
         7.      3.561     98500.
         7.      3.631    108000.
         7.      3.718    116000.
         7.      3.837    118000.
         7.      3.896    157000.
         7.      3.934    182000.
         7.      4.049    165000.
         7.      4.138    191000.
         8.       0.01     51500.
         8.      0.129     54400.
         8.      0.208     44700.
         8.      0.315     30200.
         8.      0.458     22500.
         8.      0.567     16100.
         8.      0.667     15500.
         8.      0.774     18700.
         8.      0.945     36500.
         8.      1.095     58800.
         8.      1.205     81400.
         8.       1.31     89300.
         8.       1.38     98000.
         8.      1.472    128000.
         8.      1.633    173000.
         8.      1.755    194000.
         8.      1.823    197000.
         8.      1.958    196000.
         8.      2.026    199000.
         8.      2.179    210000.
         8.      2.302    244000.
         8.      2.411    318000.
         8.      2.482    350000.
         8.      2.583    348000.
         8.      2.733    327000.
         8.      2.831    296000.
         8.      2.936    331000.
         8.      3.028    432000.
         8.      3.154    552000.
         8.      3.207    607000.
         8.      3.361    639000.
         8.      3.462    637000.
         8.      3.548    660000.
         8.      3.668    710000.
         8.      3.755    779000.
         8.      3.897    977000.
         8.      4.003   1160000.
         8.      4.108   1290000.
         8.      4.213   1450000.
         8.      4.317   1590000.
         8.      4.421   1740000.
         8.      4.507   1880000.
         8.      4.609   1870000.
         8.      4.759   1790000.
         8.      4.848   2080000.
         8.      4.919   2330000.
         8.      5.075   2650000.
         9.      0.033      2120.
         9.      0.151      2110.
         9.      0.214      1840.
         9.      0.397      1660.
         9.      0.495      1500.
         9.      0.618      1740.
         9.      0.744      2270.
         9.      0.868      2740.
         9.      1.013      3860.
         9.      1.138      4840.
         9.      1.294      5610.
         9.      1.384      6660.
         9.       1.49      7890.
         9.       1.63      9160.
         9.      1.767      9840.
         9.      1.872     11200.
         9.      1.971     10150.
         9.      2.077     12000.
         9.      2.216     13700.
         9.      2.339     15900.
         9.       2.46     17400.
         9.      2.595     17700.
         9.      2.714     18300.
         9.      2.853     20400.
         9.       2.96     25200.
         9.      3.082     28100.
         9.      3.219     29700.
         9.      3.357     33100.
         9.      3.476     33600.
         9.      3.598     38300.
         9.      3.687     44600.
         9.      3.826     50800.
         9.      3.952     66200.
         9.      4.076     79900.
         9.      4.163     89400.
         9.      4.302     99900.
         9.      4.455    105200.
         9.      4.559    115000.
         9.      4.695    117000.
         9.      4.836    144000.
         9.      4.906    158000.
         9.       5.03    191000.
         9.      5.113    180000.
         9.      5.203    217000.
         9.      5.304    216000.
         9.      5.405    216000.
         9.      5.561    241000.
         9.      5.702    296000.
         9.      5.805    312000.
         9.      5.904    288000.
         9.      6.059    315000.
ENDDATA            186
ENDSUBENT          202
SUBENT        A0597007   20040130              20050926       0000
BIB                  5          7
REACTION   (40-ZR-94(P,X)0-NN-1,,DE)
STATUS     (CURVE) By CAJAD.
           (DEP,A0597003)
EN-SEC     (E-EXC,41-NB-94)
ERR-ANALYS (E-EXC-ERR) Data point reader uncertainty
           (ERR-DIG) Data point reader uncertainty
ANALYSIS   (INTAD)
ENDBIB               7
COMMON               2          3
E-EXC-ERR  ERR-DIG
MEV        PER-CENT
    2.4E-02        2.8
ENDCOMMON            3
DATA                 3        210
EN         E-EXC      DATA
MEV        MEV        MU-B/MEV
         6.       0.02      2000.
         6.      0.088      3390.
         6.      0.147      4140.
         6.      0.169      4770.
         6.      0.242      5060.
         6.      0.315      5590.
         6.      0.386      5460.
         6.      0.491      5110.
         6.      0.507      4810.
         6.      0.592      4240.
         6.      0.691      5970.
         6.      0.764      6590.
         6.      0.822      7730.
         6.      0.865      9850.
         6.      0.978     12300.
         6.      1.054     14700.
         6.      1.128     16200.
         6.      1.166     17900.
         6.      1.224     21000.
         6.      1.329     20100.
         6.      1.365     20100.
         6.      1.508     20800.
         6.      1.561     20300.
         6.        1.6     22900.
         6.      1.658     27500.
         6.       1.75     30300.
         6.      1.807     34800.
         6.      1.916     37600.
         6.      2.041     38200.
         6.      2.079     41400.
         6.      2.116     44800.
         6.      2.192     52600.
         6.      2.296     47300.
         6.      2.317     53400.
         6.      2.406     54300.
         6.      2.461     57600.
         6.      2.549     56200.
         6.      2.605     60900.
         6.      2.661     65900.
         6.      2.769     71100.
         6.      2.824     75400.
         6.      2.915     79900.
         6.      2.953     88300.
         6.      3.026     91700.
         6.      3.101    105400.
         6.      3.154    105200.
         6.      3.227    114000.
         6.      3.283    123000.
         6.      3.358    144000.
         7.      0.066      2190.
         7.      0.111      3110.
         7.      0.201      3230.
         7.       0.24      3650.
         7.      0.294      3790.
         7.      0.437      3930.
         7.      0.503      3190.
         7.      0.573      3110.
         7.       0.65      3890.
         7.      0.708      4580.
         7.      0.819      5390.
         7.      0.897      6880.
         7.      0.972      7770.
         7.      1.065      8940.
         7.      1.123     10500.
         7.      1.198     12100.
         7.      1.288     12900.
         7.      1.482     12000.
         7.       1.54     14100.
         7.      1.582     18100.
         7.      1.691     19500.
         7.      1.801     22000.
         7.      1.925     21900.
         7.      1.984     26300.
         7.      2.109     27300.
         7.      2.167     32800.
         7.      2.238     32700.
         7.      2.383     36100.
         7.      2.457     39100.
         7.      2.584     43100.
         7.      2.656     44800.
         7.      2.747     48500.
         7.      2.803     53600.
         7.      2.842     60600.
         7.      2.933     65600.
         7.      3.026     75500.
         7.      3.117     80100.
         7.       3.19     86700.
         7.      3.299     95700.
         7.      3.372    102000.
         7.      3.444    103000.
         7.      3.517    112000.
         7.       3.59    121000.
         7.      3.644    121000.
         7.      3.754    136000.
         7.      3.826    142000.
         7.      3.899    153000.
         7.      3.972    163000.
         7.      4.026    169000.
         7.      4.099    180000.
         7.      4.227    202000.
         7.      4.285    238000.
         8.      0.047      1710.
         8.      0.128      2420.
         8.      0.187      2970.
         8.      0.313      3150.
         8.      0.453      2950.
         8.      0.542      2880.
         8.      0.597      3060.
         8.      0.652      3250.
         8.      0.815      3730.
         8.      0.909      4390.
         8.      0.964      4660.
         8.      1.058      5720.
         8.      1.186      6450.
         8.      1.261      7430.
         8.      1.369      7720.
         8.       1.46      8540.
         8.      1.552      9440.
         8.      1.609     10700.
         8.      1.737     12000.
         8.      1.865     14100.
         8.      1.991     15000.
         8.      2.048     16600.
         8.      2.121     18000.
         8.      2.213     20300.
         8.      2.303     21100.
         8.      2.412     22800.
         8.      2.504     25800.
         8.      2.596     29100.
         8.      2.706     32100.
         8.      2.797     35500.
         8.      2.871     39300.
         8.      2.964     44400.
         8.      3.072     47000.
         8.      3.163     52000.
         8.      3.238     58700.
         8.      3.365     64900.
         8.      3.439     71800.
         8.      3.548     79300.
         8.      3.675     85800.
         8.      3.803     96800.
         8.      3.913    109000.
         8.      4.094    125000.
         8.      4.166    130000.
         8.       4.24    141000.
         8.      4.331    153000.
         8.      4.439    162000.
         8.      4.547    172000.
         8.      4.674    190000.
         8.      4.747    202000.
         8.      4.837    210000.
         8.      4.929    232000.
         8.      5.036    241000.
         8.       5.11    261000.
         8.      5.203    307000.
         9.      0.004      1930.
         9.      0.106      1630.
         9.      0.187      2360.
         9.      0.312      2440.
         9.      0.379      2110.
         9.      0.521      2090.
         9.      0.611      2170.
         9.      0.734      2070.
         9.      0.844      2280.
         9.      1.008      2620.
         9.      1.081      2830.
         9.      1.157      3330.
         9.       1.32      3820.
         9.      1.412      4220.
         9.      1.577      5040.
         9.      1.688      5790.
         9.      1.814      6250.
         9.      1.908      7340.
         9.      1.998      7620.
         9.      2.071      8240.
         9.      2.181      9470.
         9.      2.326     10400.
         9.      2.436     11500.
         9.      2.545     12700.
         9.      2.707     13700.
         9.      2.837     16400.
         9.      2.913     19600.
         9.      3.022     21200.
         9.      3.097     24900.
         9.      3.154     27600.
         9.      3.298     30400.
         9.      3.444     34100.
         9.      3.555     39200.
         9.      3.701     45900.
         9.      3.881     49500.
         9.      4.009     55700.
         9.      4.119     62700.
         9.       4.21     69200.
         9.      4.337     74700.
         9.      4.484     89300.
         9.      4.574     92700.
         9.      4.666    102000.
         9.      4.792    108000.
         9.      4.903    127000.
         9.      5.028    131000.
         9.      5.138    148000.
         9.       5.23    163000.
         9.      5.374    173000.
         9.      5.483    187000.
         9.       5.59    193000.
         9.      5.735    213000.
         9.      5.825    221000.
         9.      5.898    234000.
         9.      6.026    264000.
         9.      6.169    279000.
ENDDATA            212
ENDSUBENT          228
SUBENT        A0597008   20040130              20050926       0000
BIB                  6         10
REACTION   (40-ZR-91(P,X)0-NN-1,,SIG)
ERR-ANALYS (ERR-T) Any analysis is not presented
MISC-COL   (MISC) Production cross section of neutrons with energy
           >1 MeV.
           (MISC-ERR) The uncertainty of MISC.
STATUS     (DEP,A0597006)
ANALYSIS   (INTED)
COMMENT    - By authors. Cross section for production of neutrons
           with energy < 1 MeV was determined by extrapolation
           experimental spectra to zero energy.
ENDBIB              10
NOCOMMON
DATA                 5          3
EN         DATA       ERR-T      MISC       MISC-ERR
MEV        MB         MB         MB         MB
         7.       263.        26.       164.         9.
         8.       413.        42.       256.        13.
         9.       598.        60.       387.        20.
ENDDATA              5
ENDSUBENT           20
SUBENT        A0597009   20040130              20050926       0000
BIB                  6         10
REACTION   (40-ZR-94(P,X)0-NN-1,,SIG)
ERR-ANALYS (ERR-T) Any analysis is not presented
MISC-COL   (MISC) Production cross section of neutrons with energy
           >1 MeV.
           (MISC-ERR) The uncertainty of MISC.
STATUS     (DEP,A0597007)
ANALYSIS   (INTED)
COMMENT    - By authors. Cross section for production of neutrons
           with energy < 1 MeV was determined by extrapolation
           experimental spectra to zero energy.
ENDBIB              10
NOCOMMON
DATA                 5          4
EN         DATA       ERR-T      MISC       MISC-ERR
MEV        MB         MB         MB         MB
         6.       194.        16.       120.         6.
         7.       372.        30.       219.        11.
         8.       530.        42.       338.        17.
         9.       629.        50.       418.        21.
ENDDATA              6
ENDSUBENT           21
ENDENTRY             9
