ENTRY            10734     840306
SUBENT        10734001     840306
BIB                 14         61
INSTITUTE  (1USAANL)
REFERENCE  (J,NSE,68,360,7812)
           (R,ANL-NDM-83,8310) REVISIONS.
AUTHOR     (J.W.MEADOWS)
TITLE      THE FISSION CROSS SECTION OF PLUTONIUM-239 AND
           PLUTONIUM-242 RELATIVE TO URANIUM-235 FROM 0.1 TO 10
           MEV.
FACILITY   (DYNAM) FAST NEUTRON GENERATOR
INC-SOURCE (P-LI7) PROTONS ON LITHIUM METAL TARGETS EVAPORATED
            ONTO TA CUPS FOR NEUTRON ENERGIES TO 5 MEV.
           (D-D) DEUTERIUM GAS TARGET 2 CM LONG AT 2 ATM PRESSURE
            FOR NEUTRON ENERGIES ABOVE 5 MEV.
INC-SPECT  ENERGY RESOLUTION REFERS TO ONE-HALF FULL ENERGY
            SPREAD.  PROBABLE ERROR IN MEDIAN ENERGY ABOUT 20
            PERCENT OF DELTA EN.
METHOD     PULSED BEAM AND FAST TIMING USED TO REDUCE AND
            MEASURE TIME INDEPENDENT BACKGROUND.
SAMPLE     SAMPLES DEPOSITED ON 0.25 MM THICK STAINLESS STEEL
            OR 0.12 MM THICK MO PLATES BY ELECTRODEPOSITION OR
            VACUUM EVAPORATION.  MASS RATIOS MEASURED BY
            RELATIVE THERMAL FISSION RATES OF U235 SAMPLE AND
            HIGH PURITY PU239 SAMPLE. ALSO MEASURED BY
            ABSOLUTE ALPHA COUNTING OF PU239 AND U235
            CONTAINING ABOUT 1 PERCENT U-234.
           ISOTOPIC COMPOSITION (IN MOLE PERCENT) -
            239-PU (99.952), 240-PU (0.048).
DETECTOR   (IOCH) SAMPLES BACK-TO-BACK IN LOW MASS DOUBLE
           IONIZATION CHAMBER USING METHANE AS COUNTER GAS PLACED
           5 CM FROM NEUTRON SOURCE.
CORRECTION CORRECTED FOR SECOND LI7(P,N) GROUP,LI7 AND D
            BREAK-UP NEUTRONS, SCATTERING IN DETECTOR AND
            NEUTRON SOURCE ASSEMBLY, PULSE-HEIGHT DISTRIBUTION
            BELOW BIAS LEVEL.  SAMPLE GEOMETRY DIFFERENCES
            ELIMINATED BY MEASUREMENTS IN BOTH DETECTOR
            ORIENTATIONS. MOMENTUM EFFECTS REDUCED BY SAME
            PROCEDURE.  CORRECTIONS MADE FOR REMAINING
            MOMENTUM EFFECTS, DEPOSIT THICKNESS AND FRAGMENT
            ANGULAR DISTRIBUTIONS.  BACKGROUND FROM (D,N)
            REACTIONS WITH GAS TARGET ASSEMBLY MEASURED WITH
            EMPTY GAS CELL.
ERR-ANALYS1(ERR-S) STATISTICAL UNCERTAINTY.
           (ERR-T) TOTAL UNCERTAINTY INCLUDES STATISTICAL ERRORS
            PLUS ERRORS (IN PERCENT) DUE TO -
             234-U HALF LIFE                           (0.12)
             239-PU HALF LIFE                          (0.05)
             239-PU/235-U THERMAL RATIO                (0.25)
             ISOTOPE ANALYSIS                          (0.19)
             ALPHA-COUNTING SYSTEM                     (0.15)
             THICKNESS CORRECTION                      (0.19)
             EXTRAPOLATION                             (0.20)
             DEAD-TIME CORRECTION                      (0.25)
             SCATTERING CORRECTION                     (0.30)
             SECONDARY SOURCE REACTIONS (20 PERCENT OF CORRECTION)
             ERROR IN NEUTRON ENERGY (ABOUT 20 PERCENT OF
              RESOLUTION)
STATUS      DATA TAKEN FROM ANL-NDM-83.
           (APRVD) J.W.MEADOWS, 84/3/2.
HISTORY    (780404C)
           (781107U) BIB CORRECTIONS
           (790110A) REFERENCE UPDATE. BIB CORRECTION.
           (831230A) REVISED AS PER ANL-NDM-83.
ENDBIB              61
NOCOMMON             0          0
ENDSUBENT           64
SUBENT        10734002     840306
BIB                  3          5
REACTION  1((94-PU-239(N,F),,SIG)/(92-U-235(N,F),,SIG))
          2(94-PU-239(N,F),,SIG)
MONITOR    RATIOS NORMALIZED BETWEEN 2.2 AND 3.0 MEV.
          2(92-U-235(N,F),,SIG)
HISTORY    (790110A) BIB CORRECTION AND ADDITION.
ENDBIB               5
NOCOMMON             0          0
DATA                 6         73
EN         EN-RSL-FW  DATA      1ERR-S     1ERR-T     1DATA      2
MEV        MEV        NO-DIM     PER-CENT   PER-CENT   B
 0.146      0.020      0.968      0.90       1.28       1.417
 0.172      0.019      1.107      1.28       1.57       1.572
 0.197      0.019      1.094      0.90       1.29       1.511
 0.220      0.018      1.131      1.34       1.62       1.519
 0.247      0.017      1.157      0.88       1.25       1.510
 0.268      0.017      1.215      1.28       1.56       1.559
 0.268      0.058      1.191      0.99       1.62       1.529
 0.294      0.022      1.266      1.34       1.62       1.602
 0.311      0.016      1.260      1.38       1.63       1.583
 0.323      0.066      1.264      0.99       1.65       1.580
 0.336      0.016      1.256      1.42       1.66       1.561
 0.348      0.016      1.308      1.46       1.69       1.617
 0.384      0.062      1.286      0.98       1.46       1.565
 0.391      0.062      1.340      1.49       1.83       1.625
 0.452      0.060      1.346      0.94       1.36       1.592
 0.500      0.046      1.372      0.91       1.28       1.601
 0.550      0.045      1.393      0.94       1.27       1.609
 0.598      0.055      1.428      0.80       1.22       1.635
 0.650      0.054      1.418      1.04       1.40       1.616
 0.687      0.053      1.422      1.71       1.95       1.618
 0.746      0.052      1.480      1.05       1.37       1.683
 0.795      0.050      1.546      1.81       2.00       1.760
 0.846      0.049      1.511      1.06       1.39       1.732
 0.877      0.080      1.499      1.86       2.11       1.736
 0.943      0.047      1.431      1.51       1.74       1.712
 0.980      0.047      1.432      1.49       1.70       1.743
 0.993      0.046      1.472      0.94       1.25       1.794
 1.045      0.045      1.416      1.77       1.95       1.721
 1.099      0.044      1.443      0.93       1.26       1.753
 1.140      0.074      1.480      0.95       1.32       1.799
 1.196      0.043      1.467      0.93       1.25       1.789
 1.234      0.072      1.497      0.95       1.34       1.829
 1.332      0.070      1.559      0.95       1.31       1.921
 1.429      0.067      1.603      1.41       1.64       1.992
 1.526      0.065      1.581      1.41       1.64       1.984
 1.622      0.063      1.544      1.45       1.36       1.957
 1.720      0.061      1.503      1.43       1.65       1.924
 1.818      0.059      1.555      1.47       1.68       2.005
 1.893      0.120      1.550      1.19       1.44       2.005
 1.924      0.056      1.551      1.46       1.67       2.009
 2.021      0.054      1.609      1.74       1.92       2.089
 2.232      0.111      1.554      0.68       1.07       2.005
 2.476      0.106      1.518      0.67       1.06       1.929
 2.792      0.101      1.532      0.74       1.10       1.901
 2.975      0.096      1.543      0.57       1.00       1.885
 3.226      0.092      1.544      0.86       1.19       1.851
 3.470      0.087      1.580      0.75       1.11       1.861
 3.719      0.083      1.581      0.72       1.10       1.826
 3.968      0.080      1.568      0.74       1.11       1.779
 4.221      0.076      1.579      1.03       1.33       1.776
 4.472      0.074      1.573      1.11       1.39       1.752
 4.724      0.074      1.607      1.06       1.36       1.752
 4.972      0.070      1.607      1.23       1.51       1.715
 5.017      0.264      1.625      0.92       1.24       1.728
 5.309      0.235      1.640      0.88       1.21       1.718
 5.594      0.211      1.663      0.99       1.29       1.744
 5.867      1.196      1.663      0.96       1.35       1.791
 6.137      0.180      1.609      0.99       1.52       1.894
 6.401      0.172      1.514      1.01       1.50       1.978
 6.660      0.163      1.430      1.04       1.42       2.056
 6.921      0.154      1.388      1.07       1.41       2.120
 7.176      0.146      1.372      1.01       1.33       2.224
 7.432      0.142      1.319      0.99       1.29       2.243
 7.686      0.138      1.312      0.94       1.25       2.299
 7.936      0.133      1.301      0.97       1.27       2.313
 8.182      0.132      1.363      1.00       1.29       2.431
 8.428      0.131      1.316      0.99       1.29       2.347
 8.673      0.131      1.315      0.99       1.29       2.340
 8.918      0.131      1.325      1.02       1.32       2.351
 9.161      0.132      1.307      1.03       1.35       2.313
 9.407      0.133      1.344      0.99       1.33       2.370
 9.648      0.137      1.317      0.97       1.36       2.316
 9.903      0.142      1.308      0.99       1.55       2.288
ENDDATA             75
ENDSUBENT           85
ENDENTRY             2
