ENTRY            F0096   20030513   20030930
SUBENT        F0096001   20030513   20030930
BIB                  8          8
TITLE      Angular distributions of the 9Be(d,n)10B neutrons
AUTHOR     (G.C.MORRISON,A.T.G.FERGUSON,J.E.EVANS)
INSTITUTE  (2UK HAR,1USAMTR)
REFERENCE  (C,61MANCH,,575,1961)
METHOD     (TOF)
FACILITY   (VDG,2UK HAR)
DETECTOR   Time-of-flight neutron spectrometer
HISTORY    (19830822C)
ENDBIB               8
NOCOMMON
ENDSUBENT           11
SUBENT        F0096002   20030513   20030930
BIB                  4          5
REACTION   (4-BE-9(D,N)5-B-10,PAR,DA,,REL,EXP)
ERR-ANALYS (ANG-ERR) Digitizing error
           (DATA-ERR) Digitizing error
STATUS     (CURVE) fig. 1
EN-SEC     (E-LVL,5-B-10)
ENDBIB               5
COMMON               2          3
ANG-ERR    DATA-ERR
ADEG       ARB-UNITS
 1.          5.0
ENDCOMMON            3
DATA                 4        170
EN         E-LVL      ANG-CM     DATA-CM
MEV        MEV        ADEG       ARB-UNITS
  2.000      0.000      12.51      201.6
  2.000      0.000      17.46      186.0
  2.000      0.000      21.57      212.7
  2.000      0.000      27.47      209.2
  2.000      0.000      37.66      231.1
  2.000      0.000      63.91      164.7
  2.000      0.000      74.56      139.6
  2.000      0.000      94.83      132.3
  2.000      0.000      104.7      153.5
  2.000      0.000      114.7      178.7
  2.000      0.000      119.7      186.6
  2.000      0.000      124.5      198.5
  2.000      0.000      134.3      205.0
  2.000      0.000      152.5      185.7
  2.000      0.000      162.1      179.4
  2.000     0.7200      12.68      194.9
  2.000     0.7200      17.35      222.2
  2.000     0.7200      21.63      237.5
  2.000     0.7200      27.94      255.5
  2.000     0.7200      33.54      288.8
  2.000     0.7200      38.48      269.3
  2.000     0.7200      43.50      289.2
  2.000     0.7200      48.73      228.1
  2.000     0.7200      53.84      203.8
  2.000     0.7200      59.07      234.5
  2.000     0.7200      64.19      210.2
  2.000     0.7200      74.99      172.4
  2.000     0.7200      84.61      186.2
  2.000     0.7200      95.44      156.4
  2.000     0.7200      105.4      178.3
  2.000     0.7200      115.3      196.8
  2.000     0.7200      120.4      193.3
  2.000     0.7200      124.5      206.6
  2.000     0.7200      133.8      222.4
  2.000     0.7200      152.8      234.6
  2.000     0.7200      162.2      214.3
  2.000      1.740      13.22      11.91
  2.000      1.740      17.67      22.51
  2.000      1.740      22.30      29.75
  2.000      1.740      26.92      30.97
  2.000      1.740      32.46      36.18
  2.000      1.740      38.19      40.04
  2.000      1.740      43.51      27.16
  2.000      1.740      48.29      15.64
  2.000      1.740      54.00      15.48
  2.000      1.740      59.35      14.00
  2.000      1.740      64.51      11.84
  2.000      1.740      74.47      8.891
  2.000      1.740      84.82      15.98
  2.000      1.740      94.96      14.36
  2.000      1.740      105.3      20.11
  2.000      1.740      115.3      19.84
  2.000      1.740      119.9      24.40
  2.000      1.740      124.5      22.94
  2.000      1.740      133.7      29.39
  2.000      1.740      152.4      26.87
  2.000      1.740      161.8      29.29
  2.000      2.150      13.20      88.31
  2.000      2.150      17.83      98.24
  2.000      2.150      22.65      106.8
  2.000      2.150      28.16      97.29
  2.000      2.150      33.95      132.0
  2.000      2.150      37.99      123.8
  2.000      2.150      44.27      123.7
  2.000      2.150      49.61      118.1
  2.000      2.150      54.39      110.6
  2.000      2.150      60.09      102.4
  2.000      2.150      65.43      99.62
  2.000      2.150      75.76      98.67
  2.000      2.150      86.27      94.36
  2.000      2.150      96.20      78.00
  2.000      2.150      105.8      91.81
  2.000      2.150      115.8      95.56
  2.000      2.150      120.6      95.43
  2.000      2.150      125.4      102.0
  2.000      2.150      134.3      116.5
  2.000      2.150      153.5      126.0
  2.000      2.150      162.4      139.9
  4.000      0.000      12.20      202.4
  4.000      0.000      17.13      258.3
  4.000      0.000      22.79      311.4
  4.000      0.000      28.35      321.9
  4.000      0.000      30.90      306.5
  4.000      0.000      33.99      285.1
  4.000      0.000      39.06      245.6
  4.000      0.000      49.48      129.3
  4.000      0.000      54.39      97.12
  4.000      0.000      65.78      78.77
  4.000      0.000      75.37      77.80
  4.000      0.000      86.24      70.80
  4.000      0.000      96.37      63.82
  4.000      0.000      106.8      90.83
  4.000      0.000      111.4      94.02
  4.000      0.000      116.5      85.19
  4.000      0.000      125.2      89.59
  4.000      0.000      134.8      91.96
  4.000      0.000      143.6      71.68
  4.000      0.000      153.3      87.38
  4.000      0.000      157.4      60.59
  4.000      0.000      162.5      82.43
  4.000     0.7200      12.04      287.1
  4.000     0.7200      17.31      333.6
  4.000     0.7200      23.23      340.1
  4.000     0.7200      28.06      354.6
  4.000     0.7200      31.74      348.5
  4.000     0.7200      33.86      309.1
  4.000     0.7200      38.97      284.9
  4.000     0.7200      44.37      229.4
  4.000     0.7200      44.51      209.4
  4.000     0.7200      49.90      149.3
  4.000     0.7200      55.32      102.4
  4.000     0.7200      65.43      84.78
  4.000     0.7200      76.45      63.77
  4.000     0.7200      86.20      53.46
  4.000     0.7200      96.54      56.48
  4.000     0.7200      106.9      66.82
  4.000     0.7200      110.9      60.03
  4.000     0.7200      116.1      71.87
  4.000     0.7200      125.9      74.90
  4.000     0.7200      134.8      86.62
  4.000     0.7200      145.3      72.96
  4.000     0.7200      153.3      92.05
  4.000     0.7200      158.7      65.88
  4.000     0.7200      162.1      95.77
  4.000      1.740      12.22      54.43
  4.000      1.740      16.86      65.62
  4.000      1.740      22.60      74.11
  4.000      1.740      28.13      73.27
  4.000      1.740      31.06      61.18
  4.000      1.740      33.83      62.42
  4.000      1.740      39.14      45.59
  4.000      1.740      44.28      38.10
  4.000      1.740      49.95      15.92
  4.000      1.740      55.66      13.08
  4.000      1.740      65.98      8.093
  4.000      1.740      76.14      11.11
  4.000      1.740      86.65      8.785
  4.000      1.740      96.80      9.803
  4.000      1.740      106.4      10.84
  4.000      1.740      111.5      6.678
  4.000      1.740      116.5      6.524
  4.000      1.740      126.1      9.559
  4.000      1.740      135.2      8.612
  4.000      1.740      144.6      10.99
  4.000      1.740      153.6      9.373
  4.000      1.740      158.0      6.569
  4.000      1.740      162.3      8.437
  4.000      2.150      12.66      84.41
  4.000      2.150      17.48      92.26
  4.000      2.150      23.40      98.75
  4.000      2.150      28.57      100.6
  4.000      2.150      31.89      101.2
  4.000      2.150      34.27      93.74
  4.000      2.150      40.15      84.89
  4.000      2.150      45.10      72.74
  4.000      2.150      50.58      49.90
  4.000      2.150      55.73      42.41
  4.000      2.150      66.64      50.74
  4.000      2.150      76.59      47.76
  4.000      2.150      87.63      33.42
  4.000      2.150      97.57      25.11
  4.000      2.150      107.9      34.79
  4.000      2.150      112.7      25.31
  4.000      2.150      117.1      33.17
  4.000      2.150      126.9      32.87
  4.000      2.150      136.0      41.25
  4.000      2.150      144.8      39.65
  4.000      2.150      153.9      48.70
  4.000      2.150      159.0      31.87
  4.000      2.150      162.9      50.42
ENDDATA            172
ENDSUBENT          186
ENDENTRY             2
