ENTRY            C2510   20210618   20220015   20211208       C204
SUBENT        C2510001   20210618   20220015   20211208       C204
BIB                  7         14
TITLE      The 144Nd(d,p) and 144Nd(d,t) reactions and
           isobaric analog resonances in 144Nd(p,p0) and
           144Nd(p,p')
AUTHOR     (S.Gales,L.Lessard,J.L.Foster)
INSTITUTE  (1CANMON)
REFERENCE  (J,NP/A,202,535,1973)
           #doi:10.1016/0375-9474(73)90641-6
FACILITY   (VDGT,1CANMON)
SAMPLE     (60-ND-144,ENR=0.975)
           The targets were typically 80 mu-g/cm2 metallic
           neodymium on 5 mu-g/cm2 carbon backing. No Nd isotope
           other than 144Nd was present in more than 0.5%
           concentration.
HISTORY    (20210615C) OG
ENDBIB              14
NOCOMMON             0          0
ENDSUBENT           17
SUBENT        C2510002   20210618   20220015   20211208       C204
BIB                  4          8
REACTION   (60-ND-144(P,EL)60-ND-144,,DA,,RTH)
DETECTOR   (SIBAR) The scattered particles were detected by an
           array of four surface-barrier detectors cooled to
           -15 degrees C at lab. angles of 170, 155, 140 and 125
           degrees.
ERR-ANALYS (DATA-ERR) No information on source of uncertainty.
STATUS     (CURVE) Fig.3 (p.539) in Nucl.Phys.A,202,535,1973 was
           digitized by GSYS2.4.7.
ENDBIB               8
COMMON               1          3
EN
MEV
12.6
ENDCOMMON            3
DATA                 3         15
ANG-CM     DATA       DATA-ERR
ADEG       NO-DIM     NO-DIM
     29.834  1.009E+00  5.388E-02
     39.981  7.690E-01  4.899E-02
     49.849  7.062E-01  3.769E-02
     59.762  7.814E-01  3.901E-02
     69.947  6.967E-01  4.673E-02
     80.050  4.422E-01  1.813E-02
     90.046  3.520E-01  1.757E-02
    100.149  4.379E-01  2.639E-02
    110.234  5.062E-01  2.527E-02
    119.925  4.368E-01  2.332E-02
    129.745  3.292E-01  1.644E-02
    139.747  2.689E-01  1.250E-02
    149.649  2.848E-01  1.618E-02
    159.738  3.353E-01  1.248E-02
    169.638  3.512E-01  1.846E-02
ENDDATA             17
ENDSUBENT           34
SUBENT        C2510003   20210618   20220015   20211208       C204
BIB                  4         11
REACTION   (60-ND-144(D,EL)60-ND-144,,DA,,RTH)
DETECTOR   (SIBAR) The reaction products were detected by two
           cooled 2000 mu-m depletion-depth surface-barrier
           detectors mounted 10 degrees apart on the
           scattering-chamber turntable. The detector
           collimators subtended about 2 degrees in the
           scattering plane. The energy resolutions were 15.5
           and 17.5 keV for the two detectors.
ERR-ANALYS (DATA-ERR) No information on source of uncertainty.
STATUS     (CURVE) Fig.3 (p.539) in Nucl.Phys.A,202,535,1973 was
           digitized by GSYS2.4.7.
ENDBIB              11
COMMON               1          3
EN
MEV
12.6
ENDCOMMON            3
DATA                 3         21
ANG-CM     DATA       DATA-ERR
ADEG       NO-DIM     NO-DIM
     24.888  1.111E+00  9.730E-02
     29.696  9.910E-01  8.658E-02
     35.178  9.545E-01  6.722E-02
     40.297  8.209E-01  4.945E-02
     44.293  7.244E-01  5.346E-02
     50.048  6.050E-01  4.268E-02
     54.225  5.620E-01  2.806E-02
     60.169  5.086E-01  5.060E-02
     65.156  4.758E-01  3.994E-02
     70.280  4.152E-01  4.040E-02
     75.237  3.571E-01  2.636E-02
     80.039  3.128E-01  3.110E-02
     90.179  2.778E-01  2.423E-02
    100.164  2.512E-01  2.027E-02
    109.777  1.978E-01  1.327E-02
    120.224  1.675E-01  1.271E-02
    129.905  1.600E-01  1.073E-02
    140.059  1.479E-01  9.930E-03
    149.884  1.343E-01  9.460E-03
    159.863  1.197E-01  9.071E-03
    169.898  1.248E-01  1.007E-02
ENDDATA             23
ENDSUBENT           43
SUBENT        C2510004   20210618   20220015   20211208       C204
BIB                  4         12
REACTION   (60-ND-144(D,P)60-ND-145,PAR,DA) Angular momentum
           transfer l=1.
DETECTOR   (SIBAR) The reaction products were detected by two
           cooled 2000 mu-m depletion-depth surface-barrier
           detectors mounted 10 degrees apart on the
           scattering-chamber turntable. The detector
           collimators subtended about 2 degrees in the
           scattering plane. The energy resolutions were 15.5
           and 17.5 keV for the two detectors.
ERR-ANALYS (DATA-ERR) No information on source of uncertainty.
STATUS     (CURVE) Figs.4-5 in Nucl.Phys.A,202,535,1973 was
           digitized by GSYS2.4.7.
ENDBIB              12
COMMON               1          3
EN
MEV
12.6
ENDCOMMON            3
DATA                 4        435
E-LVL      ANG-CM     DATA-CM    DATA-ERR
KEV        ADEG       MB/SR      MB/SR
       657.     21.893  3.364E-02  8.729E-03
       657.     24.779  3.446E-02  7.514E-03
       657.     26.588  3.126E-02  7.399E-03
       657.     28.505  2.573E-02  5.052E-03
       657.     31.790  2.709E-02  5.514E-03
       657.     34.518  2.479E-02  4.565E-03
       657.     36.362  2.594E-02  4.524E-03
       657.     38.957  2.360E-02  4.343E-03
       657.     41.969  2.367E-02  3.879E-03
       657.     44.720  2.388E-02  2.919E-03
       657.     49.004  2.063E-02  3.011E-03
       657.     51.603  1.900E-02  3.451E-03
       657.     55.007  1.905E-02  2.988E-03
       657.     58.960  2.117E-02  3.246E-03
       657.     61.800  1.791E-02  3.125E-03
       657.     67.048  1.879E-02  3.959E-03
       657.     71.877  1.767E-02  3.021E-03
       657.     76.593  1.793E-02  3.646E-03
       657.     82.199  1.631E-02  2.962E-03
       657.     92.296  1.017E-02  1.849E-03
       779.     20.887  3.402E+00
       779.     23.569  2.862E+00
       779.     25.875  2.871E+00
       779.     27.091  2.789E+00
       779.     27.763  2.701E+00
       779.     30.598  2.509E+00
       779.     33.590  2.623E+00
       779.     35.917  2.942E+00
       779.     37.547  2.989E+00
       779.     40.810  3.114E+00
       779.     43.788  3.025E+00
       779.     47.848  2.864E+00
       779.     50.540  2.561E+00
       779.     53.636  2.253E+00
       779.     57.551  2.027E+00
       779.     60.790  1.859E+00
       779.     65.525  1.737E+00
       779.     71.074  1.624E+00
       779.     76.206  1.437E+00
       779.     81.053  1.179E+00
       779.     90.347  8.235E-01
       918.     21.905  1.214E+00  1.211E-01
       918.     24.500  1.046E+00  7.691E-02
       918.     26.926  9.733E-01  5.418E-02
       918.     28.962  9.453E-01  9.823E-02
       918.     32.054  9.766E-01  8.886E-02
       918.     34.134  1.039E+00  7.196E-02
       918.     36.431  1.131E+00  7.829E-02
       918.     38.648  1.042E+00  7.627E-02
       918.     41.755  1.113E+00  5.405E-02
       918.     44.638  1.140E+00  7.359E-02
       918.     48.895  1.030E+00  8.471E-02
       918.     51.738  9.716E-01  5.408E-02
       918.     54.763  8.741E-01  5.658E-02
       918.     58.638  8.365E-01  3.894E-02
       918.     61.847  7.208E-01  4.322E-02
       918.     66.596  7.697E-01  4.971E-02
       918.     71.457  6.790E-01  4.102E-02
       918.     76.336  6.223E-01  2.897E-02
       918.     81.301  4.450E-01  2.278E-02
       918.     91.212  3.349E-01  2.163E-02
      1147.     19.209  3.704E-02  8.844E-03
      1147.     26.646  3.023E-02  4.678E-03
      1147.     29.624  2.937E-02  7.084E-03
      1147.     32.071  3.399E-02  8.115E-03
      1147.     34.503  3.080E-02  6.055E-03
      1147.     36.683  3.725E-02  6.652E-03
      1147.     39.666  3.919E-02  5.642E-03
      1147.     42.509  3.845E-02  4.797E-03
      1147.     46.434  3.642E-02  3.891E-03
      1147.     50.080  3.088E-02  5.674E-03
      1147.     52.916  2.728E-02  3.854E-03
      1147.     56.432  2.504E-02  4.406E-03
      1147.     60.095  2.710E-02  6.142E-03
      1147.     64.956  2.143E-02  4.430E-03
      1147.     70.099  2.011E-02  4.207E-03
      1147.     75.385  2.129E-02  4.239E-03
      1147.     80.122  2.010E-02  3.589E-03
      1147.     90.125  1.482E-02  3.466E-03
      1284.     26.870  1.653E-02  5.207E-03
      1284.     32.954  1.560E-02  5.283E-03
      1284.     35.056  1.117E-02  4.496E-03
      1284.     36.734  1.459E-02  4.371E-03
      1284.     40.169  1.875E-02  4.348E-03
      1284.     43.099  1.453E-02  2.789E-03
      1284.     47.201  1.769E-02  1.894E-03
      1284.     50.155  1.547E-02  2.358E-03
      1284.     53.123  1.452E-02  3.044E-03
      1284.     57.154  1.234E-02  2.462E-03
      1284.     60.167  1.455E-02  2.528E-03
      1284.     64.872  1.217E-02  2.050E-03
      1284.     69.956  8.795E-03  1.551E-03
      1284.     75.091  8.249E-03  2.189E-03
      1284.     80.113  8.730E-03  2.385E-03
      1284.     89.569  7.655E-03  2.138E-03
      1400.     21.287  2.732E-01  1.613E-02
      1400.     24.144  2.711E-01  1.973E-02
      1400.     26.585  2.761E-01  1.819E-02
      1400.     28.703  2.598E-01  1.488E-02
      1400.     31.551  2.517E-01  1.529E-02
      1400.     34.121  2.489E-01  1.856E-02
      1400.     36.617  2.879E-01  2.825E-02
      1400.     39.024  2.718E-01  1.226E-02
      1400.     44.753  2.757E-01  1.291E-02
      1400.     51.754  2.706E-01  1.076E-02
      1400.     54.882  2.588E-01  1.618E-02
      1400.     59.002  2.426E-01  1.178E-02
      1400.     61.675  2.191E-01  2.003E-02
      1400.     66.824  2.187E-01  1.629E-02
      1400.     71.677  2.130E-01  1.659E-02
      1400.     76.811  2.056E-01  1.947E-02
      1400.     82.220  1.934E-01  1.141E-02
      1400.     92.155  1.616E-01  1.585E-02
      1592.     21.287  2.732E-01  1.613E-02
      1592.     24.144  2.711E-01  1.973E-02
      1592.     26.585  2.761E-01  1.819E-02
      1592.     28.703  2.598E-01  1.488E-02
      1592.     31.551  2.517E-01  1.529E-02
      1592.     34.121  2.489E-01  1.856E-02
      1592.     36.617  2.879E-01  2.825E-02
      1592.     39.024  2.718E-01  1.226E-02
      1592.     44.753  2.757E-01  1.291E-02
      1592.     51.754  2.706E-01  1.076E-02
      1592.     54.882  2.588E-01  1.618E-02
      1592.     59.002  2.426E-01  1.178E-02
      1592.     61.675  2.191E-01  2.003E-02
      1592.     66.824  2.187E-01  1.629E-02
      1592.     71.677  2.130E-01  1.659E-02
      1592.     76.811  2.056E-01  1.947E-02
      1592.     82.220  1.934E-01  1.141E-02
      1592.     92.155  1.616E-01  1.585E-02
      1745.     19.543  2.234E-01  3.722E-02
      1745.     22.396  1.656E-01  2.068E-02
      1745.     24.679  2.121E-01  2.406E-02
      1745.     26.533  1.838E-01  1.655E-02
      1745.     29.672  2.100E-01  3.327E-02
      1745.     32.525  1.832E-01  2.025E-02
      1745.     34.664  2.046E-01  3.409E-02
      1745.     36.519  2.308E-01  2.948E-02
      1745.     39.657  2.308E-01  2.751E-02
      1745.     42.653  2.220E-01  2.130E-02
      1745.     49.643  1.987E-01  2.139E-02
      1745.     52.924  1.968E-01  1.888E-02
      1745.     56.918  1.785E-01  1.660E-02
      1745.     59.914  1.572E-01  1.462E-02
      1745.     64.621  1.512E-01  1.495E-02
      1745.     69.900  1.181E-01  1.271E-02
      1745.     75.035  1.016E-01  1.035E-02
      1745.     79.885  9.617E-02  9.511E-03
      1745.     89.728  7.559E-02  7.475E-03
      1885.     20.379  2.167E-01  2.492E-02
      1885.     30.055  1.929E-01  1.934E-02
      1885.     33.051  1.928E-01  1.875E-02
      1885.     35.195  1.973E-01  2.383E-02
      1885.     37.337  1.992E-01  2.291E-02
      1885.     40.349  2.155E-01  2.853E-02
      1885.     43.332  2.030E-01  2.453E-02
      1885.     47.486  2.197E-01  1.873E-02
      1885.     53.293  1.795E-01  1.800E-02
      1885.     57.137  1.730E-01  2.141E-02
      1885.     60.412  1.679E-01  1.635E-02
      1885.     65.367  1.395E-01  1.274E-02
      1885.     70.619  1.234E-01  1.454E-02
      1885.     74.998  9.984E-02  8.214E-03
      1885.     80.124  9.528E-02  8.128E-03
      1885.     90.201  7.406E-02  7.420E-03
      1911.     19.623  3.749E-02  1.178E-02
      1911.     29.821  2.526E-02  5.617E-03
      1911.     32.906  1.894E-02  5.514E-03
      1911.     34.634  2.064E-02  6.105E-03
      1911.     36.347  2.077E-02  5.753E-03
      1911.     42.683  2.861E-02  4.919E-03
      1911.     46.931  2.416E-02  4.804E-03
      1911.     52.914  2.305E-02  4.767E-03
      1911.     56.973  1.509E-02  4.774E-03
      1911.     59.540  1.503E-02  4.690E-03
      1911.     64.652  1.321E-02  4.180E-03
      1911.     69.447  9.833E-03  2.839E-03
      1911.     74.155  9.828E-03  2.907E-03
      1911.     79.487  1.314E-02  3.320E-03
      1911.     89.598  1.197E-02  3.575E-03
      1988.     26.111  2.954E-02  7.895E-03
      1988.     28.594  1.987E-02  4.342E-03
      1988.     30.943  2.760E-02  6.447E-03
      1988.     32.794  2.135E-02  4.207E-03
      1988.     40.791  2.582E-02  4.942E-03
      1988.     48.514  2.846E-02  4.898E-03
      1988.     52.337  2.170E-02  4.219E-03
      1988.     55.762  2.569E-02  5.225E-03
      1988.     62.034  1.826E-02  3.436E-03
      1988.     65.237  1.499E-02  2.957E-03
      1988.     70.683  1.856E-02  3.015E-03
      1988.     75.502  1.861E-02  3.731E-03
      1988.     80.515  1.953E-02  2.980E-03
      1988.     85.575  1.684E-02  3.168E-03
      1988.     94.936  1.070E-02  3.137E-03
      2004.     20.335  3.763E-02  9.009E-03
      2004.     24.811  4.080E-02  1.036E-02
      2004.     28.119  3.910E-02  1.036E-02
      2004.     35.706  2.608E-02  7.167E-03
      2004.     43.661  2.926E-02  6.911E-03
      2004.     48.799  3.148E-02  5.819E-03
      2004.     57.899  2.880E-02  4.400E-03
      2004.     60.704  2.546E-02  4.623E-03
      2004.     65.999  2.430E-02  5.313E-03
      2004.     70.797  2.329E-02  5.300E-03
      2004.     81.204  1.671E-02  3.347E-03
      2004.     91.459  1.443E-02  3.202E-03
      2090.     22.224  3.535E-02  7.113E-03
      2090.     25.369  3.532E-02  7.635E-03
      2090.     29.236  2.787E-02  4.414E-03
      2090.     32.579  2.990E-02  6.115E-03
      2090.     42.754  3.531E-02  6.691E-03
      2090.     49.119  2.880E-02  5.168E-03
      2090.     52.282  2.988E-02  4.453E-03
      2090.     55.554  2.739E-02  4.252E-03
      2090.     62.372  2.925E-02  5.278E-03
      2090.     66.933  2.478E-02  5.505E-03
      2090.     71.985  2.075E-02  5.664E-03
      2090.     77.165  2.302E-02  4.958E-03
      2090.     82.280  2.215E-02  4.920E-03
      2090.     91.885  1.542E-02  4.208E-03
      2160.     18.061  1.438E-01  2.659E-02
      2160.     21.434  1.321E-01  2.158E-02
      2160.     24.645  1.205E-01  1.340E-02
      2160.     28.901  1.024E-01  1.006E-02
      2160.     31.944  1.183E-01  1.376E-02
      2160.     35.776  1.144E-01  1.840E-02
      2160.     45.026  1.180E-01  1.370E-02
      2160.     48.803  1.233E-01  1.371E-02
      2160.     51.511  1.135E-01  1.174E-02
      2160.     58.741  7.730E-02  1.350E-02
      2160.     63.943  8.833E-02  1.269E-02
      2160.     68.742  7.045E-02  8.201E-03
      2160.     73.292  6.304E-02  9.686E-03
      2160.     78.645  5.840E-02  1.240E-02
      2160.     88.673  5.127E-02  7.502E-03
      2180.     20.066  2.683E-01  5.055E-02
      2180.     23.084  3.397E-01  3.308E-02
      2180.     27.067  3.478E-01  4.239E-02
      2180.     29.908  4.070E-01  5.656E-02
      2180.     33.373  3.587E-01  3.995E-02
      2180.     37.173  3.237E-01  3.608E-02
      2180.     46.799  3.405E-01  4.501E-02
      2180.     50.278  3.324E-01  2.998E-02
      2180.     52.900  2.645E-01  2.667E-02
      2180.     60.372  2.837E-01  3.751E-02
      2180.     70.289  2.230E-01  3.475E-02
      2180.     74.773  2.346E-01  3.261E-02
      2180.     80.229  2.075E-01  2.955E-02
      2180.     90.139  1.556E-01  1.787E-02
      2267.     34.473  2.020E-01  2.603E-02
      2267.     37.798  2.302E-01  2.812E-02
      2267.     47.508  2.089E-01  2.218E-02
      2267.     50.711  1.786E-01  1.968E-02
      2267.     54.507  1.534E-01  1.873E-02
      2267.     62.642  1.354E-01  1.707E-02
      2267.     67.610  1.222E-01  1.444E-02
      2267.     72.185  1.093E-01  1.028E-02
      2267.     77.540  1.018E-01  1.081E-02
      2267.     87.544  6.420E-02  1.007E-02
      2284.     40.031  1.348E-01  2.515E-02
      2284.     49.912  1.028E-01  2.257E-02
      2284.     52.876  1.052E-01  1.520E-02
      2284.     56.631  9.728E-02  1.406E-02
      2284.     64.536  8.171E-02  1.181E-02
      2284.     69.674  8.171E-02  1.245E-02
      2284.     74.614  7.055E-02  1.156E-02
      2284.     79.555  5.980E-02  7.454E-03
      2284.     89.633  4.437E-02  8.775E-03
      2334.     23.935  1.811E-01  6.476E-02
      2334.     28.674  1.800E-01  4.611E-02
      2334.     33.549  1.640E-01  3.036E-02
      2334.     36.071  1.164E-01  2.581E-02
      2334.     40.124  1.338E-01  2.381E-02
      2334.     43.385  1.166E-01  1.896E-02
      2334.     46.249  1.335E-01  1.817E-02
      2334.     52.834  8.364E-02  1.328E-02
      2334.     55.872  7.025E-02  9.273E-03
      2334.     59.875  7.545E-02  1.173E-02
      2334.     63.063  7.816E-02  1.153E-02
      2334.     68.038  6.211E-02  1.012E-02
      2334.     73.123  5.763E-02  8.271E-03
      2334.     77.732  4.772E-02  6.280E-03
      2334.     82.727  5.147E-02  8.186E-03
      2334.     92.359  2.745E-02  5.087E-03
      2354.     20.071  2.410E-01  8.159E-02
      2354.     25.407  2.072E-01  4.421E-02
      2354.     30.150  2.009E-01  4.144E-02
      2354.     33.114  2.285E-01  4.634E-02
      2354.     37.462  2.018E-01  3.509E-02
      2354.     40.031  1.559E-01  2.187E-02
      2354.     43.588  2.000E-01  3.331E-02
      2354.     50.307  1.594E-01  2.477E-02
      2354.     53.469  1.365E-01  1.435E-02
      2354.     57.224  1.189E-01  2.112E-02
      2354.     60.386  1.050E-01  1.788E-02
      2354.     65.721  1.045E-01  1.223E-02
      2354.     70.464  1.013E-01  1.725E-02
      2354.     75.998  9.565E-02  1.194E-02
      2354.     80.543  7.198E-02  6.992E-03
      2354.     90.226  4.555E-02  7.754E-03
      2427.     22.347  1.039E-01  1.178E-02
      2427.     25.073  9.917E-02  1.041E-02
      2427.     27.033  1.001E-01  1.334E-02
      2427.     32.072  8.427E-02  1.159E-02
      2427.     34.800  8.080E-02  1.303E-02
      2427.     38.979  1.036E-01  1.424E-02
      2427.     41.717  1.031E-01  1.417E-02
      2427.     44.904  1.257E-01  2.168E-02
      2427.     48.816  1.251E-01  1.621E-02
      2427.     54.442  1.053E-01  1.322E-02
      2427.     58.687  8.509E-02  7.866E-03
      2427.     61.598  7.790E-02  9.150E-03
      2427.     71.148  6.803E-02  1.043E-02
      2427.     76.150  5.034E-02  8.881E-03
      2427.     90.725  3.519E-02  6.338E-03
      2532.     21.446  6.329E-02  6.985E-03
      2532.     28.461  5.502E-02  6.816E-03
      2532.     31.799  5.805E-02  7.082E-03
      2532.     38.395  4.450E-02  4.908E-03
      2532.     40.957  4.845E-02  6.305E-03
      2532.     43.906  5.158E-02  9.436E-03
      2532.     47.824  5.273E-02  1.191E-02
      2532.     50.970  5.664E-02  9.520E-03
      2532.     58.313  3.660E-02  7.102E-03
      2532.     60.788  2.660E-02  5.824E-03
      2532.     70.621  3.341E-02  6.359E-03
      2532.     75.074  2.668E-02  6.847E-03
      2532.     80.587  3.134E-02  6.191E-03
      2532.     90.069  1.902E-02  5.620E-03
      2560.     23.090  5.467E-02  8.334E-03
      2560.     27.003  4.727E-02  5.167E-03
      2560.     30.721  4.366E-02  6.286E-03
      2560.     33.461  4.742E-02  6.151E-03
      2560.     39.527  4.182E-02  5.784E-03
      2560.     42.462  5.151E-02  5.783E-03
      2560.     46.571  4.869E-02  6.873E-03
      2560.     49.897  4.033E-02  5.115E-03
      2560.     64.378  3.700E-02  4.586E-03
      2560.     74.357  3.116E-02  4.309E-03
      2560.     79.053  2.916E-02  4.445E-03
      2560.     88.641  2.399E-02  4.319E-03
      2572.     27.775  7.893E-02  1.240E-02
      2572.     29.971  8.491E-02  1.393E-02
      2572.     32.206  6.993E-02  1.094E-02
      2572.     35.430  5.864E-02  1.054E-02
      2572.     39.217  6.602E-02  8.537E-03
      2572.     42.436  7.677E-02  1.170E-02
      2572.     45.058  6.264E-02  1.194E-02
      2572.     48.990  4.617E-02  7.038E-03
      2572.     52.002  5.271E-02  8.873E-03
      2572.     61.354  3.505E-02  6.559E-03
      2572.     66.591  4.528E-02  7.100E-03
      2572.     76.430  3.553E-02  6.387E-03
      2572.     80.683  3.250E-02  6.689E-03
      2572.     90.458  1.632E-02  4.974E-03
      2608.     21.542  2.858E-01  4.389E-02
      2608.     24.459  2.658E-01  2.826E-02
      2608.     26.800  2.587E-01  3.061E-02
      2608.     30.900  2.483E-01  3.234E-02
      2608.     34.057  2.752E-01  2.930E-02
      2608.     37.986  2.916E-01  4.357E-02
      2608.     41.317  2.968E-01  3.157E-02
      2608.     43.862  2.980E-01  3.993E-02
      2608.     47.942  2.650E-01  3.033E-02
      2608.     50.842  2.314E-01  2.924E-02
      2608.     53.377  2.232E-01  3.080E-02
      2608.     60.414  2.161E-01  2.558E-02
      2608.     65.878  2.036E-01  2.003E-02
      2608.     75.418  1.676E-01  2.115E-02
      2608.     80.851  1.399E-01  1.710E-02
      2608.     90.048  1.397E-01  3.062E-02
      2817.     20.529  1.575E-02  1.438E-03
      2817.     23.273  1.477E-02  1.808E-03
      2817.     26.077  1.727E-02  1.484E-03
      2817.     30.582  1.538E-02  1.323E-03
      2817.     33.740  1.551E-02  1.169E-03
      2817.     37.318  1.716E-02  1.791E-03
      2817.     40.486  1.797E-02  1.449E-03
      2817.     43.044  1.756E-02  1.556E-03
      2817.     46.988  1.756E-02  1.464E-03
      2817.     50.315  1.590E-02  1.283E-03
      2817.     53.244  1.424E-02  1.225E-03
      2817.     57.220  1.599E-02  1.544E-03
      2817.     60.760  1.540E-02  1.118E-03
      2817.     69.788  1.304E-02  9.122E-04
      2817.     74.698  1.206E-02  9.073E-04
      2817.     79.826  1.202E-02  7.097E-04
      2817.     89.818  9.360E-03  7.051E-04
      2887.     21.614  6.940E-02  1.204E-03
      2887.     38.573  6.858E-02  1.224E-02
      2887.     41.995  8.197E-02  1.036E-02
      2887.     44.507  7.156E-02  9.074E-03
      2887.     48.852  7.276E-02  8.102E-03
      2887.     51.634  7.663E-02  1.171E-02
      2887.     58.891  6.891E-02  8.184E-03
      2887.     61.504  4.691E-02  6.114E-03
      2887.     71.773  4.848E-02  5.964E-03
      2887.     81.179  4.135E-02  4.922E-03
      2887.     91.102  2.898E-02  3.673E-03
      3046.     25.524  9.740E-02  1.916E-02
      3046.     27.911  1.072E-01  1.827E-02
      3046.     30.668  1.076E-01  1.245E-02
      3046.     33.613  1.047E-01  1.381E-02
      3046.     37.929  9.857E-02  1.493E-02
      3046.     43.644  1.012E-01  1.374E-02
      3046.     50.706  9.190E-02  1.670E-02
      3046.     60.142  8.729E-02  1.586E-02
      3046.     74.417  6.021E-02  1.050E-02
      3046.     90.101  4.676E-02  8.679E-03
      3219.     21.442  1.276E-01  2.526E-02
      3219.     23.980  1.218E-01  2.090E-02
      3219.     25.888  1.028E-01  1.483E-02
      3219.     28.499  1.217E-01  2.122E-02
      3219.     31.190  1.022E-01  1.558E-02
      3219.     33.750  1.041E-01  1.665E-02
      3219.     37.981  7.931E-02  1.116E-02
      3219.     40.857  1.150E-01  1.751E-02
      3219.     43.822  1.214E-01  2.131E-02
      3219.     50.685  1.169E-01  2.183E-02
      3219.     60.441  9.577E-02  1.606E-02
      3219.     70.440  9.006E-02  1.425E-02
      3219.     80.184  7.114E-02  1.201E-02
      3219.     89.808  3.928E-02  5.050E-03
      3374.     25.085  8.331E-02  1.078E-02
      3374.     27.251  8.555E-02  1.006E-02
      3374.     33.331  8.104E-02  1.141E-02
      3374.     37.432  7.054E-02  1.075E-02
      3374.     43.537  7.674E-02  8.418E-03
      3374.     50.399  7.077E-02  1.104E-02
      3374.     60.401  6.438E-02  7.823E-03
      3374.     70.219  6.262E-02  9.299E-03
      3374.     80.360  4.111E-02  4.836E-03
      3374.     89.921  2.848E-02  6.500E-03
ENDDATA            437
ENDSUBENT          458
SUBENT        C2510005   20210618   20220015   20211208       C204
BIB                  4         12
REACTION   (60-ND-144(D,P)60-ND-145,PAR,DA) Angular momentum
           transfer l=3.
DETECTOR   (SIBAR) The reaction products were detected by two
           cooled 2000 mu-m depletion-depth surface-barrier
           detectors mounted 10 degrees apart on the
           scattering-chamber turntable. The detector
           collimators subtended about 2 degrees in the
           scattering plane. The energy resolutions were 15.5
           and 17.5 keV for the two detectors.
ERR-ANALYS (DATA-ERR) No information on source of uncertainty.
STATUS     (CURVE) Fig.6 (p.542) in Nucl.Phys.A,202,535,1973 was
           digitized by GSYS2.4.7.
ENDBIB              12
COMMON               1          3
EN
MEV
12.6
ENDCOMMON            3
DATA                 4        257
E-LVL      ANG-CM     DATA-CM    DATA-ERR
KEV        ADEG       MB/SR      MB/SR
         0.     21.130  7.572E-01
         0.     24.926  1.068E+00
         0.     26.919  1.343E+00
         0.     32.021  1.834E+00
         0.     34.699  2.036E+00
         0.     38.963  2.121E+00
         0.     41.869  1.995E+00
         0.     45.226  1.931E+00
         0.     48.404  1.721E+00
         0.     51.900  1.634E+00
         0.     54.235  1.597E+00
         0.     58.314  1.507E+00
         0.     61.955  1.427E+00
         0.     66.309  1.283E+00
         0.     71.381  1.114E+00
         0.     76.332  1.031E+00
         0.     81.441  9.820E-01
         0.     91.338  8.331E-01
       934.     16.521  6.993E+00  8.066E-01
       934.     17.652  5.750E+00  2.014E+00
       934.     20.284  2.322E+00  5.741E-01
       934.     22.855  1.363E+00  1.932E-01
       934.     27.570  1.057E+00  1.417E-01
       934.     30.263  7.365E-01  5.773E-02
       934.     34.403  5.441E-01  1.214E-01
       934.     40.035  6.871E-01  8.555E-02
       934.     43.744  8.828E-01  1.439E-01
       934.     47.497  1.210E+00  1.536E-01
       934.     50.512  1.296E+00  1.739E-01
       934.     54.000  1.723E+00  1.977E-01
       934.     57.227  1.575E+00  2.497E-01
       934.     62.206  2.679E+00  3.110E-01
       934.     67.268  3.274E+00  4.706E-01
       934.     72.425  4.459E+00  7.703E-01
       934.     77.560  4.722E+00  1.402E+00
       934.     87.198  5.859E+00  1.069E+00
      1248.     19.823  7.964E-02  1.490E-02
      1248.     24.926  1.466E-01  1.716E-02
      1248.     27.319  1.471E-01  1.305E-02
      1248.     33.130  1.921E-01  1.259E-02
      1248.     35.227  2.100E-01  1.863E-02
      1248.     37.452  2.033E-01  1.266E-02
      1248.     40.639  2.011E-01  1.651E-02
      1248.     43.331  1.865E-01  1.472E-02
      1248.     46.982  1.748E-01  1.977E-02
      1248.     49.997  1.644E-01  1.155E-02
      1248.     53.337  1.586E-01  8.265E-03
      1248.     56.994  1.513E-01  8.898E-03
      1248.     60.799  1.388E-01  8.632E-03
      1248.     64.774  1.320E-01  7.760E-03
      1248.     70.010  1.189E-01  1.111E-02
      1248.     75.090  1.083E-01  1.096E-02
      1248.     79.699  1.015E-01  8.697E-03
      1248.     89.242  9.138E-02  9.972E-03
      1331.     20.732  1.777E-01  2.501E-02
      1331.     28.389  3.211E-01  2.859E-02
      1331.     31.152  3.482E-01  3.073E-02
      1331.     36.391  4.382E-01  3.576E-02
      1331.     38.311  4.349E-01  3.697E-02
      1331.     40.566  4.456E-01  2.758E-02
      1331.     43.884  4.030E-01  2.895E-02
      1331.     47.885  3.984E-01  2.472E-02
      1331.     51.196  3.553E-01  2.315E-02
      1331.     53.891  3.342E-01  1.279E-02
      1331.     57.877  3.200E-01  1.658E-02
      1331.     60.887  2.978E-01  2.820E-02
      1331.     65.833  2.840E-01  1.944E-02
      1331.     70.603  2.624E-01  1.534E-02
      1331.     75.709  2.502E-01  2.326E-02
      1331.     80.775  2.199E-01  1.726E-02
      1331.     90.639  1.890E-01  1.358E-02
      1527.     19.769  3.044E-02  5.921E-03
      1527.     24.633  3.873E-02  5.938E-03
      1527.     27.204  3.993E-02  4.976E-03
      1527.     29.925  3.937E-02  3.935E-03
      1527.     32.667  4.254E-02  5.096E-03
      1527.     34.766  4.533E-02  6.304E-03
      1527.     37.012  4.583E-02  5.375E-03
      1527.     42.420  3.847E-02  4.983E-03
      1527.     44.487  3.589E-02  2.863E-03
      1527.     46.559  3.404E-02  3.574E-03
      1527.     49.779  3.638E-02  5.058E-03
      1527.     52.651  3.441E-02  3.782E-03
      1527.     56.954  3.096E-02  3.931E-03
      1527.     59.648  2.717E-02  3.320E-03
      1527.     64.954  2.935E-02  4.498E-03
      1527.     69.243  2.485E-02  3.097E-03
      1527.     74.515  2.318E-02  4.299E-03
      1527.     79.022  2.518E-02  4.728E-03
      1527.     89.524  1.819E-02  2.873E-03
      1578.     20.025  1.132E-01  2.368E-02
      1578.     22.429  1.233E-01  2.154E-02
      1578.     24.672  1.348E-01  1.869E-02
      1578.     26.595  1.220E-01  1.914E-02
      1578.     29.480  1.329E-01  1.513E-02
      1578.     32.685  1.494E-01  2.209E-02
      1578.     34.448  1.604E-01  1.725E-02
      1578.     36.531  1.599E-01  2.651E-02
      1578.     42.301  1.576E-01  1.442E-02
      1578.     46.628  1.412E-01  1.428E-02
      1578.     52.237  1.190E-01  1.651E-02
      1578.     56.404  1.157E-01  1.317E-02
      1578.     59.609  1.044E-01  1.056E-02
      1578.     64.737  1.000E-01  8.177E-03
      1578.     69.545  8.925E-02  1.044E-02
      1578.     74.032  7.687E-02  7.775E-03
      1578.     79.481  6.836E-02  6.696E-03
      1578.     89.257  5.163E-02  4.199E-03
      1760.     16.900  1.424E-01  1.856E-02
      1760.     20.138  1.752E-01  2.283E-02
      1760.     21.496  1.980E-01  1.331E-02
      1760.     24.097  1.752E-01  1.467E-02
      1760.     26.300  2.180E-01  1.466E-02
      1760.     29.359  2.796E-01  2.110E-02
      1760.     31.410  3.066E-01  1.688E-02
      1760.     34.150  3.349E-01  5.096E-02
      1760.     36.759  2.820E-01  2.951E-02
      1760.     39.877  2.486E-01  2.611E-02
      1760.     46.948  2.260E-01  2.984E-02
      1760.     49.898  1.940E-01  2.277E-02
      1760.     54.022  2.031E-01  2.204E-02
      1760.     57.310  1.811E-01  1.972E-02
      1760.     61.603  1.926E-01  3.172E-02
      1760.     66.965  1.629E-01  1.315E-02
      1760.     71.958  1.617E-01  1.642E-02
      1760.     77.135  1.481E-01  1.557E-02
      1760.     87.317  1.243E-01  1.092E-02
      1969.     19.143  5.611E-02  1.396E-02
      1969.     22.299  8.084E-02  1.421E-02
      1969.     26.473  1.068E-01  1.800E-02
      1969.     31.642  1.109E-01  1.764E-02
      1969.     36.155  1.410E-01  1.788E-02
      1969.     39.262  1.486E-01  2.505E-02
      1969.     42.321  1.163E-01  1.392E-02
      1969.     49.179  9.777E-02  1.304E-02
      1969.     56.073  1.038E-01  1.074E-02
      1969.     59.664  8.958E-02  9.572E-03
      1969.     64.479  8.689E-02  7.510E-03
      1969.     69.435  6.955E-02  6.961E-03
      1969.     74.044  5.443E-02  6.282E-03
      1969.     79.189  4.841E-02  5.009E-03
      1969.     89.350  5.042E-02  5.218E-03
      2371.     18.924  2.837E-01  3.946E-02
      2371.     24.132  3.107E-01  3.669E-02
      2371.     26.215  3.673E-01  3.977E-02
      2371.     29.167  3.805E-01  3.818E-02
      2371.     32.639  3.896E-01  4.419E-02
      2371.     35.764  4.192E-01  4.647E-02
      2371.     38.889  3.567E-01  3.285E-02
      2371.     42.535  3.652E-01  3.178E-02
      2371.     49.306  3.135E-01  4.360E-02
      2371.     52.257  3.017E-01  3.463E-02
      2371.     56.250  3.107E-01  3.281E-02
      2371.     59.375  2.870E-01  2.032E-02
      2371.     63.889  2.938E-01  2.332E-02
      2371.     68.924  2.738E-01  3.504E-02
      2371.     74.132  2.620E-01  1.914E-02
      2371.     79.688  2.191E-01  1.669E-02
      2371.     89.583  2.042E-01  1.946E-02
      2482.     26.193  2.575E-01  4.520E-02
      2482.     29.498  2.807E-01  4.268E-02
      2482.     31.730  2.589E-01  4.369E-02
      2482.     34.708  3.096E-01  4.399E-02
      2482.     39.281  4.428E-01  6.000E-02
      2482.     42.553  4.131E-01  4.262E-02
      2482.     46.522  3.932E-01  4.943E-02
      2482.     56.529  3.441E-01  4.325E-02
      2482.     59.790  3.021E-01  4.693E-02
      2482.     70.137  2.568E-01  4.948E-02
      2482.     74.130  2.752E-01  4.275E-02
      2482.     89.651  2.163E-01  5.001E-02
      2511.     20.479  8.740E-02  1.263E-02
      2511.     22.811  1.230E-01  1.241E-02
      2511.     25.299  1.343E-01  1.466E-02
      2511.     30.347  1.762E-01  1.371E-02
      2511.     33.579  2.061E-01  1.823E-02
      2511.     37.584  2.130E-01  1.508E-02
      2511.     39.882  2.272E-01  2.168E-02
      2511.     43.223  1.938E-01  2.048E-02
      2511.     47.946  2.074E-01  2.961E-02
      2511.     50.494  1.948E-01  1.856E-02
      2511.     57.348  1.778E-01  2.004E-02
      2511.     60.363  1.558E-01  2.119E-02
      2511.     70.278  1.326E-01  1.353E-02
      2511.     75.476  1.062E-01  1.268E-02
      2511.     80.487  1.052E-01  1.038E-02
      2626.     19.321  1.011E-01  1.744E-02
      2626.     22.699  1.130E-01  1.952E-02
      2626.     27.050  1.185E-01  1.916E-02
      2626.     29.649  1.395E-01  1.689E-02
      2626.     32.628  1.533E-01  1.265E-02
      2626.     36.776  1.552E-01  1.463E-02
      2626.     40.330  1.565E-01  1.896E-02
      2626.     43.298  1.626E-01  2.151E-02
      2626.     47.045  1.598E-01  1.997E-02
      2626.     49.971  1.351E-01  1.638E-02
      2626.     53.127  1.339E-01  1.572E-02
      2626.     59.782  1.016E-01  9.580E-03
      2626.     65.140  1.170E-01  1.507E-02
      2626.     90.284  6.473E-02  1.186E-02
      2718.     26.869  2.112E-01  2.674E-02
      2718.     32.085  2.550E-01  3.074E-02
      2718.     34.956  3.150E-01  3.784E-02
      2718.     38.963  3.607E-01  4.473E-02
      2718.     42.271  3.403E-01  3.830E-02
      2718.     45.171  3.126E-01  3.514E-02
      2718.     48.752  3.382E-01  4.194E-02
      2718.     52.194  2.857E-01  3.427E-02
      2718.     54.947  2.867E-01  3.674E-02
      2718.     58.852  2.740E-01  2.649E-02
      2718.     66.805  2.281E-01  2.748E-02
      2718.     71.859  2.067E-01  3.040E-02
      2718.     77.056  1.707E-01  2.577E-02
      2718.     92.113  1.495E-01  2.253E-02
      2752.     15.909  1.407E-01  2.784E-02
      2752.     23.311  1.581E-01  2.555E-02
      2752.     26.568  1.831E-01  2.200E-02
      2752.     28.801  2.284E-01  2.834E-02
      2752.     36.165  2.743E-01  4.435E-02
      2752.     39.190  2.395E-01  3.244E-02
      2752.     42.786  2.156E-01  3.249E-02
      2752.     46.572  1.967E-01  3.182E-02
      2752.     49.368  1.818E-01  1.751E-02
      2752.     53.457  1.945E-01  2.707E-02
      2752.     56.487  1.683E-01  2.341E-02
      2752.     66.494  1.223E-01  2.633E-02
      2752.     71.363  1.320E-01  2.181E-02
      2752.     76.915  1.210E-01  1.217E-02
      2752.     86.892  9.272E-02  8.951E-03
      2785.     18.503  8.368E-02  1.620E-02
      2785.     28.655  1.057E-01  2.083E-02
      2785.     31.338  1.340E-01  2.360E-02
      2785.     34.845  1.493E-01  1.810E-02
      2785.     38.394  1.431E-01  2.263E-02
      2785.     41.556  1.342E-01  1.777E-02
      2785.     45.280  1.390E-01  2.249E-02
      2785.     48.448  1.276E-01  1.831E-02
      2785.     51.625  1.136E-01  1.714E-02
      2785.     55.358  1.142E-01  1.425E-02
      2785.     59.113  1.057E-01  1.199E-02
      2785.     68.777  9.343E-02  1.236E-02
      2785.     73.708  8.764E-02  1.029E-02
      2785.     78.618  8.846E-02  1.264E-02
      2785.     88.988  5.172E-02  6.851E-03
      2980.     19.847  5.608E-02  1.651E-02
      2980.     22.205  4.978E-02  1.142E-02
      2980.     25.545  6.099E-02  1.099E-02
      2980.     29.672  5.683E-02  1.284E-02
      2980.     32.423  7.505E-02  1.215E-02
      2980.     42.445  1.188E-01  1.835E-02
      2980.     46.375  1.198E-01  1.984E-02
      2980.     49.519  1.172E-01  1.723E-02
      2980.     56.396  1.022E-01  1.308E-02
      2980.     59.540  8.198E-02  1.049E-02
      2980.     74.671  5.510E-02  8.715E-03
      2980.     80.173  6.019E-02  8.160E-03
      2980.     89.802  3.390E-02  5.317E-03
ENDDATA            259
ENDSUBENT          280
SUBENT        C2510006   20210618   20220015   20211208       C204
BIB                  4         12
REACTION   (60-ND-144(D,P)60-ND-145,PAR,DA) Angular momentum
           transfer l=5.
DETECTOR   (SIBAR) The reaction products were detected by two
           cooled 2000 mu-m depletion-depth surface-barrier
           detectors mounted 10 degrees apart on the
           scattering-chamber turntable. The detector
           collimators subtended about 2 degrees in the
           scattering plane. The energy resolutions were 15.5
           and 17.5 keV for the two detectors.
ERR-ANALYS (DATA-ERR) No information on source of uncertainty.
STATUS     (CURVE) Fig.7 (p.543) in Nucl.Phys.A,202,535,1973 was
           digitized by GSYS2.4.7.
ENDBIB              12
COMMON               1          3
EN
MEV
12.6
ENDCOMMON            3
DATA                 4         43
E-LVL      ANG-CM     DATA-CM    DATA-ERR
KEV        ADEG       MB/SR      MB/SR
       746.     19.053  4.857E-02  1.090E-02
       746.     21.793  3.584E-02  8.575E-03
       746.     23.959  3.725E-02  5.686E-03
       746.     25.704  5.848E-02  1.823E-02
       746.     29.132  3.949E-02  8.389E-03
       746.     31.959  4.267E-02  8.013E-03
       746.     34.134  4.252E-02  8.634E-03
       746.     35.728  6.178E-02  8.819E-03
       746.     39.014  8.156E-02  9.632E-03
       746.     41.803  1.060E-01  1.436E-02
       746.     45.964  1.168E-01  1.153E-02
       746.     48.606  1.368E-01  1.974E-02
       746.     51.453  1.347E-01  1.189E-02
       746.     55.481  1.258E-01  1.155E-02
       746.     58.807  1.380E-01  2.197E-02
       746.     63.696  1.148E-01  1.356E-02
       746.     68.713  1.153E-01  1.214E-02
       746.     73.775  9.333E-02  1.018E-02
       746.     78.950  9.780E-02  8.981E-03
       746.     88.717  7.167E-02  8.309E-03
      1109.     27.471  3.679E-02  1.009E-02
      1109.     31.186  4.966E-02  1.108E-02
      1109.     36.077  5.167E-02  1.137E-02
      1109.     40.996  6.310E-02  7.491E-03
      1109.     43.831  8.152E-02  8.940E-03
      1109.     47.888  1.053E-01  1.042E-02
      1109.     51.041  1.140E-01  1.087E-02
      1109.     54.006  1.136E-01  1.366E-02
      1109.     58.038  1.280E-01  1.173E-02
      1109.     61.380  1.502E-01  1.322E-02
      1109.     66.266  1.514E-01  1.388E-02
      1109.     71.306  1.369E-01  1.155E-02
      1109.     76.183  1.309E-01  1.436E-02
      1109.     81.246  1.351E-01  1.287E-02
      1109.     90.967  1.032E-01  1.205E-02
      1846.     19.998  3.147E-02  8.693E-03
      1846.     26.436  4.200E-02  9.010E-03
      1846.     30.146  3.261E-02  1.017E-02
      1846.     32.903  4.489E-02  8.373E-03
      1846.     34.673  3.902E-02  1.300E-02
      1846.     36.584  4.336E-02  4.175E-03
      1846.     39.567  4.106E-02  4.671E-03
      1846.     42.526  4.634E-02  4.300E-03
ENDDATA             45
ENDSUBENT           66
SUBENT        C2510007   20210618   20220015   20211208       C204
BIB                  4         12
REACTION   (60-ND-144(D,P)60-ND-145,PAR,DA) Angular momentum
           transfer l=6.
DETECTOR   (SIBAR) The reaction products were detected by two
           cooled 2000 mu-m depletion-depth surface-barrier
           detectors mounted 10 degrees apart on the
           scattering-chamber turntable. The detector
           collimators subtended about 2 degrees in the
           scattering plane. The energy resolutions were 15.5
           and 17.5 keV for the two detectors.
ERR-ANALYS (DATA-ERR) No information on source of uncertainty.
STATUS     (CURVE) Fig.7 (p.543) in Nucl.Phys.A,202,535,1973 was
           digitized by GSYS2.4.7.
ENDBIB              12
COMMON               1          3
EN
MEV
12.6
ENDCOMMON            3
DATA                 4          8
E-LVL      ANG-CM     DATA-CM    DATA-ERR
KEV        ADEG       MB/SR      MB/SR
      1846.     46.572  3.998E-02  7.458E-03
      1846.     56.694  4.995E-02  8.837E-03
      1846.     59.632  6.639E-02  5.922E-03
      1846.     64.508  7.976E-02  7.397E-03
      1846.     70.103  8.328E-02  7.434E-03
      1846.     75.372  7.297E-02  7.027E-03
      1846.     79.745  7.443E-02  6.644E-03
      1846.     90.450  6.059E-02  5.622E-03
ENDDATA             10
ENDSUBENT           31
SUBENT        C2510008   20210618   20220015   20211208       C204
BIB                  4         12
REACTION   (60-ND-144(D,P)60-ND-145,PAR,DA) Angular momentum
           transfer l=1 + l=3.
DETECTOR   (SIBAR) The reaction products were detected by two
           cooled 2000 mu-m depletion-depth surface-barrier
           detectors mounted 10 degrees apart on the
           scattering-chamber turntable. The detector
           collimators subtended about 2 degrees in the
           scattering plane. The energy resolutions were 15.5
           and 17.5 keV for the two detectors.
ERR-ANALYS (DATA-ERR) No information on source of uncertainty.
STATUS     (CURVE) Fig.7 (p.543) in Nucl.Phys.A,202,535,1973 was
           digitized by GSYS2.4.7.
ENDBIB              12
COMMON               1          3
EN
MEV
12.6
ENDCOMMON            3
DATA                 4         20
E-LVL      ANG-CM     DATA-CM    DATA-ERR
KEV        ADEG       MB/SR      MB/SR
        67.     19.951  3.438E-01  6.454E-02
        67.     22.935  3.217E-01  5.726E-02
        67.     24.665  3.387E-01  3.039E-02
        67.     26.799  2.930E-01  2.734E-02
        67.     29.942  2.897E-01  2.604E-02
        67.     32.571  2.776E-01  2.690E-02
        67.     34.815  3.015E-01  2.710E-02
        67.     36.218  2.934E-01  2.741E-02
        67.     40.060  2.890E-01  1.544E-02
        67.     42.702  2.642E-01  1.898E-02
        67.     46.905  2.492E-01  1.517E-02
        67.     50.223  2.455E-01  1.314E-02
        67.     52.672  2.398E-01  1.458E-02
        67.     56.847  2.496E-01  1.149E-02
        67.     59.643  2.448E-01  1.489E-02
        67.     64.711  2.365E-01  1.613E-02
        67.     70.029  1.764E-01  1.268E-02
        67.     75.188  1.240E-01  8.002E-03
        67.     80.288  1.073E-01  7.324E-03
        67.     90.444  9.369E-02  5.004E-03
ENDDATA             22
ENDSUBENT           43
SUBENT        C2510009   20210618   20220015   20211208       C204
BIB                  5         15
REACTION   (60-ND-144(D,T)60-ND-143,PAR,DA)
DETECTOR   (SIBAR) The reaction products were detected by two
           cooled 2000 mu-m depletion-depth surface-barrier
           detectors mounted 10 degrees apart on the
           scattering-chamber turntable. The detector
           collimators subtended about 2 degrees in the
           scattering plane. The energy resolutions were 15.5
           and 17.5 keV for the two detectors.
ERR-ANALYS (DATA-ERR) No information on source of uncertainty.
FLAG       (1.) Angular momentum transfer l=1.
           (2.) Angular momentum transfer l=2.
           (3.) Angular momentum transfer l=3.
           (4.) Angular momentum transfer l=0.
STATUS     (CURVE) Fig.8 (p.543) in Nucl.Phys.A,202,535,1973 was
           digitized by GSYS2.4.7.
ENDBIB              15
COMMON               1          3
EN
MEV
12.6
ENDCOMMON            3
DATA                 5         78
E-LVL      ANG-CM     DATA-CM    DATA-ERR   FLAG
KEV        ADEG       MB/SR      MB/SR      NO-DIM
         0.     30.082  5.021E-01  8.521E-02         3.
         0.     37.033  6.281E-01  3.553E-02         3.
         0.     40.508  5.795E-01  1.029E-02         3.
         0.     43.166  6.310E-01  7.160E-02         3.
         0.     47.050  6.778E-01  8.713E-02         3.
         0.     50.526  7.026E-01  6.240E-02         3.
         0.     52.979  7.581E-01  6.185E-02         3.
         0.     60.747  6.901E-01  7.586E-02         3.
         0.     65.449  5.667E-01  7.124E-02         3.
         0.     70.560  4.999E-01  5.891E-02         3.
         0.     75.671  4.550E-01  3.712E-02         3.
         0.     80.577  4.489E-01  3.291E-02         3.
         0.     91.412  3.855E-01  3.929E-02         3.
       737.     33.716  2.427E-01  4.264E-02         1.
       737.     38.465  2.851E-01  1.767E-02         1.
       737.     41.559  3.126E-01  2.497E-02         1.
       737.     44.856  3.411E-01  3.130E-02         1.
       737.     48.489  2.914E-01  2.449E-02         1.
       737.     51.707  2.432E-01  2.752E-02         1.
       737.     58.641  2.298E-01  3.608E-02         1.
       737.     66.638  2.495E-01  2.618E-02         1.
       737.     76.379  1.950E-01  1.555E-02         1.
       737.     81.649  1.673E-01  1.263E-02         1.
       737.     91.621  1.434E-01  8.996E-03         1.
      1297.     43.242  5.361E-02  8.608E-03         1.
      1297.     47.489  4.974E-02  5.702E-03         1.
      1297.     50.690  4.299E-02  7.178E-03         1.
      1297.     53.973  4.567E-02  5.507E-03         1.
      1297.     66.600  4.545E-02  3.825E-03         1.
      1297.     90.938  3.506E-02  7.202E-03         1.
      1545.     26.252  2.110E-01  2.819E-02         2.
      1545.     36.469  2.940E-01  4.861E-02         2.
      1545.     39.612  3.676E-01  3.867E-02         2.
      1545.     42.351  4.573E-01  3.974E-02         2.
      1545.     46.583  5.000E-01  5.472E-02         2.
      1545.     49.139  5.966E-01  5.033E-02         2.
      1545.     52.362  6.401E-01  5.946E-02         2.
      1545.     56.009  6.649E-01  5.602E-02         2.
      1545.     59.090  6.324E-01  5.334E-02         2.
      1545.     63.993  6.159E-01  4.134E-02         2.
      1545.     74.042  5.399E-01  4.554E-02         2.
      1545.     89.990  4.807E-01  4.055E-02         2.
      1596.     21.949  2.170E-01  1.620E-02         4.
      1596.     31.304  4.059E-01  7.667E-02         4.
      1596.     34.919  4.200E-01  3.492E-02         4.
      1596.     37.848  4.610E-01  7.331E-02         4.
      1596.     41.465  3.483E-01  4.594E-02         4.
      1596.     44.883  3.588E-01  2.974E-02         4.
      1596.     47.877  3.745E-01  4.813E-02         4.
      1596.     52.040  3.475E-01  3.141E-02         4.
      1596.     55.063  3.546E-01  2.778E-02         4.
      1596.     59.847  4.468E-01  6.240E-02         4.
      1596.     64.687  4.606E-01  5.314E-02         4.
      1596.     69.410  3.798E-01  3.116E-02         4.
      1596.     75.145  3.676E-01  2.136E-02         4.
      1596.     85.787  2.547E-01  2.224E-02         4.
      1761.     27.233  1.557E-01  2.219E-02         4.
      1761.     30.485  1.961E-01  2.946E-02         4.
      1761.     33.330  2.034E-01  2.418E-02         4.
      1761.     40.443  2.515E-01  1.861E-02         4.
      1761.     43.695  2.350E-01  1.640E-02         4.
      1761.     47.759  2.704E-01  4.061E-02         4.
      1761.     50.808  2.538E-01  2.506E-02         4.
      1761.     53.856  2.679E-01  3.398E-02         4.
      1761.     58.124  2.415E-01  2.166E-02         4.
      1761.     61.173  2.728E-01  2.132E-02         4.
      1761.     65.847  2.667E-01  2.416E-02         4.
      1761.     70.928  2.867E-01  3.286E-02         4.
      1761.     75.805  2.538E-01  3.018E-02         4.
      1761.     80.683  2.448E-01  1.397E-02         4.
      1761.     90.641  1.736E-01  1.995E-02         4.
      1975.     47.791  3.745E-02  7.768E-03         2.
      1975.     54.067  5.082E-02  1.213E-02         2.
      1975.     61.114  4.535E-02  1.088E-02         2.
      1975.     65.947  4.203E-02  7.628E-03         2.
      1975.     71.011  4.081E-02  7.433E-03         2.
      1975.     81.216  4.383E-02  4.728E-03         2.
      1975.     91.056  3.578E-02  5.549E-03         2.
ENDDATA             80
ENDSUBENT          104
SUBENT        C2510010   20210618   20220015   20211208       C204
BIB                  4          8
REACTION   (60-ND-144(P,EL)60-ND-144,,DA)
DETECTOR   (SIBAR) The scattered particles were detected by an
           array of four surface-barrier detectors cooled to
           -15 degrees C at lab angles of 170, 155, 140 and 125
           degrees.
ERR-ANALYS No information on uncertainty.
STATUS     (CURVE) Fig.9 (p.546) in Nucl.Phys.A,202,535,1973 was
           digitized by GSYS2.4.7.BIB
ENDBIB               8
NOCOMMON             0          0
DATA                 3        519
ANG-CM     EN-CM      DATA-CM
ADEG       MEV        MB/SR
      125.4      9.319  6.085E+01
      125.4      9.360  5.874E+01
      125.4      9.410  5.808E+01
      125.4      9.463  5.578E+01
      125.4      9.513  5.464E+01
      125.4      9.535  5.348E+01
      125.4      9.555  5.212E+01
      125.4      9.572  5.131E+01
      125.4      9.582  5.028E+01
      125.4      9.594  4.891E+01
      125.4      9.605  4.823E+01
      125.4      9.614  4.686E+01
      125.4      9.626  4.646E+01
      125.4      9.636  4.557E+01
      125.4      9.646  4.620E+01
      125.4      9.655  4.833E+01
      125.4      9.664  5.006E+01
      125.4      9.670  5.171E+01
      125.4      9.686  5.351E+01
      125.4      9.713  5.290E+01
      125.4      9.723  5.442E+01
      125.4      9.740  5.422E+01
      125.4      9.748  5.526E+01
      125.4      9.762  5.534E+01
      125.4      9.774  5.473E+01
      125.4      9.792  5.432E+01
      125.4      9.808  5.392E+01
      125.4      9.820  5.345E+01
      125.4      9.836  5.236E+01
      125.4      9.848  5.202E+01
      125.4      9.857  5.134E+01
      125.4      9.870  5.169E+01
      125.4      9.887  5.142E+01
      125.4      9.891  5.019E+01
      125.4      9.910  5.041E+01
      125.4      9.921  5.021E+01
      125.4      9.928  4.987E+01
      125.4      9.938  4.967E+01
      125.4      9.953  4.940E+01
      125.4      9.973  4.872E+01
      125.4      9.994  4.812E+01
      125.4     10.011  4.785E+01
      125.4     10.032  4.773E+01
      125.4     10.052  4.726E+01
      125.4     10.077  4.672E+01
      125.4     10.097  4.619E+01
      125.4     10.118  4.565E+01
      125.4     10.137  4.532E+01
      125.4     10.152  4.491E+01
      125.4     10.165  4.458E+01
      125.4     10.179  4.424E+01
      125.4     10.191  4.377E+01
      125.4     10.202  4.343E+01
      125.4     10.217  4.303E+01
      125.4     10.237  4.242E+01
      125.4     10.251  4.208E+01
      125.4     10.262  4.161E+01
      125.4     10.274  4.120E+01
      125.4     10.282  4.087E+01
      125.4     10.291  3.956E+01
      125.4     10.302  4.019E+01
      125.4     10.317  3.841E+01
      125.4     10.324  3.793E+01
      125.4     10.334  3.801E+01
      125.4     10.350  3.712E+01
      125.4     10.357  3.630E+01
      125.4     10.365  3.500E+01
      125.4     10.376  3.384E+01
      125.4     10.387  3.282E+01
      125.4     10.397  3.110E+01
      125.4     10.403  3.028E+01
      125.4     10.414  2.946E+01
      125.4     10.433  2.982E+01
      125.4     10.438  3.092E+01
      125.4     10.446  3.237E+01
      125.4     10.459  3.375E+01
      125.4     10.468  3.465E+01
      125.4     10.478  3.576E+01
      125.4     10.485  3.617E+01
      125.4     10.495  3.659E+01
      125.4     10.508  3.632E+01
      125.4     10.520  3.619E+01
      125.4     10.529  3.537E+01
      125.4     10.536  3.455E+01
      125.4     10.549  3.367E+01
      125.4     10.557  3.312E+01
      125.4     10.568  3.299E+01
      125.4     10.581  3.321E+01
      125.4     10.591  3.397E+01
      125.4     10.597  3.500E+01
      125.4     10.610  3.687E+01
      125.4     10.612  3.879E+01
      125.4     10.624  3.983E+01
      125.4     10.633  4.052E+01
      125.4     10.646  4.046E+01
      125.4     10.657  4.081E+01
      125.4     10.668  4.096E+01
      125.4     10.680  4.096E+01
      125.4     10.685  4.042E+01
      125.4     10.697  4.056E+01
      125.4     10.709  4.029E+01
      125.4     10.718  3.995E+01
      125.4     10.728  3.982E+01
      125.4     10.741  3.969E+01
      125.4     10.749  3.935E+01
      125.4     10.758  3.922E+01
      125.4     10.768  3.895E+01
      125.4     10.779  3.875E+01
      125.4     10.788  3.848E+01
      125.4     10.801  3.842E+01
      125.4     10.815  3.774E+01
      125.4     10.825  3.761E+01
      125.4     10.829  3.720E+01
      125.4     10.841  3.721E+01
      125.4     10.852  3.701E+01
      125.4     10.857  3.646E+01
      125.4     10.868  3.633E+01
      125.4     10.876  3.634E+01
      125.4     10.892  3.621E+01
      140.3      9.328  4.656E+01
      140.3      9.366  4.478E+01
      140.3      9.413  4.384E+01
      140.3      9.462  4.276E+01
      140.3      9.514  4.196E+01
      140.3      9.536  4.156E+01
      140.3      9.559  4.088E+01
      140.3      9.574  4.055E+01
      140.3      9.586  4.069E+01
      140.3      9.594  4.028E+01
      140.3      9.599  3.987E+01
      140.3      9.610  3.967E+01
      140.3      9.623  3.968E+01
      140.3      9.628  3.926E+01
      140.3      9.641  3.899E+01
      140.3      9.651  3.900E+01
      140.3      9.661  3.866E+01
      140.3      9.668  3.818E+01
      140.3      9.681  3.812E+01
      140.3      9.690  3.799E+01
      140.3      9.700  3.771E+01
      140.3      9.704  3.723E+01
      140.3      9.716  3.682E+01
      140.3      9.722  3.808E+01
      140.3      9.736  3.850E+01
      140.3      9.745  3.788E+01
      140.3      9.762  3.894E+01
      140.3      9.765  3.818E+01
      140.3      9.778  3.777E+01
      140.3      9.796  3.820E+01
      140.3      9.807  3.807E+01
      140.3      9.810  3.758E+01
      140.3      9.819  3.793E+01
      140.3      9.824  3.745E+01
      140.3      9.834  3.725E+01
      140.3      9.844  3.677E+01
      140.3      9.849  3.636E+01
      140.3      9.857  3.616E+01
      140.3      9.867  3.616E+01
      140.3      9.874  3.610E+01
      140.3      9.884  3.583E+01
      140.3      9.896  3.507E+01
      140.3      9.907  3.522E+01
      140.3      9.917  3.508E+01
      140.3      9.926  3.467E+01
      140.3      9.938  3.468E+01
      140.3      9.953  3.421E+01
      140.3      9.973  3.366E+01
      140.3      9.994  3.305E+01
      140.3     10.015  3.265E+01
      140.3     10.035  3.253E+01
      140.3     10.054  3.233E+01
      140.3     10.077  3.144E+01
      140.3     10.095  3.118E+01
      140.3     10.118  3.043E+01
      140.3     10.134  3.009E+01
      140.3     10.149  2.969E+01
      140.3     10.165  2.942E+01
      140.3     10.176  2.908E+01
      140.3     10.191  2.860E+01
      140.3     10.202  2.833E+01
      140.3     10.216  2.779E+01
      140.3     10.228  2.752E+01
      140.3     10.236  2.690E+01
      140.3     10.248  2.691E+01
      140.3     10.259  2.650E+01
      140.3     10.266  2.595E+01
      140.3     10.275  2.575E+01
      140.3     10.285  2.541E+01
      140.3     10.294  2.506E+01
      140.3     10.301  2.465E+01
      140.3     10.308  2.410E+01
      140.3     10.315  2.306E+01
      140.3     10.321  2.258E+01
      140.3     10.337  2.245E+01
      140.3     10.344  2.190E+01
      140.3     10.357  2.080E+01
      140.3     10.369  1.963E+01
      140.3     10.376  1.852E+01
      140.3     10.388  1.770E+01
      140.3     10.395  1.673E+01
      140.3     10.411  1.688E+01
      140.3     10.425  1.703E+01
      140.3     10.430  1.884E+01
      140.3     10.438  2.051E+01
      140.3     10.444  2.267E+01
      140.3     10.457  2.427E+01
      140.3     10.466  2.546E+01
      140.3     10.479  2.602E+01
      140.3     10.489  2.652E+01
      140.3     10.501  2.632E+01
      140.3     10.518  2.577E+01
      140.3     10.531  2.536E+01
      140.3     10.534  2.474E+01
      140.3     10.543  2.433E+01
      140.3     10.561  2.414E+01
      140.3     10.571  2.470E+01
      140.3     10.577  2.546E+01
      140.3     10.583  2.651E+01
      140.3     10.594  2.728E+01
      140.3     10.604  2.784E+01
      140.3     10.615  2.841E+01
      140.3     10.622  2.862E+01
      140.3     10.637  2.856E+01
      140.3     10.652  2.864E+01
      140.3     10.665  2.837E+01
      140.3     10.679  2.831E+01
      140.3     10.688  2.769E+01
      140.3     10.705  2.770E+01
      140.3     10.718  2.709E+01
      140.3     10.732  2.710E+01
      140.3     10.748  2.662E+01
      140.3     10.759  2.642E+01
      140.3     10.770  2.608E+01
      140.3     10.783  2.581E+01
      140.3     10.796  2.589E+01
      140.3     10.807  2.604E+01
      140.3     10.819  2.549E+01
      140.3     10.831  2.536E+01
      140.3     10.840  2.502E+01
      140.3     10.853  2.482E+01
      140.3     10.867  2.476E+01
      140.3     10.880  2.456E+01
      155.2     9.3377  3.803E+01
      155.2     9.3853  3.673E+01
      155.2     9.4346  3.587E+01
      155.2     9.4834  3.513E+01
      155.2     9.5344  3.508E+01
      155.2     9.5556  3.508E+01
      155.2     9.5755  3.495E+01
      155.2     9.5825  3.559E+01
      155.2     9.5952  3.552E+01
      155.2     9.6051  3.580E+01
      155.2     9.6150  3.602E+01
      155.2     9.6234  3.602E+01
      155.2     9.6347  3.631E+01
      155.2     9.6461  3.617E+01
      155.2     9.6561  3.498E+01
      155.2     9.6635  3.272E+01
      155.2     9.6725  2.921E+01
      155.2     9.6828  2.625E+01
      155.2     9.6915  2.485E+01
      155.2     9.7015  2.393E+01
      155.2     9.7114  2.351E+01
      155.2     9.7186  2.309E+01
      155.2     9.7313  2.338E+01
      155.2     9.7396  2.472E+01
      155.2     9.7425  2.402E+01
      155.2     9.7480  2.529E+01
      155.2     9.7566  2.487E+01
      155.2     9.7693  2.522E+01
      155.2     9.7763  2.565E+01
      155.2     9.7861  2.607E+01
      155.2     9.7989  2.615E+01
      155.2     9.8131  2.587E+01
      155.2     9.8215  2.594E+01
      155.2     9.8343  2.588E+01
      155.2     9.8428  2.574E+01
      155.2     9.8513  2.553E+01
      155.2     9.8598  2.539E+01
      155.2     9.8698  2.512E+01
      155.2     9.8882  2.526E+01
      155.2     9.8981  2.527E+01
      155.2     9.9038  2.485E+01
      155.2     9.9208  2.471E+01
      155.2     9.9307  2.443E+01
      155.2     9.9449  2.422E+01
      155.2     9.9591  2.381E+01
      155.2     9.9761  2.395E+01
      155.2     9.9931  2.361E+01
      155.2    10.0102  2.284E+01
      155.2    10.0286  2.256E+01
      155.2    10.0527  2.257E+01
      155.2    10.0711  2.236E+01
      155.2    10.0910  2.216E+01
      155.2    10.1095  2.146E+01
      155.2    10.1308  2.083E+01
      155.2    10.1478  2.056E+01
      155.2    10.1563  2.035E+01
      155.2    10.1719  2.000E+01
      155.2    10.1861  1.973E+01
      155.2    10.1989  1.938E+01
      155.2    10.2075  1.896E+01
      155.2    10.2216  1.889E+01
      155.2    10.2274  1.819E+01
      155.2    10.2429  1.855E+01
      155.2    10.2430  1.798E+01
      155.2    10.2515  1.771E+01
      155.2    10.2657  1.778E+01
      155.2    10.2714  1.736E+01
      155.2    10.2799  1.701E+01
      155.2    10.2913  1.652E+01
      155.2    10.3013  1.603E+01
      155.2    10.3098  1.554E+01
      155.2    10.3226  1.548E+01
      155.2    10.3270  1.449E+01
      155.2    10.3341  1.386E+01
      155.2    10.3483  1.386E+01
      155.2    10.3583  1.288E+01
      155.2    10.3683  1.218E+01
      155.2    10.3769  1.141E+01
      155.2    10.3912  1.064E+01
      155.2    10.3997  1.036E+01
      155.2    10.4124  1.029E+01
      155.2    10.4237  1.079E+01
      155.2    10.4264  1.220E+01
      155.2    10.4374  1.460E+01
      155.2    10.4470  1.678E+01
      155.2    10.4594  1.932E+01
      155.2    10.4705  2.081E+01
      155.2    10.4760  2.222E+01
      155.2    10.4929  2.243E+01
      155.2    10.5085  2.223E+01
      155.2    10.5185  2.153E+01
      155.2    10.5327  2.118E+01
      155.2    10.5441  2.055E+01
      155.2    10.5583  2.034E+01
      155.2    10.5794  2.133E+01
      155.2    10.5878  2.225E+01
      155.2    10.5977  2.254E+01
      155.2    10.6062  2.205E+01
      155.2    10.6191  2.128E+01
      155.2    10.6277  2.058E+01
      155.2    10.6489  2.037E+01
      155.2    10.6659  2.045E+01
      155.2    10.6843  2.052E+01
      155.2    10.6985  2.025E+01
      155.2    10.7169  2.018E+01
      155.2    10.7325  2.005E+01
      155.2    10.7537  1.984E+01
      155.2    10.7693  1.978E+01
      155.2    10.7835  1.950E+01
      155.2    10.7977  1.922E+01
      155.2    10.8090  1.923E+01
      155.2    10.8246  1.930E+01
      155.2    10.8387  1.924E+01
      155.2    10.8444  1.903E+01
      155.2    10.8558  1.889E+01
      155.2    10.8657  1.868E+01
      155.2    10.8742  1.868E+01
      155.2    10.8884  1.855E+01
      170.1     9.3299  3.376E+01
      170.1     9.3794  3.316E+01
      170.1     9.4319  3.240E+01
      170.1     9.4848  3.156E+01
      170.1     9.5301  3.190E+01
      170.1     9.5528  3.190E+01
      170.1     9.5738  3.277E+01
      170.1     9.5860  3.324E+01
      170.1     9.6075  3.417E+01
      170.1     9.6094  3.322E+01
      170.1     9.6321  3.434E+01
      170.1     9.6414  3.407E+01
      170.1     9.6567  3.167E+01
      170.1     9.6626  2.822E+01
      170.1     9.6685  2.554E+01
      170.1     9.6762  2.290E+01
      170.1     9.6840  1.851E+01
      170.1     9.6955  1.620E+01
      170.1     9.6992  1.561E+01
      170.1     9.7173  1.561E+01
      170.1     9.7281  1.597E+01
      170.1     9.7371  1.630E+01
      170.1     9.7446  1.785E+01
      170.1     9.7559  1.856E+01
      170.1     9.7690  1.913E+01
      170.1     9.7766  1.955E+01
      170.1     9.7935  2.002E+01
      170.1     9.8181  2.040E+01
      170.1     9.8370  2.054E+01
      170.1     9.8521  2.031E+01
      170.1     9.8710  2.012E+01
      170.1     9.8880  2.003E+01
      170.1     9.9050  2.003E+01
      170.1     9.9240  1.975E+01
      170.1     9.9353  1.956E+01
      170.1     9.9485  1.956E+01
      170.1     9.9580  1.942E+01
      170.1     9.9769  1.923E+01
      170.1     9.9939  1.923E+01
      170.1    10.0166  1.871E+01
      170.1    10.0336  1.852E+01
      170.1    10.0469  1.857E+01
      170.1    10.0620  1.810E+01
      170.1    10.0923  1.773E+01
      170.1    10.1036  1.740E+01
      170.1    10.1093  1.740E+01
      170.1    10.1282  1.674E+01
      170.1    10.1491  1.645E+01
      170.1    10.1661  1.622E+01
      170.1    10.1906  1.613E+01
      170.1    10.2058  1.575E+01
      170.1    10.2190  1.556E+01
      170.1    10.2304  1.528E+01
      170.1    10.2361  1.500E+01
      170.1    10.2437  1.481E+01
      170.1    10.2550  1.448E+01
      170.1    10.2645  1.410E+01
      170.1    10.2721  1.382E+01
      170.1    10.2815  1.363E+01
      170.1    10.2891  1.339E+01
      170.1    10.2967  1.307E+01
      170.1    10.3024  1.288E+01
      170.1    10.3024  1.259E+01
      170.1    10.3100  1.226E+01
      170.1    10.3194  1.165E+01
      170.1    10.3308  1.104E+01
      170.1    10.3441  1.090E+01
      170.1    10.3516  1.062E+01
      170.1    10.3593  9.719E+00
      170.1    10.3744  9.296E+00
      170.1    10.3821  8.784E+00
      170.1    10.3948  8.694E+00
      170.1    10.4038  9.280E+00
      170.1    10.4073  1.041E+01
      170.1    10.4216  1.212E+01
      170.1    10.4341  1.541E+01
      170.1    10.4438  1.746E+01
      170.1    10.4549  2.015E+01
      170.1    10.4700  2.147E+01
      170.1    10.4751  2.217E+01
      170.1    10.4878  2.235E+01
      170.1    10.4968  2.199E+01
      170.1    10.5095  2.136E+01
      170.1    10.5258  2.100E+01
      170.1    10.5421  2.024E+01
      170.1    10.5583  2.028E+01
      170.1    10.5709  2.114E+01
      170.1    10.5871  2.155E+01
      170.1    10.5980  2.114E+01
      170.1    10.6107  1.974E+01
      170.1    10.6198  1.844E+01
      170.1    10.6271  1.731E+01
      170.1    10.6398  1.713E+01
      170.1    10.6542  1.736E+01
      170.1    10.6650  1.781E+01
      170.1    10.6776  1.821E+01
      170.1    10.7011  1.826E+01
      170.1    10.7155  1.844E+01
      170.1    10.7282  1.826E+01
      170.1    10.7462  1.822E+01
      170.1    10.7643  1.813E+01
      170.1    10.7751  1.813E+01
      170.1    10.7968  1.777E+01
      170.1    10.8131  1.759E+01
      170.1    10.8293  1.750E+01
      170.1    10.8438  1.741E+01
      170.1    10.8600  1.723E+01
      170.1    10.8763  1.692E+01
      170.1    10.8926  1.656E+01
      170.1    10.9034  1.620E+01
      170.1    10.9233  1.552E+01
      170.1    10.9432  1.498E+01
      170.1    10.9667  1.462E+01
      170.1    10.9776  1.381E+01
      170.1    10.9831  1.372E+01
      170.1    11.0066  1.300E+01
      170.1    11.0264  1.287E+01
      170.1    11.0409  1.323E+01
      170.1    11.0517  1.354E+01
      170.1    11.0770  1.341E+01
      170.1    11.0932  1.341E+01
      170.1    11.1221  1.341E+01
      170.1    11.1636  1.319E+01
      170.1    11.1745  1.292E+01
      170.1    11.2016  1.283E+01
      170.1    11.2304  1.292E+01
      170.1    11.2665  1.360E+01
      170.1    11.2719  1.369E+01
      170.1    11.3043  1.491E+01
      170.1    11.3206  1.500E+01
      170.1    11.3351  1.482E+01
      170.1    11.3550  1.423E+01
      170.1    11.3730  1.374E+01
      170.1    11.3947  1.329E+01
      170.1    11.4164  1.297E+01
      170.1    11.4273  1.261E+01
      170.1    11.4544  1.261E+01
      170.1    11.4688  1.298E+01
      170.1    11.5013  1.289E+01
      170.1    11.5302  1.293E+01
      170.1    11.5554  1.361E+01
      170.1    11.5698  1.397E+01
      170.1    11.5861  1.406E+01
      170.1    11.6005  1.388E+01
      170.1    11.6258  1.357E+01
      170.1    11.6475  1.307E+01
      170.1    11.6692  1.330E+01
      170.1    11.6872  1.307E+01
      170.1    11.7053  1.303E+01
      170.1    11.7270  1.312E+01
      170.1    11.7559  1.285E+01
      170.1    11.7884  1.263E+01
      170.1    11.8082  1.236E+01
      170.1    11.8300  1.191E+01
      170.1    11.8426  1.159E+01
      170.1    11.8642  1.209E+01
      170.1    11.8895  1.232E+01
      170.1    11.9057  1.241E+01
      170.1    11.9256  1.259E+01
ENDDATA            521
ENDSUBENT          534
SUBENT        C2510011   20210618   20220015   20211208       C204
BIB                  5         13
REACTION   (60-ND-144(P,INL)60-ND-144,PAR,DA)
LEVEL-PROP (60-ND-144,E-LVL=0.696,SPIN=2.,PARITY=+1.)
           (60-ND-144,E-LVL=1.312,SPIN=4.,PARITY=+1.)
           (60-ND-144,E-LVL=1.510,SPIN=3.,PARITY=-1.)
           (60-ND-144,E-LVL=1.560,SPIN=2.,PARITY=+1.)
           (60-ND-144,E-LVL=1.791,SPIN=6.,PARITY=+1.)
DETECTOR   (SIBAR) The scattered particles were detected by an
           array of four surface-barrier detectors cooled to
           -15 degrees C at lab angles of 170, 155, 140 and 125
           degrees.
ERR-ANALYS (DATA-ERR) No information on source of uncertainty.
STATUS     (CURVE) Fig.10 (p.548) in Nucl.Phys.A,202,535,1973 was
           digitized by GSYS2.4.7.BIB
ENDBIB              13
NOCOMMON             0          0
DATA                 5        779
E-LVL      ANG        EN-CM      DATA-CM    DATA-ERR
KEV        ADEG       MEV        MB/SR      MB/SR
       696.       170.    9.35629  3.566E-01
       696.       170.    9.40150  3.697E-01
       696.       170.    9.45576  4.008E-01
       696.       170.    9.50273  3.824E-01
       696.       170.    9.55696  3.865E-01
       696.       170.    9.57322  3.818E-01
       696.       170.    9.59309  3.772E-01
       696.       170.    9.61118  3.905E-01
       696.       170.    9.63109  4.084E-01
       696.       170.    9.64379  4.442E-01
       696.       170.    9.65467  4.756E-01
       696.       170.    9.66565  5.745E-01
       696.       170.    9.67484  6.958E-01
       696.       170.    9.68228  8.576E-01
       696.       170.    9.69500  9.070E-01
       696.       170.    9.70761  8.799E-01
       696.       170.    9.71115  8.169E-01
       696.       170.    9.72004  7.089E-01
       696.       170.    9.73264  6.684E-01
       696.       170.    9.74897  7.177E-01
       696.       170.    9.75811  7.941E-01
       696.       170.    9.76901  8.345E-01
       696.       170.    9.77804  8.344E-01
       696.       170.    9.78345  8.253E-01
       696.       170.    9.79430  8.253E-01
       696.       170.    9.80693  8.117E-01
       696.       170.    9.81773  7.711E-01
       696.       170.    9.83037  7.620E-01
       696.       170.    9.83936  7.305E-01
       696.       170.    9.83940  7.574E-01
       696.       170.    9.84475  7.034E-01
       696.       170.    9.85921  7.033E-01
       696.       170.    9.86823  6.943E-01
       696.       170.    9.87725  6.807E-01
       696.       170.    9.89711  6.580E-01
       696.       170.    9.90793  6.400E-01
       696.       170.    9.92057  6.309E-01
       696.       170.    9.93319  6.083E-01
       696.       170.    9.95126  6.037E-01
       696.       170.    9.96932  5.945E-01
       696.       170.    9.98198  6.034E-01
       696.       170.   10.00186  6.032E-01
       696.       170.   10.02893  5.671E-01
       696.       170.   10.04705  6.029E-01
       696.       170.   10.05609  6.073E-01
       696.       170.   10.07416  6.027E-01
       696.       170.   10.10488  5.979E-01
       696.       170.   10.11576  6.248E-01
       696.       170.   10.14104  6.066E-01
       696.       170.   10.16816  6.154E-01
       696.       170.   10.18080  6.063E-01
       696.       170.   10.18985  6.107E-01
       696.       170.   10.21520  6.465E-01
       696.       170.   10.22785  6.464E-01
       696.       170.   10.24050  6.463E-01
       696.       170.   10.25138  6.732E-01
       696.       170.   10.26584  6.731E-01
       696.       170.   10.27493  7.135E-01
       696.       170.   10.30387  7.312E-01
       696.       170.   10.31296  7.716E-01
       696.       170.   10.32387  8.255E-01
       696.       170.   10.32935  8.704E-01
       696.       170.   10.34565  8.928E-01
       696.       170.   10.35118  9.737E-01
       696.       170.   10.36027  1.014E+00
       696.       170.   10.37116  1.050E+00
       696.       170.   10.38580  1.189E+00
       696.       170.   10.39320  1.324E+00
       696.       170.   10.40604  1.468E+00
       696.       170.   10.41528  1.621E+00
       696.       170.   10.42106  1.895E+00
       696.       170.   10.42850  2.057E+00
       696.       170.   10.44492  2.178E+00
       696.       170.   10.45747  2.102E+00
       696.       170.   10.46451  1.953E+00
       696.       170.   10.46972  1.787E+00
       696.       170.   10.48234  1.764E+00
       696.       170.   10.48568  1.553E+00
       696.       170.   10.49265  1.350E+00
       696.       170.   10.50141  1.143E+00
       696.       170.   10.51201  9.544E-01
       696.       170.   10.51734  8.779E-01
       696.       170.   10.53175  8.463E-01
       696.       170.   10.54437  8.147E-01
       696.       170.   10.55702  8.191E-01
       696.       170.   10.57341  9.089E-01
       696.       170.   10.58252  9.673E-01
       696.       170.   10.59334  9.492E-01
       696.       170.   10.59895  1.093E+00
       696.       170.   10.60802  1.120E+00
       696.       170.   10.61891  1.151E+00
       696.       170.   10.62800  1.192E+00
       696.       170.   10.64251  1.237E+00
       696.       170.   10.65151  1.205E+00
       696.       170.   10.66950  1.137E+00
       696.       170.   10.67849  1.101E+00
       696.       170.   10.68744  1.038E+00
       696.       170.   10.69824  1.002E+00
       696.       170.   10.71443  9.393E-01
       696.       170.   10.72705  9.212E-01
       696.       170.   10.74511  9.076E-01
       696.       170.   10.75414  8.985E-01
       696.       170.   10.77399  8.758E-01
       696.       170.   10.77576  8.488E-01
       696.       170.   10.79200  8.307E-01
       696.       170.   10.80287  8.441E-01
       696.       170.   10.81916  8.620E-01
       696.       170.   10.82998  8.484E-01
       696.       170.   10.85275  8.908E-01
       696.       170.   10.85856  8.859E-01
       696.       170.   10.87015  8.666E-01
       696.       170.   10.87890  9.425E-01
       696.       170.   10.89342  9.828E-01
       696.       170.   10.89714  1.068E+00
       696.       170.   10.91164  1.095E+00
       696.       170.   10.92259  1.180E+00
       696.       170.   10.93540  1.302E+00
       696.       170.   10.94796  1.230E+00
       696.       170.   10.97504  1.207E+00
       696.       170.   10.98221  1.157E+00
       696.       170.   10.99293  1.067E+00
       696.       170.   11.00002  9.595E-01
       696.       170.   11.00707  8.200E-01
       696.       170.   11.01766  6.221E-01
       696.       170.   11.02839  5.365E-01
       696.       170.   11.04086  3.970E-01
       696.       170.   11.05523  3.250E-01
       696.       170.   11.06058  2.710E-01
       696.       170.   11.06966  2.979E-01
       696.       170.   11.09609  3.395E-01
       696.       170.   11.11489  3.335E-01
       696.       170.   11.13838  3.288E-01
       696.       170.   11.15644  3.197E-01
       696.       170.   11.17817  3.510E-01
       696.       170.   11.19811  3.958E-01
       696.       170.   11.22530  4.540E-01
       696.       170.   11.23801  4.989E-01
       696.       170.   11.25779  4.268E-01
       696.       170.   11.27580  3.772E-01
       696.       170.   11.29927  3.500E-01
       696.       170.   11.31735  3.588E-01
       696.       170.   11.33186  3.947E-01
       696.       170.   11.36259  4.034E-01
       696.       170.   11.38068  4.123E-01
       696.       170.   11.39519  4.527E-01
       696.       170.   11.41342  5.694E-01
       696.       170.   11.43708  6.996E-01
       696.       170.   11.45698  7.130E-01
       696.       170.   11.47667  5.599E-01
       696.       170.   11.49472  5.418E-01
       696.       170.   11.50913  5.102E-01
       696.       170.   11.53439  4.695E-01
       696.       170.   11.54877  4.154E-01
       696.       170.   11.57581  3.568E-01
       696.       170.   11.59219  4.421E-01
       696.       170.   11.59566  3.341E-01
       696.       170.   11.60657  3.835E-01
       696.       170.   11.62830  4.148E-01
       696.       170.   11.65370  4.865E-01
       696.       170.   11.67183  5.314E-01
       696.       170.   11.68986  4.997E-01
       696.       170.   11.70788  4.591E-01
       696.       170.   11.73498  4.454E-01
       696.       170.   11.75124  4.408E-01
       696.       170.   11.76749  4.272E-01
       696.       170.   11.79817  3.955E-01
       696.       170.   11.80906  4.268E-01
       696.       170.   11.83074  4.177E-01
       696.       170.   11.84870  3.366E-01
       696.       170.   11.87207  2.330E-01
       696.       170.   11.89190  1.923E-01
       696.       170.   11.91005  2.552E-01
       696.       170.   11.92641  3.270E-01
       696.       170.   11.95538  3.627E-01
      1312.       140.    9.34214  3.971E-02
      1312.       140.    9.39048  3.583E-02
      1312.       140.    9.44076  3.971E-02
      1312.       140.    9.48717  5.327E-02
      1312.       140.    9.54325  6.295E-02
      1312.       140.    9.55486  7.554E-02
      1312.       140.    9.58386  9.588E-02
      1312.       140.    9.60320  9.588E-02
      1312.       140.    9.61674  1.307E-01
      1312.       140.    9.62061  1.424E-01
      1312.       140.    9.63801  1.782E-01
      1312.       140.    9.64575  2.208E-01
      1312.       140.    9.65155  3.022E-01
      1312.       140.    9.65735  4.000E-01
      1312.       140.    9.66895  4.494E-01
      1312.       140.    9.68055  4.833E-01
      1312.       140.    9.69022  4.203E-01
      1312.       140.    9.69989  3.777E-01
      1312.       140.    9.70569  3.235E-01
      1312.       140.    9.71536  2.876E-01
      1312.       140.    9.72890  2.392E-01
      1312.       140.    9.74050  2.169E-01
      1312.       140.    9.75404  1.908E-01
      1312.       140.    9.75597  1.763E-01
      1312.       140.    9.77724  1.337E-01
      1312.       140.    9.78111  1.259E-01
      1312.       140.    9.79658  1.075E-01
      1312.       140.    9.80045  9.685E-02
      1312.       140.    9.81399  8.135E-02
      1312.       140.    9.82366  6.489E-02
      1312.       140.    9.82366  9.394E-02
      1312.       140.    9.84106  6.295E-02
      1312.       140.    9.85266  5.714E-02
      1312.       140.    9.85846  5.520E-02
      1312.       140.    9.87393  5.424E-02
      1312.       140.    9.88747  5.230E-02
      1312.       140.    9.90487  5.036E-02
      1312.       140.    9.92228  5.133E-02
      1312.       140.    9.93775  5.133E-02
      1312.       140.    9.95322  4.068E-02
      1312.       140.    9.97643  4.552E-02
      1312.       140.    9.99576  4.649E-02
      1312.       140.   10.01897  3.583E-02
      1312.       140.   10.03637  4.261E-02
      1312.       140.   10.05765  4.455E-02
      1312.       140.   10.07312  4.165E-02
      1312.       140.   10.09439  4.746E-02
      1312.       140.   10.11373  4.552E-02
      1312.       140.   10.12920  4.649E-02
      1312.       140.   10.15820  4.649E-02
      1312.       140.   10.17561  4.552E-02
      1312.       140.   10.19495  4.068E-02
      1312.       140.   10.20848  4.649E-02
      1312.       140.   10.21428  3.874E-02
      1312.       140.   10.23362  4.165E-02
      1312.       140.   10.24909  4.649E-02
      1312.       140.   10.26843  4.068E-02
      1312.       140.   10.28777  4.358E-02
      1312.       140.   10.30517  4.261E-02
      1312.       140.   10.31291  4.261E-02
      1312.       140.   10.32451  4.649E-02
      1312.       140.   10.33998  4.842E-02
      1312.       140.   10.35932  5.230E-02
      1312.       140.   10.38252  6.489E-02
      1312.       140.   10.39413  6.683E-02
      1312.       140.   10.40960  7.264E-02
      1312.       140.   10.43087  8.813E-02
      1312.       140.   10.44247  9.104E-02
      1312.       140.   10.45794  9.104E-02
      1312.       140.   10.47341  8.426E-02
      1312.       140.   10.48502  8.039E-02
      1312.       140.   10.49662  7.748E-02
      1312.       140.   10.51016  7.748E-02
      1312.       140.   10.52756  6.876E-02
      1312.       140.   10.53723  5.617E-02
      1312.       140.   10.54883  6.973E-02
      1312.       140.   10.56237  7.361E-02
      1312.       140.   10.57397  7.264E-02
      1312.       140.   10.59524  7.554E-02
      1312.       140.   10.60298  6.973E-02
      1312.       140.   10.61265  6.683E-02
      1312.       140.   10.62812  7.361E-02
      1312.       140.   10.64552  6.392E-02
      1312.       140.   10.66486  5.424E-02
      1312.       140.   10.67646  6.198E-02
      1312.       140.   10.68420  5.520E-02
      1312.       140.   10.69967  6.102E-02
      1312.       140.   10.70740  5.714E-02
      1312.       140.   10.71901  6.102E-02
      1312.       140.   10.72674  6.973E-02
      1312.       140.   10.74415  5.811E-02
      1312.       140.   10.76735  6.295E-02
      1312.       140.   10.79829  6.586E-02
      1312.       140.   10.82537  6.489E-02
      1312.       140.   10.84664  7.457E-02
      1312.       140.   10.85824  1.065E-01
      1312.       140.   10.86984  1.269E-01
      1312.       140.   10.88338  1.656E-01
      1312.       140.   10.90078  1.937E-01
      1312.       140.   10.91819  2.082E-01
      1312.       140.   10.93366  2.315E-01
      1312.       140.   10.95493  2.150E-01
      1312.       140.   10.95880  2.073E-01
      1312.       140.   10.96653  1.889E-01
      1312.       140.   10.98394  1.801E-01
      1312.       140.   10.99554  1.569E-01
      1312.       140.   11.00714  1.298E-01
      1312.       140.   11.01681  1.094E-01
      1312.       140.   11.02842  8.813E-02
      1312.       140.   11.04002  7.942E-02
      1312.       140.   11.04775  6.489E-02
      1312.       140.   11.06709  6.489E-02
      1312.       140.   11.07289  6.102E-02
      1312.       140.   11.08643  5.327E-02
      1312.       140.   11.11350  4.649E-02
      1312.       140.   11.12511  5.327E-02
      1312.       140.   11.14251  4.358E-02
      1312.       140.   11.16765  5.424E-02
      1312.       140.   11.17925  4.455E-02
      1312.       140.   11.20633  5.714E-02
      1312.       140.   11.22373  6.489E-02
      1312.       140.   11.24693  6.683E-02
      1312.       140.   11.26434  7.167E-02
      1312.       140.   11.27981  7.651E-02
      1312.       140.   11.30302  6.392E-02
      1312.       140.   11.32429  5.327E-02
      1312.       140.   11.34363  4.358E-02
      1312.       140.   11.35910  5.036E-02
      1312.       140.   11.38037  5.036E-02
      1312.       140.   11.39390  4.746E-02
      1312.       140.   11.42678  5.617E-02
      1312.       140.   11.44612  6.005E-02
      1312.       140.   11.45772  5.617E-02
      1312.       140.   11.47706  4.746E-02
      1312.       140.   11.49640  5.520E-02
      1312.       140.   11.51767  5.036E-02
      1312.       140.   11.54281  5.617E-02
      1312.       140.   11.56215  5.520E-02
      1312.       140.   11.58148  5.617E-02
      1312.       140.   11.59889  4.649E-02
      1312.       140.   11.61436  3.680E-02
      1312.       140.   11.62789  3.099E-02
      1312.       140.   11.64530  3.487E-02
      1312.       140.   11.67044  3.293E-02
      1312.       140.   11.70138  4.068E-02
      1312.       140.   11.71298  3.583E-02
      1312.       140.   11.73619  4.746E-02
      1312.       140.   11.75746  4.746E-02
      1312.       140.   11.77293  5.617E-02
      1312.       140.   11.79614  6.392E-02
      1312.       140.   11.81354  8.135E-02
      1312.       140.   11.83481  9.491E-02
      1312.       140.   11.84835  1.617E-01
      1312.       140.   11.85415  1.201E-01
      1312.       140.   11.87155  1.191E-01
      1312.       140.   11.88896  9.007E-02
      1312.       140.   11.91023  9.782E-02
      1312.       140.   11.93730  7.554E-02
      1510.       170.      9.338  9.888E-02
      1510.       170.      9.387  8.430E-02
      1510.       170.      9.437  8.715E-02
      1510.       170.      9.488  8.613E-02
      1510.       170.      9.540  8.607E-02
      1510.       170.      9.564  1.035E-01
      1510.       170.      9.587  8.602E-02
      1510.       170.      9.610  9.180E-02
      1510.       170.      9.624  9.082E-02
      1510.       170.      9.643  8.693E-02
      1510.       170.      9.655  7.337E-02
      1510.       170.      9.666  6.658E-02
      1510.       170.      9.682  4.236E-02
      1510.       170.      9.693  3.267E-02
      1510.       170.      9.707  4.814E-02
      1510.       170.      9.723  5.781E-02
      1510.       170.      9.734  5.392E-02
      1510.       170.      9.748  7.617E-02
      1510.       170.      9.765  6.841E-02
      1510.       170.      9.779  7.033E-02
      1510.       170.      9.793  7.612E-02
      1510.       170.      9.816  8.480E-02
      1510.       170.      9.841  8.381E-02
      1510.       170.      9.859  8.185E-02
      1510.       170.      9.878  9.054E-02
      1510.       170.      9.889  8.243E-02
      1510.       170.      9.909  9.923E-02
      1510.       170.      9.930  9.827E-02
      1510.       170.      9.958  9.263E-02
      1510.       170.      9.982  7.859E-02
      1510.       170.      9.999  9.632E-02
      1510.       170.     10.022  9.069E-02
      1510.       170.     10.035  9.068E-02
      1510.       170.     10.059  1.019E-01
      1510.       170.     10.076  1.037E-01
      1510.       170.     10.095  9.342E-02
      1510.       170.     10.127  1.027E-01
      1510.       170.     10.159  1.018E-01
      1510.       170.     10.175  9.707E-02
      1510.       170.     10.177  1.092E-01
      1510.       170.     10.202  1.045E-01
      1510.       170.     10.222  1.064E-01
      1510.       170.     10.233  8.486E-02
      1510.       170.     10.252  1.026E-01
      1510.       170.     10.278  1.007E-01
      1510.       170.     10.290  9.788E-02
      1510.       170.     10.301  1.035E-01
      1510.       170.     10.316  1.025E-01
      1510.       170.     10.333  1.016E-01
      1510.       170.     10.346  1.016E-01
      1510.       170.     10.357  9.500E-02
      1510.       170.     10.372  1.127E-01
      1510.       170.     10.397  1.155E-01
      1510.       170.     10.410  1.164E-01
      1510.       170.     10.423  1.473E-01
      1510.       170.     10.436  1.398E-01
      1510.       170.     10.444  1.734E-01
      1510.       170.     10.451  1.986E-01
      1510.       170.     10.463  1.818E-01
      1510.       170.     10.472  1.808E-01
      1510.       170.     10.487  1.790E-01
      1510.       170.     10.498  1.724E-01
      1510.       170.     10.515  1.668E-01
      1510.       170.     10.522  1.612E-01
      1510.       170.     10.536  1.677E-01
      1510.       170.     10.551  1.686E-01
      1510.       170.     10.566  1.677E-01
      1510.       170.     10.586  1.676E-01
      1510.       170.     10.597  1.536E-01
      1510.       170.     10.618  1.396E-01
      1510.       170.     10.627  1.003E-01
      1510.       170.     10.638  1.181E-01
      1510.       170.     10.648  1.106E-01
      1510.       170.     10.659  1.180E-01
      1510.       170.     10.670  1.330E-01
      1510.       170.     10.685  1.320E-01
      1510.       170.     10.698  1.283E-01
      1510.       170.     10.710  1.404E-01
      1510.       170.     10.725  1.254E-01
      1510.       170.     10.738  1.478E-01
      1510.       170.     10.755  1.572E-01
      1510.       170.     10.774  1.609E-01
      1510.       170.     10.779  1.712E-01
      1510.       170.     10.798  1.721E-01
      1510.       170.     10.807  1.599E-01
      1510.       170.     10.820  1.375E-01
      1510.       170.     10.830  1.113E-01
      1510.       170.     10.846  1.113E-01
      1510.       170.     10.865  1.206E-01
      1510.       170.     10.878  1.159E-01
      1510.       170.     10.890  1.094E-01
      1510.       170.     10.901  1.243E-01
      1510.       170.     10.925  1.336E-01
      1510.       170.     10.940  1.233E-01
      1510.       170.     10.959  1.261E-01
      1510.       170.     10.978  1.224E-01
      1510.       170.     10.983  1.111E-01
      1510.       170.     10.998  1.074E-01
      1510.       170.     11.017  1.008E-01
      1510.       170.     11.032  9.146E-02
      1510.       170.     11.047  1.083E-01
      1510.       170.     11.051  1.279E-01
      1510.       170.     11.066  1.466E-01
      1510.       170.     11.075  1.503E-01
      1510.       170.     11.100  1.774E-01
      1510.       170.     11.118  1.502E-01
      1510.       170.     11.128  1.371E-01
      1510.       170.     11.152  1.156E-01
      1510.       170.     11.173  1.063E-01
      1510.       170.     11.188  1.193E-01
      1510.       170.     11.208  1.576E-01
      1510.       170.     11.229  1.996E-01
      1510.       170.     11.248  1.950E-01
      1510.       170.     11.265  1.987E-01
      1510.       170.     11.293  2.033E-01
      1510.       170.     11.308  1.968E-01
      1510.       170.     11.334  1.818E-01
      1510.       170.     11.347  1.743E-01
      1510.       170.     11.362  1.761E-01
      1510.       170.     11.388  1.696E-01
      1510.       170.     11.413  1.714E-01
      1510.       170.     11.430  1.536E-01
      1510.       170.     11.452  1.359E-01
      1510.       170.     11.463  1.209E-01
      1510.       170.     11.480  1.190E-01
      1510.       170.     11.506  1.078E-01
      1510.       170.     11.533  1.302E-01
      1510.       170.     11.550  1.685E-01
      1510.       170.     11.568  1.834E-01
      1510.       170.     11.593  1.992E-01
      1510.       170.     11.608  2.151E-01
      1510.       170.     11.627  2.188E-01
      1510.       170.     11.643  2.113E-01
      1510.       170.     11.666  2.328E-01
      1510.       170.     11.685  2.421E-01
      1510.       170.     11.711  2.515E-01
      1510.       170.     11.726  2.552E-01
      1510.       170.     11.747  2.617E-01
      1510.       170.     11.775  2.729E-01
      1510.       170.     11.796  2.850E-01
      1510.       170.     11.822  2.887E-01
      1510.       170.     11.852  3.335E-01
      1510.       170.     11.867  3.326E-01
      1510.       170.     11.886  2.942E-01
      1510.       170.     11.912  2.923E-01
      1510.       170.     11.925  2.615E-01
      1510.       170.     11.947  2.213E-01
      1560.       170.      9.324  1.676E-02
      1560.       170.      9.374  2.074E-02
      1560.       170.      9.430  1.888E-02
      1560.       170.      9.482  2.578E-02
      1560.       170.      9.529  1.514E-02
      1560.       170.      9.552  2.200E-02
      1560.       170.      9.573  1.911E-02
      1560.       170.      9.587  1.719E-02
      1560.       170.      9.604  2.209E-02
      1560.       170.      9.608  3.281E-02
      1560.       170.      9.627  3.284E-02
      1560.       170.      9.631  4.843E-02
      1560.       170.      9.645  6.209E-02
      1560.       170.      9.654  7.379E-02
      1560.       170.      9.662  1.050E-01
      1560.       170.      9.677  1.030E-01
      1560.       170.      9.683  1.196E-01
      1560.       170.      9.695  1.148E-01
      1560.       170.      9.702  9.432E-02
      1560.       170.      9.716  9.142E-02
      1560.       170.      9.731  9.729E-02
      1560.       170.      9.741  8.952E-02
      1560.       170.      9.753  8.272E-02
      1560.       170.      9.763  6.131E-02
      1560.       170.      9.774  5.840E-02
      1560.       170.      9.786  5.258E-02
      1560.       170.      9.794  3.993E-02
      1560.       170.      9.807  4.092E-02
      1560.       170.      9.817  2.925E-02
      1560.       170.      9.846  2.151E-02
      1560.       170.      9.860  2.056E-02
      1560.       170.      9.883  2.546E-02
      1560.       170.      9.896  1.672E-02
      1560.       170.      9.923  2.358E-02
      1560.       170.      9.943  2.069E-02
      1560.       170.      9.956  2.364E-02
      1560.       170.      9.978  2.172E-02
      1560.       170.      9.993  1.785E-02
      1560.       170.     10.010  1.691E-02
      1560.       170.     10.030  2.278E-02
      1560.       170.     10.043  1.891E-02
      1560.       170.     10.061  1.894E-02
      1560.       170.     10.080  2.092E-02
      1560.       170.     10.092  2.678E-02
      1560.       170.     10.105  2.291E-02
      1560.       170.     10.123  2.391E-02
      1560.       170.     10.146  2.492E-02
      1560.       170.     10.157  3.078E-02
      1560.       170.     10.171  4.249E-02
      1560.       170.     10.190  3.668E-02
      1560.       170.     10.208  3.768E-02
      1560.       170.     10.227  3.577E-02
      1560.       170.     10.248  4.165E-02
      1560.       170.     10.266  4.265E-02
      1560.       170.     10.279  5.144E-02
      1560.       170.     10.296  6.510E-02
      1560.       170.     10.316  5.734E-02
      1560.       170.     10.327  7.489E-02
      1560.       170.     10.341  8.368E-02
      1560.       170.     10.356  1.071E-01
      1560.       170.     10.366  1.266E-01
      1560.       170.     10.381  1.578E-01
      1560.       170.     10.386  1.948E-01
      1560.       170.     10.398  2.231E-01
      1560.       170.     10.407  2.591E-01
      1560.       170.     10.416  3.371E-01
      1560.       170.     10.417  3.088E-01
      1560.       170.     10.434  3.419E-01
      1560.       170.     10.449  3.157E-01
      1560.       170.     10.459  2.991E-01
      1560.       170.     10.464  2.163E-01
      1560.       170.     10.479  1.959E-01
      1560.       170.     10.483  1.599E-01
      1560.       170.     10.497  1.434E-01
      1560.       170.     10.501  1.093E-01
      1560.       170.     10.517  9.858E-02
      1560.       170.     10.528  8.983E-02
      1560.       170.     10.536  7.621E-02
      1560.       170.     10.553  7.137E-02
      1560.       170.     10.563  6.749E-02
      1560.       170.     10.577  5.874E-02
      1560.       170.     10.590  5.292E-02
      1560.       170.     10.600  4.320E-02
      1560.       170.     10.610  4.029E-02
      1560.       170.     10.618  2.959E-02
      1560.       170.     10.627  2.279E-02
      1560.       170.     10.643  3.352E-02
      1560.       170.     10.664  2.479E-02
      1560.       170.     10.683  3.164E-02
      1560.       170.     10.701  3.557E-02
      1560.       170.     10.707  2.778E-02
      1560.       170.     10.720  3.462E-02
      1560.       170.     10.732  2.685E-02
      1560.       170.     10.751  3.273E-02
      1560.       170.     10.761  2.495E-02
      1560.       170.     10.774  3.764E-02
      1560.       170.     10.795  3.670E-02
      1560.       170.     10.801  2.794E-02
      1560.       170.     10.817  3.186E-02
      1560.       170.     10.830  2.701E-02
      1560.       170.     10.844  3.580E-02
      1560.       170.     10.865  3.681E-02
      1560.       170.     10.880  3.878E-02
      1560.       170.     10.890  4.659E-02
      1560.       170.     10.902  5.440E-02
      1560.       170.     10.911  4.760E-02
      1560.       170.     10.925  4.470E-02
      1560.       170.     10.944  4.473E-02
      1560.       170.     10.958  3.307E-02
      1560.       170.     10.973  4.381E-02
      1560.       170.     10.993  3.994E-02
      1560.       170.     11.006  4.776E-02
      1560.       170.     11.020  4.096E-02
      1560.       170.     11.029  3.221E-02
      1560.       170.     11.041  2.638E-02
      1560.       170.     11.058  2.641E-02
      1560.       170.     11.072  2.254E-02
      1560.       170.     11.101  1.966E-02
      1560.       170.     11.117  1.579E-02
      1560.       170.     11.159  2.463E-02
      1560.       170.     11.180  1.979E-02
      1560.       170.     11.200  2.177E-02
      1560.       170.     11.221  4.421E-02
      1560.       170.     11.244  6.860E-02
      1560.       170.     11.265  7.350E-02
      1560.       170.     11.283  7.256E-02
      1560.       170.     11.294  4.433E-02
      1560.       170.     11.308  3.169E-02
      1560.       170.     11.325  3.951E-02
      1560.       170.     11.348  3.857E-02
      1560.       170.     11.376  3.959E-02
      1560.       170.     11.393  7.274E-02
      1560.       170.     11.414  7.082E-02
      1560.       170.     11.432  5.624E-02
      1560.       170.     11.451  3.582E-02
      1560.       170.     11.472  4.365E-02
      1560.       170.     11.497  3.492E-02
      1560.       170.     11.519  3.593E-02
      1560.       170.     11.538  3.499E-02
      1560.       170.     11.552  3.209E-02
      1560.       170.     11.567  2.237E-02
      1560.       170.     11.583  2.045E-02
      1560.       170.     11.604  1.659E-02
      1560.       170.     11.623  1.760E-02
      1560.       170.     11.627  2.345E-02
      1560.       170.     11.644  1.763E-02
      1560.       170.     11.675  1.476E-02
      1560.       170.     11.695  1.771E-02
      1560.       170.     11.722  1.191E-02
      1560.       170.     11.749  1.585E-02
      1560.       170.     11.776  1.200E-02
      1560.       170.     11.801  1.789E-02
      1560.       170.     11.830  2.767E-02
      1560.       170.     11.857  2.285E-02
      1560.       170.     11.869  1.605E-02
      1560.       170.     11.882  1.899E-02
      1560.       170.     11.898  2.194E-02
      1560.       170.     11.915  2.294E-02
      1560.       170.     11.931  3.368E-02
      1791.       170.    9.33615  6.485E-03  5.415E-03
      1791.       170.    9.38263  7.006E-03  4.927E-03
      1791.       170.    9.43687  6.054E-03  6.408E-03
      1791.       170.    9.48913  1.052E-02  7.879E-03
      1791.       170.    9.55484  2.534E-02  8.375E-03
      1791.       170.    9.57237  1.500E-02
      1791.       170.    9.59369  1.403E-02  6.404E-03
      1791.       170.    9.60515  3.079E-02
      1791.       170.    9.61101  2.537E-02
      1791.       170.    9.62252  3.720E-02
      1791.       170.    9.63206  5.198E-02
      1791.       170.    9.63779  6.086E-02
      1791.       170.    9.64930  7.318E-02
      1791.       170.    9.65683  9.584E-02
      1791.       170.    9.66824  1.180E-01
      1791.       170.    9.67800  1.101E-01  5.417E-03
      1791.       170.    9.70138  9.587E-02  8.375E-03
      1791.       170.    9.70745  6.779E-02
      1791.       170.    9.71929  4.563E-02
      1791.       170.    9.73668  5.008E-02
      1791.       170.    9.75029  4.418E-02
      1791.       170.    9.75432  2.743E-02
      1791.       170.    9.76406  2.202E-02
      1791.       170.    9.76980  2.941E-02
      1791.       170.    9.79119  2.056E-02
      1791.       170.    9.80286  1.515E-02
      1791.       170.    9.81638  2.008E-02
      1791.       170.    9.83384  1.714E-02
      1791.       170.    9.85327  1.025E-02
      1791.       170.    9.87654  7.310E-03
      1791.       170.    9.89200  1.077E-02
      1791.       170.    9.91334  7.332E-03
      1791.       170.    9.92877  1.473E-02
      1791.       170.    9.94430  1.129E-02
      1791.       170.    9.97339  7.369E-03  4.437E-03
      1791.       170.   10.05069  2.564E-02  7.880E-03
      1791.       170.   10.07000  3.206E-02
      1791.       170.   10.09523  2.666E-02  5.420E-03
      1791.       170.   10.11073  2.666E-02  5.415E-03
      1791.       170.   10.13010  2.668E-02  6.893E-03
      1791.       170.   10.14945  2.767E-02
      1791.       170.   10.15327  3.359E-02
      1791.       170.   10.17846  3.311E-02
      1791.       170.   10.19783  3.312E-02  6.900E-03
      1791.       170.   10.21914  3.264E-02
      1791.       170.   10.23656  3.315E-02
      1791.       170.   10.24438  2.625E-02
      1791.       170.   10.26176  3.119E-02
      1791.       170.   10.27537  2.627E-02
      1791.       170.   10.29468  3.269E-02
      1791.       170.   10.30829  2.679E-02
      1791.       170.   10.32765  2.778E-02
      1791.       170.   10.33544  2.385E-02
      1791.       170.   10.35092  2.484E-02
      1791.       170.   10.36644  2.288E-02
      1791.       170.   10.37818  1.008E-02
      1791.       170.   10.40518  2.192E-02
      1791.       170.   10.41470  3.917E-02
      1791.       170.   10.42627  4.459E-02
      1791.       170.   10.44177  4.411E-02
      1791.       170.   10.45929  3.575E-02
      1791.       170.   10.47486  2.738E-02
      1791.       170.   10.49038  2.444E-02
      1791.       170.   10.49998  3.429E-02
      1791.       170.   10.50983  1.607E-02
      1791.       170.   10.53308  1.609E-02
      1791.       170.   10.54659  2.053E-02  9.362E-03
      1791.       170.   10.56602  1.463E-02
      1791.       170.   10.58148  1.858E-02
      1791.       170.   10.58520  3.385E-02
      1791.       170.   10.60091  1.219E-02
      1791.       170.   10.63758  2.551E-02
      1791.       170.   10.65121  1.813E-02
      1791.       170.   10.66853  2.947E-02
      1791.       170.   10.67828  2.258E-02
      1791.       170.   10.69762  2.653E-02
      1791.       170.   10.71698  2.704E-02  7.388E-03
      1791.       170.   10.74608  2.262E-02
      1791.       170.   10.77116  3.249E-02
      1791.       170.   10.79059  2.610E-02
      1791.       170.   10.79841  1.871E-02
      1791.       170.   10.81560  4.434E-02
      1791.       170.   10.81957  3.400E-02
      1791.       170.   10.83509  3.204E-02
      1791.       170.   10.83514  2.613E-02
      1791.       170.   10.85641  3.008E-02
      1791.       170.   10.86226  2.614E-02
      1791.       170.   10.86615  2.467E-02
      1791.       170.   10.86813  2.023E-02
      1791.       170.   10.88365  1.680E-02
      1791.       170.   10.89730  7.938E-03
      1791.       170.   10.91275  1.189E-02
      1791.       170.   10.93021  9.436E-03
      1791.       170.   10.94374  1.289E-02  8.376E-03
      1791.       170.   10.97085  1.340E-02
      1791.       170.   10.99407  1.539E-02
      1791.       170.   11.01333  2.673E-02
      1791.       170.   11.01730  1.639E-02
      1791.       170.   11.03670  1.393E-02
      1791.       170.   11.05020  1.985E-02
      1791.       170.   11.05986  2.232E-02
      1791.       170.   11.06576  1.346E-02
      1791.       170.   11.09289  1.200E-02
      1791.       170.   11.11415  1.694E-02
      1791.       170.   11.11416  1.497E-02  5.909E-03
      1791.       170.   11.13354  1.449E-02
      1791.       170.   11.15484  1.499E-02
      1791.       170.   11.17997  2.043E-02
      1791.       170.   11.19943  1.108E-02
      1791.       170.   11.21301  8.625E-03
      1791.       170.   11.23422  1.849E-02
      1791.       170.   11.25748  1.653E-02
      1791.       170.   11.27500  7.678E-03
      1791.       170.   11.29433  1.212E-02  5.910E-03
      1791.       170.   11.31172  1.657E-02
      1791.       170.   11.33498  1.461E-02
      1791.       170.   11.35432  1.709E-02
      1791.       170.   11.37763  1.020E-02
      1791.       170.   11.39696  1.416E-02
      1791.       170.   11.41440  1.367E-02
      1791.       170.   11.43381  9.746E-03
      1791.       170.   11.45320  6.802E-03  6.400E-03
      1791.       170.   11.50934  1.078E-02
      1791.       170.   11.53063  1.178E-02
      1791.       170.   11.55974  6.375E-03
      1791.       170.   11.57911  6.387E-03
      1791.       170.   11.59843  1.182E-02
      1791.       170.   11.60814  8.868E-03
      1791.       170.   11.63912  9.380E-03
      1791.       170.   11.66239  6.931E-03
      1791.       170.   11.69532  6.951E-03
      1791.       170.   11.71463  1.287E-02
      1791.       170.   11.73401  1.239E-02
      1791.       170.   11.75338  1.191E-02
      1791.       170.   11.77657  1.784E-02  6.894E-03
      1791.       170.   11.81333  2.131E-02
      1791.       170.   11.85009  2.576E-02
      1791.       170.   11.86741  3.760E-02
      1791.       170.   11.89262  3.466E-02
      1791.       170.   11.91210  2.334E-02
      1791.       170.   11.93734  1.646E-02  6.406E-03
ENDDATA            781
ENDSUBENT          799
ENDENTRY            11
